# Wavelength	PV7_00002.asd.rts.txt
350.000000	0.182752
351.000000	0.188009
352.000000	0.186628
353.000000	0.185211
354.000000	0.188131
355.000000	0.187428
356.000000	0.187683
357.000000	0.190598
358.000000	0.193128
359.000000	0.194054
360.000000	0.193064
361.000000	0.190727
362.000000	0.194146
363.000000	0.196068
364.000000	0.193503
365.000000	0.198591
366.000000	0.198667
367.000000	0.193218
368.000000	0.192326
369.000000	0.194852
370.000000	0.197534
371.000000	0.196931
372.000000	0.196759
373.000000	0.197446
374.000000	0.198892
375.000000	0.199225
376.000000	0.198393
377.000000	0.197841
378.000000	0.201001
379.000000	0.202847
380.000000	0.203369
381.000000	0.204709
382.000000	0.205796
383.000000	0.205356
384.000000	0.203684
385.000000	0.204512
386.000000	0.205548
387.000000	0.206008
388.000000	0.206396
389.000000	0.205846
390.000000	0.205742
391.000000	0.207650
392.000000	0.208335
393.000000	0.208194
394.000000	0.208117
395.000000	0.208736
396.000000	0.209900
397.000000	0.211053
398.000000	0.211050
399.000000	0.211311
400.000000	0.211900
401.000000	0.212215
402.000000	0.212285
403.000000	0.212458
404.000000	0.213077
405.000000	0.213707
406.000000	0.214049
407.000000	0.214143
408.000000	0.214390
409.000000	0.214879
410.000000	0.215402
411.000000	0.215530
412.000000	0.215723
413.000000	0.216125
414.000000	0.216722
415.000000	0.216902
416.000000	0.217141
417.000000	0.217648
418.000000	0.217854
419.000000	0.218210
420.000000	0.218695
421.000000	0.218896
422.000000	0.218870
423.000000	0.218997
424.000000	0.219704
425.000000	0.219995
426.000000	0.220200
427.000000	0.220595
428.000000	0.220806
429.000000	0.220973
430.000000	0.221209
431.000000	0.221613
432.000000	0.221940
433.000000	0.222109
434.000000	0.222224
435.000000	0.222514
436.000000	0.222794
437.000000	0.222869
438.000000	0.223012
439.000000	0.223169
440.000000	0.223358
441.000000	0.223441
442.000000	0.223770
443.000000	0.224132
444.000000	0.224044
445.000000	0.224053
446.000000	0.224358
447.000000	0.224832
448.000000	0.225093
449.000000	0.225245
450.000000	0.225434
451.000000	0.225733
452.000000	0.225996
453.000000	0.226165
454.000000	0.226483
455.000000	0.226777
456.000000	0.227104
457.000000	0.227431
458.000000	0.227562
459.000000	0.227685
460.000000	0.228008
461.000000	0.228308
462.000000	0.228589
463.000000	0.228756
464.000000	0.228975
465.000000	0.229299
466.000000	0.229594
467.000000	0.229701
468.000000	0.229909
469.000000	0.230162
470.000000	0.230457
471.000000	0.230661
472.000000	0.230802
473.000000	0.230953
474.000000	0.231170
475.000000	0.231340
476.000000	0.231552
477.000000	0.231810
478.000000	0.231846
479.000000	0.231959
480.000000	0.232328
481.000000	0.232514
482.000000	0.232748
483.000000	0.233071
484.000000	0.233365
485.000000	0.233543
486.000000	0.233734
487.000000	0.233906
488.000000	0.234190
489.000000	0.234544
490.000000	0.234776
491.000000	0.235032
492.000000	0.235332
493.000000	0.235550
494.000000	0.235747
495.000000	0.235992
496.000000	0.236274
497.000000	0.236514
498.000000	0.236756
499.000000	0.237058
500.000000	0.237331
501.000000	0.237612
502.000000	0.237907
503.000000	0.238134
504.000000	0.238376
505.000000	0.238636
506.000000	0.238902
507.000000	0.239162
508.000000	0.239432
509.000000	0.239700
510.000000	0.240017
511.000000	0.240287
512.000000	0.240529
513.000000	0.240804
514.000000	0.241161
515.000000	0.241529
516.000000	0.241758
517.000000	0.242002
518.000000	0.242336
519.000000	0.242691
520.000000	0.242921
521.000000	0.243159
522.000000	0.243451
523.000000	0.243690
524.000000	0.243933
525.000000	0.244198
526.000000	0.244527
527.000000	0.244776
528.000000	0.244989
529.000000	0.245276
530.000000	0.245503
531.000000	0.245744
532.000000	0.245983
533.000000	0.246252
534.000000	0.246553
535.000000	0.246867
536.000000	0.247190
537.000000	0.247483
538.000000	0.247760
539.000000	0.248047
540.000000	0.248326
541.000000	0.248573
542.000000	0.248808
543.000000	0.249069
544.000000	0.249348
545.000000	0.249585
546.000000	0.249854
547.000000	0.250117
548.000000	0.250389
549.000000	0.250641
550.000000	0.250917
551.000000	0.251225
552.000000	0.251517
553.000000	0.251799
554.000000	0.252124
555.000000	0.252510
556.000000	0.252843
557.000000	0.253144
558.000000	0.253509
559.000000	0.253807
560.000000	0.254093
561.000000	0.254429
562.000000	0.254745
563.000000	0.255021
564.000000	0.255329
565.000000	0.255643
566.000000	0.255935
567.000000	0.256251
568.000000	0.256582
569.000000	0.256855
570.000000	0.257136
571.000000	0.257430
572.000000	0.257713
573.000000	0.257995
574.000000	0.258262
575.000000	0.258549
576.000000	0.258865
577.000000	0.259156
578.000000	0.259446
579.000000	0.259779
580.000000	0.260112
581.000000	0.260416
582.000000	0.260696
583.000000	0.260959
584.000000	0.261228
585.000000	0.261533
586.000000	0.261785
587.000000	0.262005
588.000000	0.262242
589.000000	0.262474
590.000000	0.262706
591.000000	0.262946
592.000000	0.263209
593.000000	0.263456
594.000000	0.263695
595.000000	0.263988
596.000000	0.264296
597.000000	0.264611
598.000000	0.264845
599.000000	0.265054
600.000000	0.265287
601.000000	0.265519
602.000000	0.265798
603.000000	0.266049
604.000000	0.266260
605.000000	0.266501
606.000000	0.266732
607.000000	0.266945
608.000000	0.267143
609.000000	0.267368
610.000000	0.267583
611.000000	0.267741
612.000000	0.267876
613.000000	0.267963
614.000000	0.268026
615.000000	0.268088
616.000000	0.268168
617.000000	0.268241
618.000000	0.268323
619.000000	0.268381
620.000000	0.268393
621.000000	0.268404
622.000000	0.268462
623.000000	0.268534
624.000000	0.268600
625.000000	0.268757
626.000000	0.268921
627.000000	0.269077
628.000000	0.269318
629.000000	0.269601
630.000000	0.269796
631.000000	0.269973
632.000000	0.270081
633.000000	0.270203
634.000000	0.270397
635.000000	0.270504
636.000000	0.270639
637.000000	0.270850
638.000000	0.271078
639.000000	0.271275
640.000000	0.271469
641.000000	0.271609
642.000000	0.271769
643.000000	0.271934
644.000000	0.272068
645.000000	0.272218
646.000000	0.272368
647.000000	0.272488
648.000000	0.272649
649.000000	0.272853
650.000000	0.273054
651.000000	0.273198
652.000000	0.273318
653.000000	0.273477
654.000000	0.273668
655.000000	0.273832
656.000000	0.274013
657.000000	0.274199
658.000000	0.274351
659.000000	0.274507
660.000000	0.274675
661.000000	0.274865
662.000000	0.275017
663.000000	0.275172
664.000000	0.275341
665.000000	0.275481
666.000000	0.275588
667.000000	0.275658
668.000000	0.275796
669.000000	0.275946
670.000000	0.276078
671.000000	0.276225
672.000000	0.276425
673.000000	0.276645
674.000000	0.276811
675.000000	0.276948
676.000000	0.277098
677.000000	0.277303
678.000000	0.277476
679.000000	0.277611
680.000000	0.277724
681.000000	0.277824
682.000000	0.277998
683.000000	0.278188
684.000000	0.278386
685.000000	0.278564
686.000000	0.278736
687.000000	0.278882
688.000000	0.278997
689.000000	0.279132
690.000000	0.279327
691.000000	0.279446
692.000000	0.279538
693.000000	0.279698
694.000000	0.279919
695.000000	0.280139
696.000000	0.280333
697.000000	0.280502
698.000000	0.280677
699.000000	0.280845
700.000000	0.280998
701.000000	0.281139
702.000000	0.281304
703.000000	0.281472
704.000000	0.281583
705.000000	0.281720
706.000000	0.281854
707.000000	0.281999
708.000000	0.282173
709.000000	0.282357
710.000000	0.282545
711.000000	0.282682
712.000000	0.282805
713.000000	0.282956
714.000000	0.283145
715.000000	0.283306
716.000000	0.283443
717.000000	0.283565
718.000000	0.283677
719.000000	0.283776
720.000000	0.283876
721.000000	0.284021
722.000000	0.284114
723.000000	0.284203
724.000000	0.284371
725.000000	0.284530
726.000000	0.284695
727.000000	0.284776
728.000000	0.284853
729.000000	0.284952
730.000000	0.285039
731.000000	0.285161
732.000000	0.285284
733.000000	0.285418
734.000000	0.285523
735.000000	0.285584
736.000000	0.285702
737.000000	0.285793
738.000000	0.285875
739.000000	0.286027
740.000000	0.286138
741.000000	0.286228
742.000000	0.286289
743.000000	0.286310
744.000000	0.286350
745.000000	0.286434
746.000000	0.286569
747.000000	0.286668
748.000000	0.286798
749.000000	0.286940
750.000000	0.287041
751.000000	0.287113
752.000000	0.287193
753.000000	0.287294
754.000000	0.287381
755.000000	0.287404
756.000000	0.287428
757.000000	0.287483
758.000000	0.287518
759.000000	0.287601
760.000000	0.287696
761.000000	0.287796
762.000000	0.287915
763.000000	0.288028
764.000000	0.288157
765.000000	0.288267
766.000000	0.288362
767.000000	0.288438
768.000000	0.288471
769.000000	0.288467
770.000000	0.288463
771.000000	0.288540
772.000000	0.288630
773.000000	0.288691
774.000000	0.288805
775.000000	0.288842
776.000000	0.288868
777.000000	0.288926
778.000000	0.288986
779.000000	0.289029
780.000000	0.289064
781.000000	0.289102
782.000000	0.289155
783.000000	0.289268
784.000000	0.289326
785.000000	0.289397
786.000000	0.289456
787.000000	0.289485
788.000000	0.289505
789.000000	0.289509
790.000000	0.289510
791.000000	0.289573
792.000000	0.289672
793.000000	0.289782
794.000000	0.289882
795.000000	0.289960
796.000000	0.289980
797.000000	0.289941
798.000000	0.289887
799.000000	0.289860
800.000000	0.289870
801.000000	0.289913
802.000000	0.289990
803.000000	0.290026
804.000000	0.290021
805.000000	0.289998
806.000000	0.289959
807.000000	0.289987
808.000000	0.290049
809.000000	0.290116
810.000000	0.290115
811.000000	0.290017
812.000000	0.289976
813.000000	0.289943
814.000000	0.289903
815.000000	0.289898
816.000000	0.289947
817.000000	0.290073
818.000000	0.290202
819.000000	0.290311
820.000000	0.290351
821.000000	0.290261
822.000000	0.290104
823.000000	0.289976
824.000000	0.289890
825.000000	0.289920
826.000000	0.289908
827.000000	0.289887
828.000000	0.289923
829.000000	0.289961
830.000000	0.289966
831.000000	0.289984
832.000000	0.289956
833.000000	0.289929
834.000000	0.289952
835.000000	0.290053
836.000000	0.290102
837.000000	0.290053
838.000000	0.289954
839.000000	0.289891
840.000000	0.289859
841.000000	0.289836
842.000000	0.289771
843.000000	0.289711
844.000000	0.289702
845.000000	0.289704
846.000000	0.289649
847.000000	0.289558
848.000000	0.289506
849.000000	0.289568
850.000000	0.289564
851.000000	0.289535
852.000000	0.289533
853.000000	0.289510
854.000000	0.289464
855.000000	0.289447
856.000000	0.289348
857.000000	0.289145
858.000000	0.289033
859.000000	0.289002
860.000000	0.288938
861.000000	0.288843
862.000000	0.288804
863.000000	0.288835
864.000000	0.288790
865.000000	0.288708
866.000000	0.288640
867.000000	0.288557
868.000000	0.288481
869.000000	0.288370
870.000000	0.288263
871.000000	0.288128
872.000000	0.288012
873.000000	0.287877
874.000000	0.287699
875.000000	0.287546
876.000000	0.287419
877.000000	0.287225
878.000000	0.286999
879.000000	0.286870
880.000000	0.286760
881.000000	0.286639
882.000000	0.286533
883.000000	0.286418
884.000000	0.286209
885.000000	0.286059
886.000000	0.285932
887.000000	0.285819
888.000000	0.285716
889.000000	0.285641
890.000000	0.285485
891.000000	0.285313
892.000000	0.285130
893.000000	0.284895
894.000000	0.284690
895.000000	0.284446
896.000000	0.284226
897.000000	0.284018
898.000000	0.283797
899.000000	0.283633
900.000000	0.283496
901.000000	0.283339
902.000000	0.283224
903.000000	0.283076
904.000000	0.282927
905.000000	0.282741
906.000000	0.282609
907.000000	0.282478
908.000000	0.282348
909.000000	0.282126
910.000000	0.281952
911.000000	0.281804
912.000000	0.281646
913.000000	0.281468
914.000000	0.281244
915.000000	0.281036
916.000000	0.280823
917.000000	0.280623
918.000000	0.280462
919.000000	0.280320
920.000000	0.280143
921.000000	0.279942
922.000000	0.279700
923.000000	0.279376
924.000000	0.279094
925.000000	0.278889
926.000000	0.278768
927.000000	0.278604
928.000000	0.278377
929.000000	0.278082
930.000000	0.277749
931.000000	0.277478
932.000000	0.277228
933.000000	0.276993
934.000000	0.276726
935.000000	0.276534
936.000000	0.276373
937.000000	0.276108
938.000000	0.275830
939.000000	0.275678
940.000000	0.275539
941.000000	0.275310
942.000000	0.275102
943.000000	0.274931
944.000000	0.274714
945.000000	0.274607
946.000000	0.274350
947.000000	0.274052
948.000000	0.273832
949.000000	0.273554
950.000000	0.273331
951.000000	0.273141
952.000000	0.272933
953.000000	0.272628
954.000000	0.272345
955.000000	0.272109
956.000000	0.271857
957.000000	0.271610
958.000000	0.271396
959.000000	0.271316
960.000000	0.271082
961.000000	0.270824
962.000000	0.270601
963.000000	0.270406
964.000000	0.270211
965.000000	0.269985
966.000000	0.269632
967.000000	0.269332
968.000000	0.269092
969.000000	0.268840
970.000000	0.268598
971.000000	0.268487
972.000000	0.268392
973.000000	0.268221
974.000000	0.268106
975.000000	0.267858
976.000000	0.267637
977.000000	0.267538
978.000000	0.267293
979.000000	0.266976
980.000000	0.266642
981.000000	0.266677
982.000000	0.266547
983.000000	0.266279
984.000000	0.266049
985.000000	0.265986
986.000000	0.265815
987.000000	0.265672
988.000000	0.265543
989.000000	0.265255
990.000000	0.265051
991.000000	0.264925
992.000000	0.264836
993.000000	0.264830
994.000000	0.264656
995.000000	0.264432
996.000000	0.264211
997.000000	0.264179
998.000000	0.264055
999.000000	0.263843
1000.000000	0.263808
1001.000000	0.263877
1002.000000	0.263905
1003.000000	0.263925
1004.000000	0.263795
1005.000000	0.263549
1006.000000	0.263289
1007.000000	0.262984
1008.000000	0.262611
1009.000000	0.262490
1010.000000	0.262509
1011.000000	0.262587
1012.000000	0.262686
1013.000000	0.262357
1014.000000	0.262014
1015.000000	0.261892
1016.000000	0.261813
1017.000000	0.261849
1018.000000	0.261981
1019.000000	0.261941
1020.000000	0.261801
1021.000000	0.261495
1022.000000	0.261216
1023.000000	0.261237
1024.000000	0.261188
1025.000000	0.261332
1026.000000	0.261550
1027.000000	0.261361
1028.000000	0.261294
1029.000000	0.261438
1030.000000	0.261373
1031.000000	0.261340
1032.000000	0.261210
1033.000000	0.260819
1034.000000	0.260781
1035.000000	0.260978
1036.000000	0.261111
1037.000000	0.261514
1038.000000	0.261613
1039.000000	0.261638
1040.000000	0.261663
1041.000000	0.261622
1042.000000	0.261645
1043.000000	0.261926
1044.000000	0.262115
1045.000000	0.262120
1046.000000	0.262097
1047.000000	0.262199
1048.000000	0.262133
1049.000000	0.262266
1050.000000	0.262732
1051.000000	0.262911
1052.000000	0.262946
1053.000000	0.262978
1054.000000	0.263000
1055.000000	0.263143
1056.000000	0.263367
1057.000000	0.263645
1058.000000	0.263781
1059.000000	0.263826
1060.000000	0.263967
1061.000000	0.264181
1062.000000	0.264397
1063.000000	0.264578
1064.000000	0.264809
1065.000000	0.264952
1066.000000	0.265126
1067.000000	0.265388
1068.000000	0.265539
1069.000000	0.265478
1070.000000	0.265589
1071.000000	0.265904
1072.000000	0.266031
1073.000000	0.266131
1074.000000	0.266278
1075.000000	0.266397
1076.000000	0.266630
1077.000000	0.266882
1078.000000	0.267121
1079.000000	0.267254
1080.000000	0.267238
1081.000000	0.267308
1082.000000	0.267371
1083.000000	0.267611
1084.000000	0.268036
1085.000000	0.268366
1086.000000	0.268795
1087.000000	0.269136
1088.000000	0.269271
1089.000000	0.269460
1090.000000	0.269653
1091.000000	0.269803
1092.000000	0.269981
1093.000000	0.270250
1094.000000	0.270438
1095.000000	0.270523
1096.000000	0.270791
1097.000000	0.271156
1098.000000	0.271397
1099.000000	0.271657
1100.000000	0.271909
1101.000000	0.271968
1102.000000	0.272133
1103.000000	0.272371
1104.000000	0.272604
1105.000000	0.272888
1106.000000	0.273086
1107.000000	0.273187
1108.000000	0.273305
1109.000000	0.273428
1110.000000	0.273482
1111.000000	0.273674
1112.000000	0.273971
1113.000000	0.274216
1114.000000	0.274506
1115.000000	0.274756
1116.000000	0.275005
1117.000000	0.275210
1118.000000	0.275408
1119.000000	0.275516
1120.000000	0.275501
1121.000000	0.275593
1122.000000	0.275776
1123.000000	0.276077
1124.000000	0.276261
1125.000000	0.276515
1126.000000	0.276804
1127.000000	0.276973
1128.000000	0.277100
1129.000000	0.277244
1130.000000	0.277403
1131.000000	0.277497
1132.000000	0.277607
1133.000000	0.277802
1134.000000	0.278003
1135.000000	0.278172
1136.000000	0.278267
1137.000000	0.278377
1138.000000	0.278415
1139.000000	0.278340
1140.000000	0.278458
1141.000000	0.278648
1142.000000	0.278796
1143.000000	0.278982
1144.000000	0.279184
1145.000000	0.279193
1146.000000	0.279151
1147.000000	0.279197
1148.000000	0.279150
1149.000000	0.279199
1150.000000	0.279369
1151.000000	0.279449
1152.000000	0.279417
1153.000000	0.279514
1154.000000	0.279601
1155.000000	0.279703
1156.000000	0.279931
1157.000000	0.280056
1158.000000	0.280087
1159.000000	0.280124
1160.000000	0.280106
1161.000000	0.280104
1162.000000	0.280157
1163.000000	0.280280
1164.000000	0.280305
1165.000000	0.280351
1166.000000	0.280418
1167.000000	0.280446
1168.000000	0.280446
1169.000000	0.280499
1170.000000	0.280520
1171.000000	0.280545
1172.000000	0.280558
1173.000000	0.280479
1174.000000	0.280501
1175.000000	0.280534
1176.000000	0.280525
1177.000000	0.280660
1178.000000	0.280720
1179.000000	0.280686
1180.000000	0.280650
1181.000000	0.280702
1182.000000	0.280681
1183.000000	0.280742
1184.000000	0.280859
1185.000000	0.280930
1186.000000	0.281037
1187.000000	0.281072
1188.000000	0.281053
1189.000000	0.281035
1190.000000	0.281025
1191.000000	0.281044
1192.000000	0.281154
1193.000000	0.281296
1194.000000	0.281380
1195.000000	0.281445
1196.000000	0.281456
1197.000000	0.281469
1198.000000	0.281487
1199.000000	0.281503
1200.000000	0.281489
1201.000000	0.281486
1202.000000	0.281523
1203.000000	0.281591
1204.000000	0.281670
1205.000000	0.281745
1206.000000	0.281726
1207.000000	0.281702
1208.000000	0.281683
1209.000000	0.281654
1210.000000	0.281681
1211.000000	0.281780
1212.000000	0.281797
1213.000000	0.281853
1214.000000	0.281876
1215.000000	0.281810
1216.000000	0.281790
1217.000000	0.281759
1218.000000	0.281718
1219.000000	0.281708
1220.000000	0.281708
1221.000000	0.281727
1222.000000	0.281658
1223.000000	0.281579
1224.000000	0.281571
1225.000000	0.281488
1226.000000	0.281450
1227.000000	0.281429
1228.000000	0.281398
1229.000000	0.281320
1230.000000	0.281163
1231.000000	0.281078
1232.000000	0.281103
1233.000000	0.281167
1234.000000	0.281303
1235.000000	0.281377
1236.000000	0.281349
1237.000000	0.281384
1238.000000	0.281394
1239.000000	0.281389
1240.000000	0.281388
1241.000000	0.281370
1242.000000	0.281367
1243.000000	0.281355
1244.000000	0.281312
1245.000000	0.281367
1246.000000	0.281328
1247.000000	0.281337
1248.000000	0.281425
1249.000000	0.281453
1250.000000	0.281507
1251.000000	0.281523
1252.000000	0.281467
1253.000000	0.281336
1254.000000	0.281257
1255.000000	0.281136
1256.000000	0.281060
1257.000000	0.281029
1258.000000	0.281042
1259.000000	0.281029
1260.000000	0.281070
1261.000000	0.281115
1262.000000	0.281154
1263.000000	0.281232
1264.000000	0.281257
1265.000000	0.281330
1266.000000	0.281377
1267.000000	0.281362
1268.000000	0.281393
1269.000000	0.281395
1270.000000	0.281440
1271.000000	0.281472
1272.000000	0.281488
1273.000000	0.281555
1274.000000	0.281575
1275.000000	0.281578
1276.000000	0.281655
1277.000000	0.281689
1278.000000	0.281534
1279.000000	0.281498
1280.000000	0.281440
1281.000000	0.281388
1282.000000	0.281454
1283.000000	0.281511
1284.000000	0.281518
1285.000000	0.281502
1286.000000	0.281454
1287.000000	0.281361
1288.000000	0.281327
1289.000000	0.281266
1290.000000	0.281120
1291.000000	0.281074
1292.000000	0.281088
1293.000000	0.281015
1294.000000	0.280947
1295.000000	0.280931
1296.000000	0.280840
1297.000000	0.280766
1298.000000	0.280806
1299.000000	0.280776
1300.000000	0.280766
1301.000000	0.280782
1302.000000	0.280698
1303.000000	0.280656
1304.000000	0.280594
1305.000000	0.280540
1306.000000	0.280497
1307.000000	0.280528
1308.000000	0.280552
1309.000000	0.280578
1310.000000	0.280568
1311.000000	0.280570
1312.000000	0.280557
1313.000000	0.280484
1314.000000	0.280450
1315.000000	0.280429
1316.000000	0.280426
1317.000000	0.280440
1318.000000	0.280470
1319.000000	0.280441
1320.000000	0.280392
1321.000000	0.280355
1322.000000	0.280312
1323.000000	0.280288
1324.000000	0.280316
1325.000000	0.280334
1326.000000	0.280279
1327.000000	0.280202
1328.000000	0.280223
1329.000000	0.280162
1330.000000	0.280049
1331.000000	0.280022
1332.000000	0.280076
1333.000000	0.280060
1334.000000	0.280125
1335.000000	0.280177
1336.000000	0.280164
1337.000000	0.280163
1338.000000	0.280148
1339.000000	0.280088
1340.000000	0.280033
1341.000000	0.280047
1342.000000	0.280051
1343.000000	0.280094
1344.000000	0.280121
1345.000000	0.280071
1346.000000	0.280102
1347.000000	0.280057
1348.000000	0.280058
1349.000000	0.280065
1350.000000	0.280048
1351.000000	0.280032
1352.000000	0.279972
1353.000000	0.279925
1354.000000	0.279999
1355.000000	0.280006
1356.000000	0.280000
1357.000000	0.279964
1358.000000	0.279890
1359.000000	0.279833
1360.000000	0.279835
1361.000000	0.279982
1362.000000	0.280023
1363.000000	0.280014
1364.000000	0.280053
1365.000000	0.280021
1366.000000	0.280053
1367.000000	0.280139
1368.000000	0.280217
1369.000000	0.280332
1370.000000	0.280381
1371.000000	0.280336
1372.000000	0.280281
1373.000000	0.280246
1374.000000	0.280219
1375.000000	0.280207
1376.000000	0.280255
1377.000000	0.280286
1378.000000	0.280315
1379.000000	0.280282
1380.000000	0.280250
1381.000000	0.280216
1382.000000	0.280051
1383.000000	0.279901
1384.000000	0.279772
1385.000000	0.279597
1386.000000	0.279503
1387.000000	0.279478
1388.000000	0.279415
1389.000000	0.279390
1390.000000	0.279409
1391.000000	0.279400
1392.000000	0.279468
1393.000000	0.279492
1394.000000	0.279526
1395.000000	0.279602
1396.000000	0.279681
1397.000000	0.279715
1398.000000	0.279745
1399.000000	0.279769
1400.000000	0.279747
1401.000000	0.279733
1402.000000	0.279774
1403.000000	0.279740
1404.000000	0.279760
1405.000000	0.279769
1406.000000	0.279761
1407.000000	0.279814
1408.000000	0.279818
1409.000000	0.279834
1410.000000	0.279914
1411.000000	0.279951
1412.000000	0.279930
1413.000000	0.279974
1414.000000	0.280046
1415.000000	0.280100
1416.000000	0.280118
1417.000000	0.280139
1418.000000	0.280103
1419.000000	0.280101
1420.000000	0.280119
1421.000000	0.280199
1422.000000	0.280285
1423.000000	0.280391
1424.000000	0.280402
1425.000000	0.280428
1426.000000	0.280451
1427.000000	0.280461
1428.000000	0.280471
1429.000000	0.280478
1430.000000	0.280481
1431.000000	0.280461
1432.000000	0.280421
1433.000000	0.280414
1434.000000	0.280392
1435.000000	0.280409
1436.000000	0.280415
1437.000000	0.280455
1438.000000	0.280406
1439.000000	0.280312
1440.000000	0.280271
1441.000000	0.280220
1442.000000	0.280218
1443.000000	0.280198
1444.000000	0.280252
1445.000000	0.280244
1446.000000	0.280228
1447.000000	0.280214
1448.000000	0.280134
1449.000000	0.280084
1450.000000	0.280047
1451.000000	0.280022
1452.000000	0.279982
1453.000000	0.279919
1454.000000	0.279855
1455.000000	0.279808
1456.000000	0.279840
1457.000000	0.279926
1458.000000	0.279981
1459.000000	0.280026
1460.000000	0.280084
1461.000000	0.280102
1462.000000	0.280133
1463.000000	0.280142
1464.000000	0.280148
1465.000000	0.280214
1466.000000	0.280253
1467.000000	0.280305
1468.000000	0.280358
1469.000000	0.280398
1470.000000	0.280372
1471.000000	0.280380
1472.000000	0.280402
1473.000000	0.280481
1474.000000	0.280505
1475.000000	0.280505
1476.000000	0.280483
1477.000000	0.280425
1478.000000	0.280405
1479.000000	0.280366
1480.000000	0.280324
1481.000000	0.280261
1482.000000	0.280214
1483.000000	0.280172
1484.000000	0.280110
1485.000000	0.280091
1486.000000	0.280086
1487.000000	0.280091
1488.000000	0.280158
1489.000000	0.280189
1490.000000	0.280079
1491.000000	0.280059
1492.000000	0.280009
1493.000000	0.280016
1494.000000	0.280060
1495.000000	0.280059
1496.000000	0.280077
1497.000000	0.280064
1498.000000	0.280040
1499.000000	0.279969
1500.000000	0.279919
1501.000000	0.279831
1502.000000	0.279731
1503.000000	0.279686
1504.000000	0.279634
1505.000000	0.279606
1506.000000	0.279620
1507.000000	0.279613
1508.000000	0.279665
1509.000000	0.279684
1510.000000	0.279628
1511.000000	0.279658
1512.000000	0.279654
1513.000000	0.279660
1514.000000	0.279794
1515.000000	0.279822
1516.000000	0.279837
1517.000000	0.279867
1518.000000	0.279823
1519.000000	0.279754
1520.000000	0.279760
1521.000000	0.279731
1522.000000	0.279735
1523.000000	0.279796
1524.000000	0.279780
1525.000000	0.279818
1526.000000	0.279841
1527.000000	0.279826
1528.000000	0.279868
1529.000000	0.279850
1530.000000	0.279732
1531.000000	0.279686
1532.000000	0.279622
1533.000000	0.279534
1534.000000	0.279545
1535.000000	0.279544
1536.000000	0.279486
1537.000000	0.279532
1538.000000	0.279521
1539.000000	0.279417
1540.000000	0.279396
1541.000000	0.279371
1542.000000	0.279354
1543.000000	0.279410
1544.000000	0.279420
1545.000000	0.279436
1546.000000	0.279459
1547.000000	0.279440
1548.000000	0.279433
1549.000000	0.279433
1550.000000	0.279387
1551.000000	0.279345
1552.000000	0.279366
1553.000000	0.279346
1554.000000	0.279294
1555.000000	0.279310
1556.000000	0.279330
1557.000000	0.279301
1558.000000	0.279319
1559.000000	0.279337
1560.000000	0.279331
1561.000000	0.279350
1562.000000	0.279344
1563.000000	0.279361
1564.000000	0.279389
1565.000000	0.279404
1566.000000	0.279374
1567.000000	0.279434
1568.000000	0.279437
1569.000000	0.279464
1570.000000	0.279461
1571.000000	0.279423
1572.000000	0.279392
1573.000000	0.279350
1574.000000	0.279294
1575.000000	0.279252
1576.000000	0.279212
1577.000000	0.279151
1578.000000	0.279065
1579.000000	0.279018
1580.000000	0.278963
1581.000000	0.278927
1582.000000	0.278902
1583.000000	0.278909
1584.000000	0.278859
1585.000000	0.278849
1586.000000	0.278847
1587.000000	0.278829
1588.000000	0.278803
1589.000000	0.278808
1590.000000	0.278778
1591.000000	0.278728
1592.000000	0.278715
1593.000000	0.278726
1594.000000	0.278719
1595.000000	0.278765
1596.000000	0.278817
1597.000000	0.278891
1598.000000	0.278944
1599.000000	0.279070
1600.000000	0.279075
1601.000000	0.279072
1602.000000	0.279077
1603.000000	0.279056
1604.000000	0.279042
1605.000000	0.279058
1606.000000	0.279049
1607.000000	0.279087
1608.000000	0.279049
1609.000000	0.279039
1610.000000	0.278969
1611.000000	0.278795
1612.000000	0.278732
1613.000000	0.278788
1614.000000	0.278779
1615.000000	0.278883
1616.000000	0.278918
1617.000000	0.278833
1618.000000	0.278800
1619.000000	0.278751
1620.000000	0.278721
1621.000000	0.278725
1622.000000	0.278785
1623.000000	0.278845
1624.000000	0.278887
1625.000000	0.278869
1626.000000	0.278783
1627.000000	0.278658
1628.000000	0.278588
1629.000000	0.278461
1630.000000	0.278423
1631.000000	0.278381
1632.000000	0.278336
1633.000000	0.278342
1634.000000	0.278332
1635.000000	0.278366
1636.000000	0.278376
1637.000000	0.278376
1638.000000	0.278389
1639.000000	0.278442
1640.000000	0.278500
1641.000000	0.278662
1642.000000	0.278743
1643.000000	0.278833
1644.000000	0.278890
1645.000000	0.278901
1646.000000	0.278876
1647.000000	0.278869
1648.000000	0.278810
1649.000000	0.278765
1650.000000	0.278738
1651.000000	0.278737
1652.000000	0.278735
1653.000000	0.278689
1654.000000	0.278685
1655.000000	0.278660
1656.000000	0.278536
1657.000000	0.278446
1658.000000	0.278339
1659.000000	0.278242
1660.000000	0.278207
1661.000000	0.278141
1662.000000	0.278096
1663.000000	0.278041
1664.000000	0.278005
1665.000000	0.277974
1666.000000	0.278050
1667.000000	0.278116
1668.000000	0.278170
1669.000000	0.278284
1670.000000	0.278235
1671.000000	0.278170
1672.000000	0.278192
1673.000000	0.278158
1674.000000	0.278197
1675.000000	0.278266
1676.000000	0.278235
1677.000000	0.278173
1678.000000	0.278138
1679.000000	0.278086
1680.000000	0.278009
1681.000000	0.277974
1682.000000	0.277911
1683.000000	0.277845
1684.000000	0.277840
1685.000000	0.277836
1686.000000	0.277789
1687.000000	0.277813
1688.000000	0.277822
1689.000000	0.277792
1690.000000	0.277814
1691.000000	0.277884
1692.000000	0.277841
1693.000000	0.277885
1694.000000	0.277934
1695.000000	0.277956
1696.000000	0.277975
1697.000000	0.277960
1698.000000	0.277975
1699.000000	0.277977
1700.000000	0.277956
1701.000000	0.278015
1702.000000	0.277931
1703.000000	0.277849
1704.000000	0.277880
1705.000000	0.277874
1706.000000	0.277861
1707.000000	0.277862
1708.000000	0.277856
1709.000000	0.277797
1710.000000	0.277811
1711.000000	0.277810
1712.000000	0.277789
1713.000000	0.277774
1714.000000	0.277818
1715.000000	0.277818
1716.000000	0.277814
1717.000000	0.277787
1718.000000	0.277680
1719.000000	0.277603
1720.000000	0.277593
1721.000000	0.277540
1722.000000	0.277458
1723.000000	0.277429
1724.000000	0.277426
1725.000000	0.277441
1726.000000	0.277448
1727.000000	0.277422
1728.000000	0.277314
1729.000000	0.277202
1730.000000	0.277172
1731.000000	0.277155
1732.000000	0.277180
1733.000000	0.277206
1734.000000	0.277114
1735.000000	0.277117
1736.000000	0.277131
1737.000000	0.277096
1738.000000	0.277103
1739.000000	0.277102
1740.000000	0.277024
1741.000000	0.276994
1742.000000	0.277031
1743.000000	0.277082
1744.000000	0.277109
1745.000000	0.277124
1746.000000	0.277175
1747.000000	0.277086
1748.000000	0.277042
1749.000000	0.277049
1750.000000	0.277027
1751.000000	0.277151
1752.000000	0.277318
1753.000000	0.277388
1754.000000	0.277443
1755.000000	0.277447
1756.000000	0.277469
1757.000000	0.277472
1758.000000	0.277497
1759.000000	0.277552
1760.000000	0.277579
1761.000000	0.277533
1762.000000	0.277523
1763.000000	0.277544
1764.000000	0.277564
1765.000000	0.277585
1766.000000	0.277593
1767.000000	0.277519
1768.000000	0.277435
1769.000000	0.277412
1770.000000	0.277407
1771.000000	0.277381
1772.000000	0.277324
1773.000000	0.277192
1774.000000	0.277140
1775.000000	0.277155
1776.000000	0.277138
1777.000000	0.277139
1778.000000	0.277087
1779.000000	0.276952
1780.000000	0.276915
1781.000000	0.276875
1782.000000	0.276861
1783.000000	0.276930
1784.000000	0.276991
1785.000000	0.276987
1786.000000	0.277024
1787.000000	0.277136
1788.000000	0.277204
1789.000000	0.277287
1790.000000	0.277404
1791.000000	0.277390
1792.000000	0.277345
1793.000000	0.277329
1794.000000	0.277286
1795.000000	0.277253
1796.000000	0.277270
1797.000000	0.277216
1798.000000	0.277063
1799.000000	0.276956
1800.000000	0.276866
1801.000000	0.276924
1802.000000	0.276933
1803.000000	0.277028
1804.000000	0.277092
1805.000000	0.277306
1806.000000	0.277487
1807.000000	0.277493
1808.000000	0.277667
1809.000000	0.278046
1810.000000	0.278386
1811.000000	0.278467
1812.000000	0.278499
1813.000000	0.278460
1814.000000	0.278167
1815.000000	0.278022
1816.000000	0.277918
1817.000000	0.277753
1818.000000	0.277531
1819.000000	0.277520
1820.000000	0.277720
1821.000000	0.277779
1822.000000	0.277790
1823.000000	0.277898
1824.000000	0.277665
1825.000000	0.276824
1826.000000	0.276664
1827.000000	0.276623
1828.000000	0.276534
1829.000000	0.276778
1830.000000	0.276995
1831.000000	0.276996
1832.000000	0.276598
1833.000000	0.276697
1834.000000	0.277019
1835.000000	0.277217
1836.000000	0.277682
1837.000000	0.277820
1838.000000	0.277666
1839.000000	0.277321
1840.000000	0.277187
1841.000000	0.276710
1842.000000	0.276535
1843.000000	0.276524
1844.000000	0.276511
1845.000000	0.276445
1846.000000	0.276574
1847.000000	0.276791
1848.000000	0.276744
1849.000000	0.276929
1850.000000	0.276902
1851.000000	0.276933
1852.000000	0.276738
1853.000000	0.276899
1854.000000	0.277146
1855.000000	0.277293
1856.000000	0.277510
1857.000000	0.277577
1858.000000	0.277531
1859.000000	0.277542
1860.000000	0.277603
1861.000000	0.277650
1862.000000	0.277632
1863.000000	0.277719
1864.000000	0.277633
1865.000000	0.277291
1866.000000	0.277265
1867.000000	0.277340
1868.000000	0.277268
1869.000000	0.277320
1870.000000	0.277261
1871.000000	0.277158
1872.000000	0.277073
1873.000000	0.277133
1874.000000	0.277304
1875.000000	0.277588
1876.000000	0.277798
1877.000000	0.277887
1878.000000	0.277946
1879.000000	0.277748
1880.000000	0.277655
1881.000000	0.277518
1882.000000	0.277133
1883.000000	0.277030
1884.000000	0.277102
1885.000000	0.277063
1886.000000	0.276939
1887.000000	0.276990
1888.000000	0.276969
1889.000000	0.276658
1890.000000	0.276638
1891.000000	0.276674
1892.000000	0.276641
1893.000000	0.276482
1894.000000	0.276423
1895.000000	0.276293
1896.000000	0.276356
1897.000000	0.276285
1898.000000	0.276167
1899.000000	0.276162
1900.000000	0.276041
1901.000000	0.276001
1902.000000	0.276083
1903.000000	0.276135
1904.000000	0.276347
1905.000000	0.276374
1906.000000	0.276258
1907.000000	0.276059
1908.000000	0.275785
1909.000000	0.275469
1910.000000	0.275663
1911.000000	0.276076
1912.000000	0.276350
1913.000000	0.276502
1914.000000	0.276454
1915.000000	0.276002
1916.000000	0.275776
1917.000000	0.275747
1918.000000	0.276101
1919.000000	0.276296
1920.000000	0.276620
1921.000000	0.276861
1922.000000	0.276852
1923.000000	0.276924
1924.000000	0.276733
1925.000000	0.276759
1926.000000	0.276719
1927.000000	0.276649
1928.000000	0.276580
1929.000000	0.276715
1930.000000	0.276430
1931.000000	0.276410
1932.000000	0.276505
1933.000000	0.276300
1934.000000	0.276279
1935.000000	0.276136
1936.000000	0.276001
1937.000000	0.276094
1938.000000	0.276099
1939.000000	0.276056
1940.000000	0.276022
1941.000000	0.275817
1942.000000	0.275631
1943.000000	0.275583
1944.000000	0.275698
1945.000000	0.276030
1946.000000	0.276295
1947.000000	0.276566
1948.000000	0.276820
1949.000000	0.276854
1950.000000	0.276800
1951.000000	0.276657
1952.000000	0.276466
1953.000000	0.276192
1954.000000	0.276099
1955.000000	0.276226
1956.000000	0.276439
1957.000000	0.276593
1958.000000	0.276656
1959.000000	0.276657
1960.000000	0.276652
1961.000000	0.276550
1962.000000	0.276462
1963.000000	0.276419
1964.000000	0.276461
1965.000000	0.276198
1966.000000	0.276052
1967.000000	0.276143
1968.000000	0.276150
1969.000000	0.276302
1970.000000	0.276604
1971.000000	0.276604
1972.000000	0.276550
1973.000000	0.276444
1974.000000	0.276366
1975.000000	0.276320
1976.000000	0.276334
1977.000000	0.276323
1978.000000	0.276246
1979.000000	0.276203
1980.000000	0.276073
1981.000000	0.275936
1982.000000	0.275848
1983.000000	0.275993
1984.000000	0.276012
1985.000000	0.276183
1986.000000	0.276115
1987.000000	0.275974
1988.000000	0.275839
1989.000000	0.275771
1990.000000	0.275715
1991.000000	0.275625
1992.000000	0.275587
1993.000000	0.275380
1994.000000	0.275235
1995.000000	0.275320
1996.000000	0.275341
1997.000000	0.275466
1998.000000	0.275914
1999.000000	0.276136
2000.000000	0.276358
2001.000000	0.276392
2002.000000	0.276398
2003.000000	0.276422
2004.000000	0.276311
2005.000000	0.276245
2006.000000	0.276323
2007.000000	0.276198
2008.000000	0.276217
2009.000000	0.276417
2010.000000	0.276466
2011.000000	0.276316
2012.000000	0.276256
2013.000000	0.276123
2014.000000	0.275831
2015.000000	0.275892
2016.000000	0.275992
2017.000000	0.275931
2018.000000	0.275934
2019.000000	0.276016
2020.000000	0.275954
2021.000000	0.275963
2022.000000	0.276131
2023.000000	0.276133
2024.000000	0.276105
2025.000000	0.276057
2026.000000	0.275877
2027.000000	0.275497
2028.000000	0.275189
2029.000000	0.274723
2030.000000	0.274479
2031.000000	0.274382
2032.000000	0.274459
2033.000000	0.274802
2034.000000	0.274861
2035.000000	0.274949
2036.000000	0.274929
2037.000000	0.274905
2038.000000	0.274849
2039.000000	0.274855
2040.000000	0.274779
2041.000000	0.274659
2042.000000	0.274586
2043.000000	0.274381
2044.000000	0.274132
2045.000000	0.273992
2046.000000	0.273759
2047.000000	0.273758
2048.000000	0.273975
2049.000000	0.274184
2050.000000	0.274213
2051.000000	0.274163
2052.000000	0.274002
2053.000000	0.273823
2054.000000	0.273738
2055.000000	0.273764
2056.000000	0.273746
2057.000000	0.273660
2058.000000	0.273890
2059.000000	0.274060
2060.000000	0.274057
2061.000000	0.274118
2062.000000	0.274019
2063.000000	0.273592
2064.000000	0.273375
2065.000000	0.273569
2066.000000	0.273414
2067.000000	0.273349
2068.000000	0.273377
2069.000000	0.273265
2070.000000	0.273216
2071.000000	0.273087
2072.000000	0.273053
2073.000000	0.272922
2074.000000	0.272805
2075.000000	0.272701
2076.000000	0.272672
2077.000000	0.272525
2078.000000	0.272212
2079.000000	0.272049
2080.000000	0.271929
2081.000000	0.271873
2082.000000	0.271968
2083.000000	0.272100
2084.000000	0.271947
2085.000000	0.272022
2086.000000	0.271917
2087.000000	0.271740
2088.000000	0.271787
2089.000000	0.271703
2090.000000	0.271750
2091.000000	0.272046
2092.000000	0.272116
2093.000000	0.272246
2094.000000	0.272154
2095.000000	0.271736
2096.000000	0.271569
2097.000000	0.271282
2098.000000	0.271091
2099.000000	0.271214
2100.000000	0.271489
2101.000000	0.271768
2102.000000	0.272077
2103.000000	0.272462
2104.000000	0.272487
2105.000000	0.272480
2106.000000	0.272296
2107.000000	0.272304
2108.000000	0.272256
2109.000000	0.272298
2110.000000	0.272259
2111.000000	0.272283
2112.000000	0.272376
2113.000000	0.272010
2114.000000	0.271945
2115.000000	0.272139
2116.000000	0.271872
2117.000000	0.271701
2118.000000	0.271696
2119.000000	0.271680
2120.000000	0.271929
2121.000000	0.272613
2122.000000	0.272946
2123.000000	0.273325
2124.000000	0.273494
2125.000000	0.273441
2126.000000	0.273391
2127.000000	0.273216
2128.000000	0.273266
2129.000000	0.273282
2130.000000	0.273333
2131.000000	0.273450
2132.000000	0.273259
2133.000000	0.273213
2134.000000	0.273290
2135.000000	0.273291
2136.000000	0.273169
2137.000000	0.272937
2138.000000	0.272447
2139.000000	0.272169
2140.000000	0.271868
2141.000000	0.271694
2142.000000	0.271633
2143.000000	0.271367
2144.000000	0.271299
2145.000000	0.271177
2146.000000	0.270979
2147.000000	0.271109
2148.000000	0.271190
2149.000000	0.271309
2150.000000	0.271426
2151.000000	0.271528
2152.000000	0.271587
2153.000000	0.271739
2154.000000	0.271858
2155.000000	0.272046
2156.000000	0.272196
2157.000000	0.272401
2158.000000	0.272515
2159.000000	0.272827
2160.000000	0.272922
2161.000000	0.272651
2162.000000	0.272584
2163.000000	0.272290
2164.000000	0.272124
2165.000000	0.272010
2166.000000	0.272233
2167.000000	0.272452
2168.000000	0.272452
2169.000000	0.272396
2170.000000	0.272432
2171.000000	0.272325
2172.000000	0.271982
2173.000000	0.272128
2174.000000	0.272460
2175.000000	0.272715
2176.000000	0.273327
2177.000000	0.273562
2178.000000	0.273647
2179.000000	0.273694
2180.000000	0.273474
2181.000000	0.273648
2182.000000	0.273413
2183.000000	0.273230
2184.000000	0.273161
2185.000000	0.273052
2186.000000	0.272845
2187.000000	0.272855
2188.000000	0.272826
2189.000000	0.272446
2190.000000	0.272375
2191.000000	0.272708
2192.000000	0.272725
2193.000000	0.273045
2194.000000	0.272807
2195.000000	0.271863
2196.000000	0.271456
2197.000000	0.270916
2198.000000	0.270719
2199.000000	0.271185
2200.000000	0.271439
2201.000000	0.271847
2202.000000	0.272054
2203.000000	0.272040
2204.000000	0.271847
2205.000000	0.271479
2206.000000	0.270937
2207.000000	0.270633
2208.000000	0.270768
2209.000000	0.271004
2210.000000	0.271961
2211.000000	0.272931
2212.000000	0.273511
2213.000000	0.273248
2214.000000	0.271892
2215.000000	0.271463
2216.000000	0.270544
2217.000000	0.270389
2218.000000	0.271039
2219.000000	0.271563
2220.000000	0.272736
2221.000000	0.272906
2222.000000	0.272592
2223.000000	0.272546
2224.000000	0.271892
2225.000000	0.271613
2226.000000	0.271342
2227.000000	0.271048
2228.000000	0.271117
2229.000000	0.270194
2230.000000	0.270019
2231.000000	0.270898
2232.000000	0.270918
2233.000000	0.270994
2234.000000	0.271056
2235.000000	0.271675
2236.000000	0.271849
2237.000000	0.272056
2238.000000	0.271795
2239.000000	0.270829
2240.000000	0.270525
2241.000000	0.270358
2242.000000	0.270591
2243.000000	0.271365
2244.000000	0.271731
2245.000000	0.271948
2246.000000	0.272220
2247.000000	0.272380
2248.000000	0.272684
2249.000000	0.273384
2250.000000	0.273902
2251.000000	0.272885
2252.000000	0.272066
2253.000000	0.270601
2254.000000	0.268816
2255.000000	0.268405
2256.000000	0.268629
2257.000000	0.269907
2258.000000	0.271204
2259.000000	0.272049
2260.000000	0.272864
2261.000000	0.272701
2262.000000	0.271170
2263.000000	0.270734
2264.000000	0.269818
2265.000000	0.269964
2266.000000	0.271365
2267.000000	0.271833
2268.000000	0.272182
2269.000000	0.273062
2270.000000	0.274425
2271.000000	0.274430
2272.000000	0.274290
2273.000000	0.274106
2274.000000	0.271820
2275.000000	0.271388
2276.000000	0.272693
2277.000000	0.272870
2278.000000	0.272473
2279.000000	0.272602
2280.000000	0.272167
2281.000000	0.271501
2282.000000	0.271640
2283.000000	0.272123
2284.000000	0.271952
2285.000000	0.272152
2286.000000	0.273155
2287.000000	0.273131
2288.000000	0.272739
2289.000000	0.272772
2290.000000	0.271811
2291.000000	0.271577
2292.000000	0.272196
2293.000000	0.272411
2294.000000	0.272209
2295.000000	0.271538
2296.000000	0.271476
2297.000000	0.271045
2298.000000	0.271101
2299.000000	0.272349
2300.000000	0.272622
2301.000000	0.272384
2302.000000	0.272302
2303.000000	0.271463
2304.000000	0.271370
2305.000000	0.272097
2306.000000	0.271993
2307.000000	0.271535
2308.000000	0.272130
2309.000000	0.271021
2310.000000	0.269880
2311.000000	0.270118
2312.000000	0.270015
2313.000000	0.269918
2314.000000	0.270379
2315.000000	0.270382
2316.000000	0.270002
2317.000000	0.269683
2318.000000	0.269878
2319.000000	0.270358
2320.000000	0.270161
2321.000000	0.271224
2322.000000	0.272012
2323.000000	0.271626
2324.000000	0.271526
2325.000000	0.270268
2326.000000	0.269277
2327.000000	0.268778
2328.000000	0.268521
2329.000000	0.269278
2330.000000	0.269473
2331.000000	0.269700
2332.000000	0.269907
2333.000000	0.269433
2334.000000	0.269374
2335.000000	0.269912
2336.000000	0.270458
2337.000000	0.270910
2338.000000	0.271760
2339.000000	0.272058
2340.000000	0.271882
2341.000000	0.271882
2342.000000	0.272133
2343.000000	0.272428
2344.000000	0.272059
2345.000000	0.272248
2346.000000	0.273421
2347.000000	0.273533
2348.000000	0.273252
2349.000000	0.273634
2350.000000	0.272398
2351.000000	0.271188
2352.000000	0.270856
2353.000000	0.271157
2354.000000	0.271464
2355.000000	0.271759
2356.000000	0.272566
2357.000000	0.272033
2358.000000	0.271427
2359.000000	0.271937
2360.000000	0.272013
2361.000000	0.272104
2362.000000	0.271267
2363.000000	0.270696
2364.000000	0.269839
2365.000000	0.269394
2366.000000	0.271483
2367.000000	0.273254
2368.000000	0.274710
2369.000000	0.274971
2370.000000	0.274697
2371.000000	0.275621
2372.000000	0.275406
2373.000000	0.276109
2374.000000	0.276146
2375.000000	0.273574
2376.000000	0.272357
2377.000000	0.270034
2378.000000	0.267773
2379.000000	0.268180
2380.000000	0.266722
2381.000000	0.267101
2382.000000	0.268235
2383.000000	0.267348
2384.000000	0.270013
2385.000000	0.272080
2386.000000	0.272689
2387.000000	0.275521
2388.000000	0.276636
2389.000000	0.276023
2390.000000	0.276216
2391.000000	0.274302
2392.000000	0.272308
2393.000000	0.271587
2394.000000	0.271486
2395.000000	0.274487
2396.000000	0.275555
2397.000000	0.275428
2398.000000	0.275903
2399.000000	0.274045
2400.000000	0.271142
2401.000000	0.269623
2402.000000	0.270577
2403.000000	0.272965
2404.000000	0.277218
2405.000000	0.278185
2406.000000	0.275407
2407.000000	0.272320
2408.000000	0.266599
2409.000000	0.264300
2410.000000	0.266174
2411.000000	0.266437
2412.000000	0.268479
2413.000000	0.270057
2414.000000	0.269424
2415.000000	0.268712
2416.000000	0.267858
2417.000000	0.268427
2418.000000	0.267505
2419.000000	0.267187
2420.000000	0.268452
2421.000000	0.265998
2422.000000	0.266027
2423.000000	0.266877
2424.000000	0.264363
2425.000000	0.265952
2426.000000	0.266969
2427.000000	0.268909
2428.000000	0.272940
2429.000000	0.274409
2430.000000	0.276047
2431.000000	0.273635
2432.000000	0.271353
2433.000000	0.270008
2434.000000	0.266555
2435.000000	0.267932
2436.000000	0.268441
2437.000000	0.265878
2438.000000	0.269285
2439.000000	0.268034
2440.000000	0.264139
2441.000000	0.269736
2442.000000	0.271680
2443.000000	0.274963
2444.000000	0.280707
2445.000000	0.279203
2446.000000	0.275678
2447.000000	0.274403
2448.000000	0.275468
2449.000000	0.274373
2450.000000	0.275991
2451.000000	0.274178
2452.000000	0.269437
2453.000000	0.268984
2454.000000	0.266128
2455.000000	0.264406
2456.000000	0.264320
2457.000000	0.263703
2458.000000	0.266114
2459.000000	0.270882
2460.000000	0.273547
2461.000000	0.281381
2462.000000	0.290097
2463.000000	0.289389
2464.000000	0.289290
2465.000000	0.281512
2466.000000	0.269897
2467.000000	0.268468
2468.000000	0.266065
2469.000000	0.262643
2470.000000	0.260808
2471.000000	0.259517
2472.000000	0.258073
2473.000000	0.253007
2474.000000	0.247987
2475.000000	0.247040
2476.000000	0.244597
2477.000000	0.251142
2478.000000	0.269199
2479.000000	0.263534
2480.000000	0.258848
2481.000000	0.264238
2482.000000	0.254617
2483.000000	0.259191
2484.000000	0.272369
2485.000000	0.274653
2486.000000	0.278753
2487.000000	0.295187
2488.000000	0.311611
2489.000000	0.313889
2490.000000	0.310908
2491.000000	0.297480
2492.000000	0.281945
2493.000000	0.274378
2494.000000	0.274000
2495.000000	0.265845
2496.000000	0.259550
2497.000000	0.261932
2498.000000	0.254953
2499.000000	0.250798
2500.000000	0.246142
