# Wavelength	PV7_00001.asd.rts.txt
350.000000	0.190381
351.000000	0.185250
352.000000	0.184885
353.000000	0.186631
354.000000	0.189271
355.000000	0.190681
356.000000	0.188375
357.000000	0.186680
358.000000	0.191918
359.000000	0.194653
360.000000	0.193654
361.000000	0.190328
362.000000	0.191841
363.000000	0.192377
364.000000	0.189537
365.000000	0.193880
366.000000	0.194718
367.000000	0.191118
368.000000	0.190707
369.000000	0.193228
370.000000	0.196152
371.000000	0.196472
372.000000	0.195679
373.000000	0.195829
374.000000	0.197586
375.000000	0.196146
376.000000	0.195952
377.000000	0.197642
378.000000	0.198486
379.000000	0.199825
380.000000	0.200715
381.000000	0.200579
382.000000	0.201348
383.000000	0.202081
384.000000	0.202114
385.000000	0.201465
386.000000	0.201683
387.000000	0.203031
388.000000	0.204288
389.000000	0.203540
390.000000	0.202960
391.000000	0.205430
392.000000	0.205814
393.000000	0.205513
394.000000	0.206018
395.000000	0.205831
396.000000	0.206571
397.000000	0.208170
398.000000	0.208346
399.000000	0.208547
400.000000	0.208936
401.000000	0.209111
402.000000	0.209395
403.000000	0.209803
404.000000	0.210326
405.000000	0.210454
406.000000	0.210692
407.000000	0.211174
408.000000	0.211185
409.000000	0.211417
410.000000	0.211979
411.000000	0.212634
412.000000	0.212952
413.000000	0.213218
414.000000	0.213769
415.000000	0.214016
416.000000	0.214230
417.000000	0.214571
418.000000	0.214795
419.000000	0.215220
420.000000	0.215748
421.000000	0.215901
422.000000	0.216032
423.000000	0.216234
424.000000	0.216576
425.000000	0.216900
426.000000	0.217249
427.000000	0.217597
428.000000	0.217645
429.000000	0.217853
430.000000	0.218294
431.000000	0.218529
432.000000	0.218698
433.000000	0.218830
434.000000	0.219016
435.000000	0.219279
436.000000	0.219581
437.000000	0.219846
438.000000	0.220026
439.000000	0.220069
440.000000	0.220132
441.000000	0.220545
442.000000	0.220834
443.000000	0.220832
444.000000	0.220717
445.000000	0.220934
446.000000	0.221426
447.000000	0.221818
448.000000	0.222070
449.000000	0.222250
450.000000	0.222448
451.000000	0.222724
452.000000	0.223077
453.000000	0.223387
454.000000	0.223569
455.000000	0.223760
456.000000	0.224102
457.000000	0.224542
458.000000	0.224651
459.000000	0.224685
460.000000	0.224959
461.000000	0.225261
462.000000	0.225590
463.000000	0.225826
464.000000	0.226086
465.000000	0.226278
466.000000	0.226410
467.000000	0.226679
468.000000	0.226939
469.000000	0.227134
470.000000	0.227382
471.000000	0.227631
472.000000	0.227802
473.000000	0.227916
474.000000	0.228162
475.000000	0.228331
476.000000	0.228513
477.000000	0.228826
478.000000	0.228956
479.000000	0.229129
480.000000	0.229446
481.000000	0.229581
482.000000	0.229815
483.000000	0.230186
484.000000	0.230412
485.000000	0.230541
486.000000	0.230751
487.000000	0.230903
488.000000	0.231171
489.000000	0.231528
490.000000	0.231786
491.000000	0.232042
492.000000	0.232318
493.000000	0.232510
494.000000	0.232794
495.000000	0.233077
496.000000	0.233271
497.000000	0.233542
498.000000	0.233806
499.000000	0.234074
500.000000	0.234275
501.000000	0.234541
502.000000	0.234845
503.000000	0.235020
504.000000	0.235270
505.000000	0.235557
506.000000	0.235819
507.000000	0.236092
508.000000	0.236359
509.000000	0.236597
510.000000	0.236919
511.000000	0.237204
512.000000	0.237444
513.000000	0.237658
514.000000	0.237966
515.000000	0.238308
516.000000	0.238526
517.000000	0.238796
518.000000	0.239139
519.000000	0.239461
520.000000	0.239735
521.000000	0.240010
522.000000	0.240312
523.000000	0.240620
524.000000	0.240913
525.000000	0.241202
526.000000	0.241557
527.000000	0.241809
528.000000	0.242013
529.000000	0.242298
530.000000	0.242504
531.000000	0.242744
532.000000	0.243012
533.000000	0.243276
534.000000	0.243570
535.000000	0.243882
536.000000	0.244190
537.000000	0.244472
538.000000	0.244740
539.000000	0.245005
540.000000	0.245270
541.000000	0.245519
542.000000	0.245772
543.000000	0.246031
544.000000	0.246337
545.000000	0.246630
546.000000	0.246889
547.000000	0.247106
548.000000	0.247344
549.000000	0.247641
550.000000	0.247943
551.000000	0.248241
552.000000	0.248500
553.000000	0.248782
554.000000	0.249084
555.000000	0.249402
556.000000	0.249749
557.000000	0.250033
558.000000	0.250334
559.000000	0.250623
560.000000	0.250918
561.000000	0.251266
562.000000	0.251588
563.000000	0.251905
564.000000	0.252235
565.000000	0.252498
566.000000	0.252764
567.000000	0.253067
568.000000	0.253385
569.000000	0.253646
570.000000	0.253918
571.000000	0.254222
572.000000	0.254558
573.000000	0.254879
574.000000	0.255163
575.000000	0.255457
576.000000	0.255759
577.000000	0.256043
578.000000	0.256344
579.000000	0.256650
580.000000	0.256947
581.000000	0.257237
582.000000	0.257555
583.000000	0.257832
584.000000	0.258087
585.000000	0.258389
586.000000	0.258626
587.000000	0.258824
588.000000	0.259044
589.000000	0.259321
590.000000	0.259609
591.000000	0.259875
592.000000	0.260130
593.000000	0.260378
594.000000	0.260630
595.000000	0.260912
596.000000	0.261198
597.000000	0.261512
598.000000	0.261803
599.000000	0.262049
600.000000	0.262313
601.000000	0.262578
602.000000	0.262864
603.000000	0.263114
604.000000	0.263318
605.000000	0.263517
606.000000	0.263705
607.000000	0.263876
608.000000	0.264022
609.000000	0.264184
610.000000	0.264356
611.000000	0.264510
612.000000	0.264628
613.000000	0.264719
614.000000	0.264830
615.000000	0.264962
616.000000	0.265100
617.000000	0.265200
618.000000	0.265283
619.000000	0.265360
620.000000	0.265415
621.000000	0.265482
622.000000	0.265602
623.000000	0.265702
624.000000	0.265748
625.000000	0.265926
626.000000	0.266068
627.000000	0.266131
628.000000	0.266271
629.000000	0.266426
630.000000	0.266486
631.000000	0.266558
632.000000	0.266593
633.000000	0.266650
634.000000	0.266778
635.000000	0.266936
636.000000	0.267126
637.000000	0.267340
638.000000	0.267608
639.000000	0.267859
640.000000	0.268108
641.000000	0.268293
642.000000	0.268536
643.000000	0.268780
644.000000	0.268928
645.000000	0.269059
646.000000	0.269210
647.000000	0.269377
648.000000	0.269535
649.000000	0.269753
650.000000	0.269990
651.000000	0.270117
652.000000	0.270213
653.000000	0.270332
654.000000	0.270447
655.000000	0.270589
656.000000	0.270751
657.000000	0.270876
658.000000	0.271019
659.000000	0.271148
660.000000	0.271260
661.000000	0.271455
662.000000	0.271638
663.000000	0.271837
664.000000	0.272055
665.000000	0.272246
666.000000	0.272385
667.000000	0.272450
668.000000	0.272568
669.000000	0.272709
670.000000	0.272852
671.000000	0.273004
672.000000	0.273165
673.000000	0.273327
674.000000	0.273490
675.000000	0.273625
676.000000	0.273761
677.000000	0.273948
678.000000	0.274097
679.000000	0.274221
680.000000	0.274354
681.000000	0.274513
682.000000	0.274701
683.000000	0.274852
684.000000	0.275036
685.000000	0.275195
686.000000	0.275350
687.000000	0.275504
688.000000	0.275634
689.000000	0.275774
690.000000	0.275965
691.000000	0.276124
692.000000	0.276238
693.000000	0.276379
694.000000	0.276554
695.000000	0.276725
696.000000	0.276897
697.000000	0.277084
698.000000	0.277262
699.000000	0.277436
700.000000	0.277609
701.000000	0.277731
702.000000	0.277855
703.000000	0.277974
704.000000	0.278053
705.000000	0.278161
706.000000	0.278275
707.000000	0.278420
708.000000	0.278588
709.000000	0.278758
710.000000	0.278925
711.000000	0.279064
712.000000	0.279212
713.000000	0.279393
714.000000	0.279562
715.000000	0.279712
716.000000	0.279877
717.000000	0.280080
718.000000	0.280257
719.000000	0.280395
720.000000	0.280515
721.000000	0.280658
722.000000	0.280713
723.000000	0.280733
724.000000	0.280823
725.000000	0.280924
726.000000	0.281072
727.000000	0.281187
728.000000	0.281286
729.000000	0.281394
730.000000	0.281485
731.000000	0.281610
732.000000	0.281744
733.000000	0.281893
734.000000	0.281994
735.000000	0.282033
736.000000	0.282133
737.000000	0.282232
738.000000	0.282315
739.000000	0.282436
740.000000	0.282491
741.000000	0.282587
742.000000	0.282675
743.000000	0.282719
744.000000	0.282770
745.000000	0.282859
746.000000	0.282999
747.000000	0.283106
748.000000	0.283237
749.000000	0.283400
750.000000	0.283544
751.000000	0.283580
752.000000	0.283618
753.000000	0.283685
754.000000	0.283723
755.000000	0.283735
756.000000	0.283753
757.000000	0.283765
758.000000	0.283782
759.000000	0.283846
760.000000	0.283914
761.000000	0.284018
762.000000	0.284148
763.000000	0.284255
764.000000	0.284342
765.000000	0.284444
766.000000	0.284557
767.000000	0.284654
768.000000	0.284712
769.000000	0.284723
770.000000	0.284731
771.000000	0.284847
772.000000	0.284959
773.000000	0.285013
774.000000	0.285100
775.000000	0.285135
776.000000	0.285168
777.000000	0.285220
778.000000	0.285246
779.000000	0.285275
780.000000	0.285319
781.000000	0.285349
782.000000	0.285384
783.000000	0.285476
784.000000	0.285517
785.000000	0.285545
786.000000	0.285577
787.000000	0.285616
788.000000	0.285672
789.000000	0.285706
790.000000	0.285689
791.000000	0.285651
792.000000	0.285662
793.000000	0.285705
794.000000	0.285764
795.000000	0.285874
796.000000	0.285966
797.000000	0.286009
798.000000	0.286021
799.000000	0.286072
800.000000	0.286125
801.000000	0.286129
802.000000	0.286154
803.000000	0.286151
804.000000	0.286138
805.000000	0.286149
806.000000	0.286161
807.000000	0.286214
808.000000	0.286235
809.000000	0.286272
810.000000	0.286287
811.000000	0.286245
812.000000	0.286219
813.000000	0.286188
814.000000	0.286154
815.000000	0.286162
816.000000	0.286211
817.000000	0.286267
818.000000	0.286221
819.000000	0.286171
820.000000	0.286122
821.000000	0.286030
822.000000	0.285920
823.000000	0.285868
824.000000	0.285845
825.000000	0.285890
826.000000	0.285964
827.000000	0.286022
828.000000	0.286069
829.000000	0.286066
830.000000	0.285981
831.000000	0.285905
832.000000	0.285843
833.000000	0.285842
834.000000	0.285864
835.000000	0.285881
836.000000	0.285820
837.000000	0.285709
838.000000	0.285622
839.000000	0.285621
840.000000	0.285569
841.000000	0.285491
842.000000	0.285408
843.000000	0.285355
844.000000	0.285373
845.000000	0.285404
846.000000	0.285359
847.000000	0.285289
848.000000	0.285236
849.000000	0.285249
850.000000	0.285230
851.000000	0.285202
852.000000	0.285206
853.000000	0.285184
854.000000	0.285076
855.000000	0.284992
856.000000	0.284903
857.000000	0.284756
858.000000	0.284690
859.000000	0.284671
860.000000	0.284589
861.000000	0.284470
862.000000	0.284422
863.000000	0.284473
864.000000	0.284403
865.000000	0.284299
866.000000	0.284233
867.000000	0.284122
868.000000	0.283999
869.000000	0.283816
870.000000	0.283610
871.000000	0.283401
872.000000	0.283282
873.000000	0.283232
874.000000	0.283186
875.000000	0.283107
876.000000	0.283025
877.000000	0.282935
878.000000	0.282788
879.000000	0.282689
880.000000	0.282554
881.000000	0.282367
882.000000	0.282174
883.000000	0.282006
884.000000	0.281826
885.000000	0.281696
886.000000	0.281481
887.000000	0.281190
888.000000	0.281039
889.000000	0.280958
890.000000	0.280835
891.000000	0.280745
892.000000	0.280630
893.000000	0.280461
894.000000	0.280332
895.000000	0.280163
896.000000	0.279981
897.000000	0.279796
898.000000	0.279614
899.000000	0.279495
900.000000	0.279349
901.000000	0.279122
902.000000	0.278942
903.000000	0.278725
904.000000	0.278500
905.000000	0.278247
906.000000	0.278158
907.000000	0.278048
908.000000	0.277864
909.000000	0.277561
910.000000	0.277335
911.000000	0.277137
912.000000	0.276909
913.000000	0.276712
914.000000	0.276482
915.000000	0.276265
916.000000	0.276043
917.000000	0.275814
918.000000	0.275620
919.000000	0.275454
920.000000	0.275232
921.000000	0.274990
922.000000	0.274775
923.000000	0.274607
924.000000	0.274457
925.000000	0.274271
926.000000	0.274043
927.000000	0.273721
928.000000	0.273482
929.000000	0.273269
930.000000	0.272989
931.000000	0.272833
932.000000	0.272649
933.000000	0.272388
934.000000	0.272043
935.000000	0.271859
936.000000	0.271718
937.000000	0.271397
938.000000	0.271026
939.000000	0.270762
940.000000	0.270557
941.000000	0.270377
942.000000	0.270222
943.000000	0.270076
944.000000	0.269858
945.000000	0.269759
946.000000	0.269552
947.000000	0.269285
948.000000	0.269002
949.000000	0.268633
950.000000	0.268396
951.000000	0.268252
952.000000	0.268018
953.000000	0.267748
954.000000	0.267521
955.000000	0.267312
956.000000	0.267067
957.000000	0.266792
958.000000	0.266529
959.000000	0.266404
960.000000	0.266144
961.000000	0.265828
962.000000	0.265556
963.000000	0.265461
964.000000	0.265340
965.000000	0.265168
966.000000	0.264892
967.000000	0.264701
968.000000	0.264520
969.000000	0.264277
970.000000	0.264038
971.000000	0.263933
972.000000	0.263797
973.000000	0.263537
974.000000	0.263348
975.000000	0.263109
976.000000	0.262871
977.000000	0.262668
978.000000	0.262409
979.000000	0.262154
980.000000	0.261858
981.000000	0.261817
982.000000	0.261755
983.000000	0.261472
984.000000	0.261128
985.000000	0.261084
986.000000	0.260835
987.000000	0.260535
988.000000	0.260281
989.000000	0.260113
990.000000	0.260053
991.000000	0.260010
992.000000	0.259909
993.000000	0.259756
994.000000	0.259529
995.000000	0.259360
996.000000	0.259151
997.000000	0.259100
998.000000	0.258949
999.000000	0.258684
1000.000000	0.258503
1001.000000	0.258789
1002.000000	0.258664
1003.000000	0.258684
1004.000000	0.258663
1005.000000	0.258770
1006.000000	0.258612
1007.000000	0.258436
1008.000000	0.258031
1009.000000	0.257657
1010.000000	0.257422
1011.000000	0.257537
1012.000000	0.257901
1013.000000	0.257889
1014.000000	0.257645
1015.000000	0.257347
1016.000000	0.257079
1017.000000	0.256830
1018.000000	0.256913
1019.000000	0.257068
1020.000000	0.257594
1021.000000	0.257453
1022.000000	0.257282
1023.000000	0.257333
1024.000000	0.257031
1025.000000	0.257001
1026.000000	0.257069
1027.000000	0.256864
1028.000000	0.256903
1029.000000	0.256878
1030.000000	0.256806
1031.000000	0.257204
1032.000000	0.257333
1033.000000	0.257174
1034.000000	0.257190
1035.000000	0.257243
1036.000000	0.257327
1037.000000	0.257570
1038.000000	0.257548
1039.000000	0.257453
1040.000000	0.257534
1041.000000	0.257564
1042.000000	0.257561
1043.000000	0.257903
1044.000000	0.258200
1045.000000	0.258186
1046.000000	0.258183
1047.000000	0.258264
1048.000000	0.258216
1049.000000	0.258279
1050.000000	0.258496
1051.000000	0.258644
1052.000000	0.258775
1053.000000	0.258821
1054.000000	0.259022
1055.000000	0.259129
1056.000000	0.259141
1057.000000	0.259175
1058.000000	0.259224
1059.000000	0.259156
1060.000000	0.259321
1061.000000	0.259618
1062.000000	0.259912
1063.000000	0.260290
1064.000000	0.260568
1065.000000	0.260781
1066.000000	0.260972
1067.000000	0.261017
1068.000000	0.261176
1069.000000	0.261333
1070.000000	0.261463
1071.000000	0.261765
1072.000000	0.261909
1073.000000	0.261907
1074.000000	0.262035
1075.000000	0.262226
1076.000000	0.262455
1077.000000	0.262711
1078.000000	0.262883
1079.000000	0.263061
1080.000000	0.263165
1081.000000	0.263315
1082.000000	0.263605
1083.000000	0.263806
1084.000000	0.263935
1085.000000	0.264170
1086.000000	0.264467
1087.000000	0.264709
1088.000000	0.264811
1089.000000	0.265057
1090.000000	0.265390
1091.000000	0.265583
1092.000000	0.265766
1093.000000	0.266220
1094.000000	0.266435
1095.000000	0.266388
1096.000000	0.266585
1097.000000	0.266898
1098.000000	0.267103
1099.000000	0.267221
1100.000000	0.267504
1101.000000	0.267823
1102.000000	0.268031
1103.000000	0.268286
1104.000000	0.268522
1105.000000	0.268615
1106.000000	0.268773
1107.000000	0.268965
1108.000000	0.269119
1109.000000	0.269298
1110.000000	0.269430
1111.000000	0.269609
1112.000000	0.269832
1113.000000	0.270020
1114.000000	0.270206
1115.000000	0.270390
1116.000000	0.270600
1117.000000	0.270729
1118.000000	0.270805
1119.000000	0.270863
1120.000000	0.270845
1121.000000	0.270877
1122.000000	0.270964
1123.000000	0.271245
1124.000000	0.271463
1125.000000	0.271668
1126.000000	0.271876
1127.000000	0.272046
1128.000000	0.272183
1129.000000	0.272253
1130.000000	0.272451
1131.000000	0.272751
1132.000000	0.272897
1133.000000	0.273070
1134.000000	0.273237
1135.000000	0.273229
1136.000000	0.273365
1137.000000	0.273650
1138.000000	0.273769
1139.000000	0.273942
1140.000000	0.274106
1141.000000	0.274078
1142.000000	0.274179
1143.000000	0.274305
1144.000000	0.274502
1145.000000	0.274641
1146.000000	0.274722
1147.000000	0.274800
1148.000000	0.274754
1149.000000	0.274800
1150.000000	0.274868
1151.000000	0.274975
1152.000000	0.275067
1153.000000	0.275198
1154.000000	0.275367
1155.000000	0.275452
1156.000000	0.275508
1157.000000	0.275593
1158.000000	0.275630
1159.000000	0.275649
1160.000000	0.275636
1161.000000	0.275660
1162.000000	0.275693
1163.000000	0.275863
1164.000000	0.275981
1165.000000	0.276096
1166.000000	0.276205
1167.000000	0.276254
1168.000000	0.276270
1169.000000	0.276307
1170.000000	0.276331
1171.000000	0.276333
1172.000000	0.276373
1173.000000	0.276427
1174.000000	0.276426
1175.000000	0.276354
1176.000000	0.276293
1177.000000	0.276244
1178.000000	0.276251
1179.000000	0.276314
1180.000000	0.276307
1181.000000	0.276373
1182.000000	0.276410
1183.000000	0.276477
1184.000000	0.276556
1185.000000	0.276605
1186.000000	0.276669
1187.000000	0.276695
1188.000000	0.276678
1189.000000	0.276670
1190.000000	0.276703
1191.000000	0.276705
1192.000000	0.276772
1193.000000	0.276884
1194.000000	0.276897
1195.000000	0.276950
1196.000000	0.276995
1197.000000	0.277016
1198.000000	0.277052
1199.000000	0.277076
1200.000000	0.277049
1201.000000	0.277068
1202.000000	0.277095
1203.000000	0.277112
1204.000000	0.277133
1205.000000	0.277156
1206.000000	0.277127
1207.000000	0.277143
1208.000000	0.277116
1209.000000	0.277081
1210.000000	0.277105
1211.000000	0.277151
1212.000000	0.277178
1213.000000	0.277313
1214.000000	0.277351
1215.000000	0.277283
1216.000000	0.277281
1217.000000	0.277251
1218.000000	0.277210
1219.000000	0.277212
1220.000000	0.277241
1221.000000	0.277229
1222.000000	0.277172
1223.000000	0.277126
1224.000000	0.277138
1225.000000	0.277102
1226.000000	0.277111
1227.000000	0.277109
1228.000000	0.277086
1229.000000	0.277069
1230.000000	0.277036
1231.000000	0.276975
1232.000000	0.277018
1233.000000	0.277092
1234.000000	0.277138
1235.000000	0.277168
1236.000000	0.277144
1237.000000	0.277174
1238.000000	0.277179
1239.000000	0.277169
1240.000000	0.277180
1241.000000	0.277147
1242.000000	0.277137
1243.000000	0.277103
1244.000000	0.277091
1245.000000	0.277187
1246.000000	0.277190
1247.000000	0.277229
1248.000000	0.277306
1249.000000	0.277336
1250.000000	0.277387
1251.000000	0.277428
1252.000000	0.277414
1253.000000	0.277375
1254.000000	0.277345
1255.000000	0.277264
1256.000000	0.277242
1257.000000	0.277285
1258.000000	0.277324
1259.000000	0.277314
1260.000000	0.277350
1261.000000	0.277360
1262.000000	0.277349
1263.000000	0.277378
1264.000000	0.277357
1265.000000	0.277265
1266.000000	0.277207
1267.000000	0.277150
1268.000000	0.277106
1269.000000	0.277033
1270.000000	0.276975
1271.000000	0.276921
1272.000000	0.276893
1273.000000	0.276956
1274.000000	0.277029
1275.000000	0.277012
1276.000000	0.276983
1277.000000	0.276987
1278.000000	0.276838
1279.000000	0.276762
1280.000000	0.276675
1281.000000	0.276578
1282.000000	0.276525
1283.000000	0.276553
1284.000000	0.276591
1285.000000	0.276603
1286.000000	0.276615
1287.000000	0.276588
1288.000000	0.276610
1289.000000	0.276590
1290.000000	0.276532
1291.000000	0.276533
1292.000000	0.276559
1293.000000	0.276537
1294.000000	0.276496
1295.000000	0.276472
1296.000000	0.276380
1297.000000	0.276291
1298.000000	0.276305
1299.000000	0.276330
1300.000000	0.276374
1301.000000	0.276385
1302.000000	0.276330
1303.000000	0.276334
1304.000000	0.276280
1305.000000	0.276224
1306.000000	0.276195
1307.000000	0.276200
1308.000000	0.276221
1309.000000	0.276289
1310.000000	0.276322
1311.000000	0.276369
1312.000000	0.276384
1313.000000	0.276401
1314.000000	0.276357
1315.000000	0.276295
1316.000000	0.276318
1317.000000	0.276348
1318.000000	0.276384
1319.000000	0.276373
1320.000000	0.276360
1321.000000	0.276320
1322.000000	0.276245
1323.000000	0.276246
1324.000000	0.276284
1325.000000	0.276272
1326.000000	0.276233
1327.000000	0.276142
1328.000000	0.276119
1329.000000	0.276045
1330.000000	0.275951
1331.000000	0.275905
1332.000000	0.275918
1333.000000	0.275889
1334.000000	0.275929
1335.000000	0.275982
1336.000000	0.276006
1337.000000	0.276035
1338.000000	0.276047
1339.000000	0.276048
1340.000000	0.276035
1341.000000	0.276069
1342.000000	0.276107
1343.000000	0.276087
1344.000000	0.276049
1345.000000	0.276001
1346.000000	0.276022
1347.000000	0.275975
1348.000000	0.275954
1349.000000	0.275908
1350.000000	0.275866
1351.000000	0.275850
1352.000000	0.275830
1353.000000	0.275836
1354.000000	0.275909
1355.000000	0.275926
1356.000000	0.275937
1357.000000	0.275877
1358.000000	0.275807
1359.000000	0.275783
1360.000000	0.275767
1361.000000	0.275857
1362.000000	0.275875
1363.000000	0.275805
1364.000000	0.275832
1365.000000	0.275873
1366.000000	0.275908
1367.000000	0.275983
1368.000000	0.276048
1369.000000	0.276091
1370.000000	0.276045
1371.000000	0.275990
1372.000000	0.275917
1373.000000	0.275902
1374.000000	0.275945
1375.000000	0.275882
1376.000000	0.275891
1377.000000	0.275920
1378.000000	0.275876
1379.000000	0.275893
1380.000000	0.275947
1381.000000	0.275886
1382.000000	0.275802
1383.000000	0.275784
1384.000000	0.275731
1385.000000	0.275661
1386.000000	0.275643
1387.000000	0.275676
1388.000000	0.275662
1389.000000	0.275681
1390.000000	0.275729
1391.000000	0.275660
1392.000000	0.275666
1393.000000	0.275657
1394.000000	0.275699
1395.000000	0.275707
1396.000000	0.275695
1397.000000	0.275653
1398.000000	0.275527
1399.000000	0.275473
1400.000000	0.275460
1401.000000	0.275404
1402.000000	0.275373
1403.000000	0.275351
1404.000000	0.275354
1405.000000	0.275345
1406.000000	0.275367
1407.000000	0.275397
1408.000000	0.275398
1409.000000	0.275437
1410.000000	0.275542
1411.000000	0.275618
1412.000000	0.275594
1413.000000	0.275623
1414.000000	0.275651
1415.000000	0.275672
1416.000000	0.275796
1417.000000	0.275931
1418.000000	0.275984
1419.000000	0.276101
1420.000000	0.276119
1421.000000	0.276172
1422.000000	0.276280
1423.000000	0.276337
1424.000000	0.276314
1425.000000	0.276327
1426.000000	0.276231
1427.000000	0.276125
1428.000000	0.276082
1429.000000	0.275992
1430.000000	0.275915
1431.000000	0.275892
1432.000000	0.275839
1433.000000	0.275819
1434.000000	0.275773
1435.000000	0.275772
1436.000000	0.275764
1437.000000	0.275752
1438.000000	0.275721
1439.000000	0.275739
1440.000000	0.275726
1441.000000	0.275670
1442.000000	0.275680
1443.000000	0.275653
1444.000000	0.275668
1445.000000	0.275686
1446.000000	0.275725
1447.000000	0.275741
1448.000000	0.275718
1449.000000	0.275760
1450.000000	0.275817
1451.000000	0.275853
1452.000000	0.275829
1453.000000	0.275763
1454.000000	0.275682
1455.000000	0.275611
1456.000000	0.275651
1457.000000	0.275701
1458.000000	0.275694
1459.000000	0.275714
1460.000000	0.275708
1461.000000	0.275650
1462.000000	0.275634
1463.000000	0.275552
1464.000000	0.275450
1465.000000	0.275459
1466.000000	0.275448
1467.000000	0.275479
1468.000000	0.275540
1469.000000	0.275578
1470.000000	0.275578
1471.000000	0.275633
1472.000000	0.275667
1473.000000	0.275740
1474.000000	0.275770
1475.000000	0.275747
1476.000000	0.275735
1477.000000	0.275735
1478.000000	0.275719
1479.000000	0.275657
1480.000000	0.275631
1481.000000	0.275587
1482.000000	0.275532
1483.000000	0.275554
1484.000000	0.275639
1485.000000	0.275681
1486.000000	0.275739
1487.000000	0.275771
1488.000000	0.275786
1489.000000	0.275831
1490.000000	0.275774
1491.000000	0.275778
1492.000000	0.275776
1493.000000	0.275774
1494.000000	0.275759
1495.000000	0.275723
1496.000000	0.275663
1497.000000	0.275629
1498.000000	0.275616
1499.000000	0.275560
1500.000000	0.275543
1501.000000	0.275509
1502.000000	0.275445
1503.000000	0.275434
1504.000000	0.275423
1505.000000	0.275388
1506.000000	0.275380
1507.000000	0.275338
1508.000000	0.275334
1509.000000	0.275349
1510.000000	0.275310
1511.000000	0.275328
1512.000000	0.275297
1513.000000	0.275263
1514.000000	0.275305
1515.000000	0.275272
1516.000000	0.275333
1517.000000	0.275375
1518.000000	0.275352
1519.000000	0.275336
1520.000000	0.275300
1521.000000	0.275240
1522.000000	0.275246
1523.000000	0.275250
1524.000000	0.275173
1525.000000	0.275159
1526.000000	0.275118
1527.000000	0.275072
1528.000000	0.275111
1529.000000	0.275091
1530.000000	0.274946
1531.000000	0.274892
1532.000000	0.274889
1533.000000	0.274799
1534.000000	0.274765
1535.000000	0.274770
1536.000000	0.274666
1537.000000	0.274648
1538.000000	0.274679
1539.000000	0.274627
1540.000000	0.274569
1541.000000	0.274581
1542.000000	0.274652
1543.000000	0.274725
1544.000000	0.274815
1545.000000	0.274949
1546.000000	0.275011
1547.000000	0.275011
1548.000000	0.275012
1549.000000	0.274997
1550.000000	0.274931
1551.000000	0.274898
1552.000000	0.274897
1553.000000	0.274824
1554.000000	0.274774
1555.000000	0.274762
1556.000000	0.274748
1557.000000	0.274748
1558.000000	0.274766
1559.000000	0.274753
1560.000000	0.274740
1561.000000	0.274772
1562.000000	0.274774
1563.000000	0.274792
1564.000000	0.274829
1565.000000	0.274859
1566.000000	0.274828
1567.000000	0.274882
1568.000000	0.274886
1569.000000	0.274909
1570.000000	0.274924
1571.000000	0.274911
1572.000000	0.274883
1573.000000	0.274849
1574.000000	0.274806
1575.000000	0.274763
1576.000000	0.274746
1577.000000	0.274733
1578.000000	0.274674
1579.000000	0.274655
1580.000000	0.274601
1581.000000	0.274555
1582.000000	0.274501
1583.000000	0.274433
1584.000000	0.274353
1585.000000	0.274323
1586.000000	0.274313
1587.000000	0.274321
1588.000000	0.274298
1589.000000	0.274282
1590.000000	0.274262
1591.000000	0.274230
1592.000000	0.274229
1593.000000	0.274300
1594.000000	0.274281
1595.000000	0.274273
1596.000000	0.274267
1597.000000	0.274224
1598.000000	0.274203
1599.000000	0.274238
1600.000000	0.274222
1601.000000	0.274261
1602.000000	0.274276
1603.000000	0.274297
1604.000000	0.274303
1605.000000	0.274295
1606.000000	0.274317
1607.000000	0.274434
1608.000000	0.274452
1609.000000	0.274481
1610.000000	0.274495
1611.000000	0.274461
1612.000000	0.274461
1613.000000	0.274596
1614.000000	0.274629
1615.000000	0.274669
1616.000000	0.274700
1617.000000	0.274664
1618.000000	0.274619
1619.000000	0.274524
1620.000000	0.274466
1621.000000	0.274420
1622.000000	0.274437
1623.000000	0.274489
1624.000000	0.274485
1625.000000	0.274364
1626.000000	0.274247
1627.000000	0.274100
1628.000000	0.274054
1629.000000	0.274032
1630.000000	0.274029
1631.000000	0.274034
1632.000000	0.273975
1633.000000	0.273899
1634.000000	0.273873
1635.000000	0.273881
1636.000000	0.273871
1637.000000	0.273902
1638.000000	0.273887
1639.000000	0.273882
1640.000000	0.273872
1641.000000	0.273934
1642.000000	0.273920
1643.000000	0.273903
1644.000000	0.273852
1645.000000	0.273725
1646.000000	0.273639
1647.000000	0.273609
1648.000000	0.273501
1649.000000	0.273428
1650.000000	0.273397
1651.000000	0.273369
1652.000000	0.273375
1653.000000	0.273397
1654.000000	0.273441
1655.000000	0.273434
1656.000000	0.273403
1657.000000	0.273475
1658.000000	0.273482
1659.000000	0.273523
1660.000000	0.273588
1661.000000	0.273569
1662.000000	0.273622
1663.000000	0.273695
1664.000000	0.273747
1665.000000	0.273842
1666.000000	0.273929
1667.000000	0.273919
1668.000000	0.273928
1669.000000	0.273925
1670.000000	0.273865
1671.000000	0.273874
1672.000000	0.273871
1673.000000	0.273809
1674.000000	0.273742
1675.000000	0.273703
1676.000000	0.273609
1677.000000	0.273543
1678.000000	0.273453
1679.000000	0.273295
1680.000000	0.273151
1681.000000	0.273049
1682.000000	0.272989
1683.000000	0.272983
1684.000000	0.272956
1685.000000	0.272926
1686.000000	0.272865
1687.000000	0.272855
1688.000000	0.272866
1689.000000	0.272889
1690.000000	0.272954
1691.000000	0.273074
1692.000000	0.273079
1693.000000	0.273098
1694.000000	0.273148
1695.000000	0.273218
1696.000000	0.273312
1697.000000	0.273329
1698.000000	0.273292
1699.000000	0.273307
1700.000000	0.273342
1701.000000	0.273432
1702.000000	0.273415
1703.000000	0.273364
1704.000000	0.273375
1705.000000	0.273362
1706.000000	0.273363
1707.000000	0.273347
1708.000000	0.273278
1709.000000	0.273190
1710.000000	0.273196
1711.000000	0.273139
1712.000000	0.273032
1713.000000	0.272972
1714.000000	0.272940
1715.000000	0.272904
1716.000000	0.272955
1717.000000	0.272920
1718.000000	0.272745
1719.000000	0.272666
1720.000000	0.272661
1721.000000	0.272641
1722.000000	0.272665
1723.000000	0.272691
1724.000000	0.272730
1725.000000	0.272775
1726.000000	0.272781
1727.000000	0.272782
1728.000000	0.272715
1729.000000	0.272620
1730.000000	0.272622
1731.000000	0.272597
1732.000000	0.272543
1733.000000	0.272579
1734.000000	0.272554
1735.000000	0.272527
1736.000000	0.272502
1737.000000	0.272446
1738.000000	0.272352
1739.000000	0.272326
1740.000000	0.272307
1741.000000	0.272281
1742.000000	0.272284
1743.000000	0.272344
1744.000000	0.272407
1745.000000	0.272431
1746.000000	0.272486
1747.000000	0.272469
1748.000000	0.272417
1749.000000	0.272350
1750.000000	0.272290
1751.000000	0.272321
1752.000000	0.272413
1753.000000	0.272428
1754.000000	0.272474
1755.000000	0.272489
1756.000000	0.272524
1757.000000	0.272634
1758.000000	0.272681
1759.000000	0.272665
1760.000000	0.272683
1761.000000	0.272639
1762.000000	0.272615
1763.000000	0.272669
1764.000000	0.272668
1765.000000	0.272586
1766.000000	0.272556
1767.000000	0.272436
1768.000000	0.272376
1769.000000	0.272466
1770.000000	0.272514
1771.000000	0.272532
1772.000000	0.272558
1773.000000	0.272515
1774.000000	0.272518
1775.000000	0.272639
1776.000000	0.272644
1777.000000	0.272580
1778.000000	0.272503
1779.000000	0.272323
1780.000000	0.272279
1781.000000	0.272263
1782.000000	0.272209
1783.000000	0.272232
1784.000000	0.272254
1785.000000	0.272182
1786.000000	0.272296
1787.000000	0.272413
1788.000000	0.272401
1789.000000	0.272420
1790.000000	0.272384
1791.000000	0.272312
1792.000000	0.272330
1793.000000	0.272318
1794.000000	0.272280
1795.000000	0.272265
1796.000000	0.272238
1797.000000	0.272227
1798.000000	0.272202
1799.000000	0.272205
1800.000000	0.272322
1801.000000	0.272232
1802.000000	0.272304
1803.000000	0.272194
1804.000000	0.272305
1805.000000	0.272465
1806.000000	0.272656
1807.000000	0.273086
1808.000000	0.273253
1809.000000	0.273375
1810.000000	0.273369
1811.000000	0.273217
1812.000000	0.272732
1813.000000	0.272594
1814.000000	0.272509
1815.000000	0.272482
1816.000000	0.272691
1817.000000	0.272663
1818.000000	0.272664
1819.000000	0.272587
1820.000000	0.272403
1821.000000	0.272164
1822.000000	0.272204
1823.000000	0.272402
1824.000000	0.272322
1825.000000	0.272314
1826.000000	0.272295
1827.000000	0.271975
1828.000000	0.271553
1829.000000	0.271762
1830.000000	0.271900
1831.000000	0.272017
1832.000000	0.272321
1833.000000	0.272440
1834.000000	0.272557
1835.000000	0.272449
1836.000000	0.271909
1837.000000	0.271747
1838.000000	0.271410
1839.000000	0.271273
1840.000000	0.271444
1841.000000	0.271619
1842.000000	0.271678
1843.000000	0.271561
1844.000000	0.271558
1845.000000	0.271383
1846.000000	0.271497
1847.000000	0.271647
1848.000000	0.271949
1849.000000	0.272041
1850.000000	0.272203
1851.000000	0.272355
1852.000000	0.272230
1853.000000	0.272397
1854.000000	0.272792
1855.000000	0.272815
1856.000000	0.272622
1857.000000	0.272489
1858.000000	0.272195
1859.000000	0.271806
1860.000000	0.271797
1861.000000	0.271932
1862.000000	0.271972
1863.000000	0.272214
1864.000000	0.272376
1865.000000	0.272468
1866.000000	0.272549
1867.000000	0.272629
1868.000000	0.272685
1869.000000	0.272570
1870.000000	0.272569
1871.000000	0.272595
1872.000000	0.272381
1873.000000	0.272312
1874.000000	0.272068
1875.000000	0.272208
1876.000000	0.272343
1877.000000	0.272481
1878.000000	0.272622
1879.000000	0.272585
1880.000000	0.272298
1881.000000	0.271961
1882.000000	0.271699
1883.000000	0.271547
1884.000000	0.271476
1885.000000	0.271281
1886.000000	0.271206
1887.000000	0.271340
1888.000000	0.271063
1889.000000	0.270910
1890.000000	0.271099
1891.000000	0.270970
1892.000000	0.270924
1893.000000	0.271129
1894.000000	0.271363
1895.000000	0.271335
1896.000000	0.271401
1897.000000	0.271513
1898.000000	0.271343
1899.000000	0.271076
1900.000000	0.270953
1901.000000	0.270900
1902.000000	0.271044
1903.000000	0.271222
1904.000000	0.271392
1905.000000	0.271543
1906.000000	0.271483
1907.000000	0.271243
1908.000000	0.271016
1909.000000	0.270745
1910.000000	0.270535
1911.000000	0.270543
1912.000000	0.270442
1913.000000	0.270477
1914.000000	0.270666
1915.000000	0.270708
1916.000000	0.270931
1917.000000	0.271004
1918.000000	0.271221
1919.000000	0.271275
1920.000000	0.271170
1921.000000	0.270956
1922.000000	0.270730
1923.000000	0.270715
1924.000000	0.270646
1925.000000	0.270534
1926.000000	0.270754
1927.000000	0.271005
1928.000000	0.271060
1929.000000	0.271225
1930.000000	0.271314
1931.000000	0.271094
1932.000000	0.270955
1933.000000	0.270884
1934.000000	0.270771
1935.000000	0.270714
1936.000000	0.270711
1937.000000	0.270721
1938.000000	0.270722
1939.000000	0.270607
1940.000000	0.270483
1941.000000	0.270132
1942.000000	0.269878
1943.000000	0.269685
1944.000000	0.269746
1945.000000	0.269948
1946.000000	0.269886
1947.000000	0.270005
1948.000000	0.270004
1949.000000	0.269862
1950.000000	0.270164
1951.000000	0.270243
1952.000000	0.270341
1953.000000	0.270291
1954.000000	0.270513
1955.000000	0.270435
1956.000000	0.270300
1957.000000	0.270247
1958.000000	0.269984
1959.000000	0.270032
1960.000000	0.269986
1961.000000	0.269746
1962.000000	0.269637
1963.000000	0.269684
1964.000000	0.269495
1965.000000	0.269383
1966.000000	0.269562
1967.000000	0.269816
1968.000000	0.270060
1969.000000	0.270057
1970.000000	0.270222
1971.000000	0.270153
1972.000000	0.269790
1973.000000	0.269587
1974.000000	0.269570
1975.000000	0.269512
1976.000000	0.269460
1977.000000	0.269638
1978.000000	0.269715
1979.000000	0.269851
1980.000000	0.270014
1981.000000	0.270129
1982.000000	0.270145
1983.000000	0.270198
1984.000000	0.270165
1985.000000	0.270077
1986.000000	0.269969
1987.000000	0.269844
1988.000000	0.269888
1989.000000	0.269943
1990.000000	0.270027
1991.000000	0.270191
1992.000000	0.270046
1993.000000	0.270063
1994.000000	0.270191
1995.000000	0.270184
1996.000000	0.270495
1997.000000	0.270573
1998.000000	0.270508
1999.000000	0.270532
2000.000000	0.270631
2001.000000	0.270519
2002.000000	0.270358
2003.000000	0.270296
2004.000000	0.270122
2005.000000	0.269797
2006.000000	0.269798
2007.000000	0.269773
2008.000000	0.269725
2009.000000	0.269656
2010.000000	0.269724
2011.000000	0.269788
2012.000000	0.269747
2013.000000	0.269690
2014.000000	0.269567
2015.000000	0.269280
2016.000000	0.268866
2017.000000	0.268632
2018.000000	0.268470
2019.000000	0.268505
2020.000000	0.268519
2021.000000	0.268507
2022.000000	0.268513
2023.000000	0.268537
2024.000000	0.268512
2025.000000	0.268604
2026.000000	0.268760
2027.000000	0.268689
2028.000000	0.268624
2029.000000	0.268541
2030.000000	0.268307
2031.000000	0.268274
2032.000000	0.268224
2033.000000	0.268407
2034.000000	0.268468
2035.000000	0.268620
2036.000000	0.268595
2037.000000	0.268667
2038.000000	0.268635
2039.000000	0.268582
2040.000000	0.268540
2041.000000	0.268405
2042.000000	0.268464
2043.000000	0.268254
2044.000000	0.268128
2045.000000	0.268304
2046.000000	0.267998
2047.000000	0.267965
2048.000000	0.268152
2049.000000	0.268350
2050.000000	0.268238
2051.000000	0.268213
2052.000000	0.268182
2053.000000	0.268026
2054.000000	0.267985
2055.000000	0.267990
2056.000000	0.267925
2057.000000	0.267856
2058.000000	0.267772
2059.000000	0.267711
2060.000000	0.267780
2061.000000	0.268128
2062.000000	0.268169
2063.000000	0.268226
2064.000000	0.268088
2065.000000	0.267799
2066.000000	0.267568
2067.000000	0.267488
2068.000000	0.267655
2069.000000	0.267666
2070.000000	0.267840
2071.000000	0.267736
2072.000000	0.267509
2073.000000	0.267421
2074.000000	0.267218
2075.000000	0.267158
2076.000000	0.267290
2077.000000	0.267270
2078.000000	0.267279
2079.000000	0.267126
2080.000000	0.266819
2081.000000	0.266640
2082.000000	0.266418
2083.000000	0.266263
2084.000000	0.266137
2085.000000	0.266065
2086.000000	0.266156
2087.000000	0.266227
2088.000000	0.266194
2089.000000	0.266264
2090.000000	0.266314
2091.000000	0.266283
2092.000000	0.266285
2093.000000	0.266469
2094.000000	0.266479
2095.000000	0.266426
2096.000000	0.266342
2097.000000	0.266110
2098.000000	0.265844
2099.000000	0.265710
2100.000000	0.265574
2101.000000	0.265662
2102.000000	0.265832
2103.000000	0.265976
2104.000000	0.265944
2105.000000	0.265995
2106.000000	0.265996
2107.000000	0.266164
2108.000000	0.266454
2109.000000	0.266697
2110.000000	0.266791
2111.000000	0.266926
2112.000000	0.267063
2113.000000	0.266924
2114.000000	0.266716
2115.000000	0.266922
2116.000000	0.266681
2117.000000	0.266348
2118.000000	0.266489
2119.000000	0.266331
2120.000000	0.266418
2121.000000	0.266841
2122.000000	0.266974
2123.000000	0.266975
2124.000000	0.267076
2125.000000	0.267209
2126.000000	0.267181
2127.000000	0.267113
2128.000000	0.267127
2129.000000	0.266941
2130.000000	0.266884
2131.000000	0.266797
2132.000000	0.266605
2133.000000	0.266520
2134.000000	0.266183
2135.000000	0.265695
2136.000000	0.265409
2137.000000	0.265265
2138.000000	0.265199
2139.000000	0.265246
2140.000000	0.265566
2141.000000	0.265765
2142.000000	0.265897
2143.000000	0.265840
2144.000000	0.266062
2145.000000	0.266088
2146.000000	0.265824
2147.000000	0.266180
2148.000000	0.266113
2149.000000	0.265756
2150.000000	0.265738
2151.000000	0.265487
2152.000000	0.265369
2153.000000	0.265515
2154.000000	0.265442
2155.000000	0.265299
2156.000000	0.265153
2157.000000	0.264938
2158.000000	0.264940
2159.000000	0.265092
2160.000000	0.265329
2161.000000	0.265800
2162.000000	0.266005
2163.000000	0.265970
2164.000000	0.266031
2165.000000	0.266065
2166.000000	0.265990
2167.000000	0.266054
2168.000000	0.266143
2169.000000	0.266279
2170.000000	0.266590
2171.000000	0.266752
2172.000000	0.267125
2173.000000	0.267156
2174.000000	0.266744
2175.000000	0.266758
2176.000000	0.266858
2177.000000	0.266892
2178.000000	0.267333
2179.000000	0.267417
2180.000000	0.266901
2181.000000	0.267141
2182.000000	0.267132
2183.000000	0.267224
2184.000000	0.267884
2185.000000	0.268272
2186.000000	0.268215
2187.000000	0.268211
2188.000000	0.267965
2189.000000	0.267145
2190.000000	0.266236
2191.000000	0.265925
2192.000000	0.265542
2193.000000	0.265232
2194.000000	0.265012
2195.000000	0.265132
2196.000000	0.264979
2197.000000	0.264563
2198.000000	0.264363
2199.000000	0.264401
2200.000000	0.264407
2201.000000	0.264543
2202.000000	0.264675
2203.000000	0.264720
2204.000000	0.264374
2205.000000	0.264221
2206.000000	0.264457
2207.000000	0.264724
2208.000000	0.265614
2209.000000	0.266507
2210.000000	0.267432
2211.000000	0.267460
2212.000000	0.267374
2213.000000	0.267038
2214.000000	0.265834
2215.000000	0.265140
2216.000000	0.264368
2217.000000	0.264221
2218.000000	0.264235
2219.000000	0.264866
2220.000000	0.266871
2221.000000	0.267509
2222.000000	0.267791
2223.000000	0.267864
2224.000000	0.267233
2225.000000	0.266682
2226.000000	0.265653
2227.000000	0.265289
2228.000000	0.265365
2229.000000	0.264267
2230.000000	0.264256
2231.000000	0.264557
2232.000000	0.263683
2233.000000	0.263730
2234.000000	0.263370
2235.000000	0.263330
2236.000000	0.263525
2237.000000	0.263950
2238.000000	0.264470
2239.000000	0.265485
2240.000000	0.265659
2241.000000	0.265782
2242.000000	0.265653
2243.000000	0.264507
2244.000000	0.264312
2245.000000	0.264589
2246.000000	0.264515
2247.000000	0.264443
2248.000000	0.264788
2249.000000	0.265385
2250.000000	0.265787
2251.000000	0.265977
2252.000000	0.265353
2253.000000	0.264200
2254.000000	0.262921
2255.000000	0.262653
2256.000000	0.263393
2257.000000	0.263723
2258.000000	0.263696
2259.000000	0.263460
2260.000000	0.262863
2261.000000	0.262560
2262.000000	0.262429
2263.000000	0.262416
2264.000000	0.262360
2265.000000	0.262644
2266.000000	0.263501
2267.000000	0.263856
2268.000000	0.264116
2269.000000	0.264523
2270.000000	0.264504
2271.000000	0.264726
2272.000000	0.265785
2273.000000	0.265904
2274.000000	0.265265
2275.000000	0.265225
2276.000000	0.265239
2277.000000	0.264503
2278.000000	0.264566
2279.000000	0.264564
2280.000000	0.263735
2281.000000	0.263220
2282.000000	0.262983
2283.000000	0.262310
2284.000000	0.261730
2285.000000	0.261564
2286.000000	0.261388
2287.000000	0.261467
2288.000000	0.261939
2289.000000	0.262205
2290.000000	0.262794
2291.000000	0.263094
2292.000000	0.263256
2293.000000	0.263825
2294.000000	0.263903
2295.000000	0.263556
2296.000000	0.263521
2297.000000	0.263184
2298.000000	0.263250
2299.000000	0.263743
2300.000000	0.263645
2301.000000	0.263636
2302.000000	0.263257
2303.000000	0.261777
2304.000000	0.261574
2305.000000	0.262108
2306.000000	0.262379
2307.000000	0.262886
2308.000000	0.263904
2309.000000	0.264310
2310.000000	0.264212
2311.000000	0.265201
2312.000000	0.265301
2313.000000	0.264276
2314.000000	0.264051
2315.000000	0.263293
2316.000000	0.262516
2317.000000	0.263104
2318.000000	0.263685
2319.000000	0.264738
2320.000000	0.265245
2321.000000	0.264999
2322.000000	0.265186
2323.000000	0.264853
2324.000000	0.264692
2325.000000	0.264796
2326.000000	0.264455
2327.000000	0.263214
2328.000000	0.262540
2329.000000	0.262703
2330.000000	0.262600
2331.000000	0.262929
2332.000000	0.263203
2333.000000	0.263297
2334.000000	0.262987
2335.000000	0.263261
2336.000000	0.263600
2337.000000	0.263720
2338.000000	0.263971
2339.000000	0.264057
2340.000000	0.263800
2341.000000	0.263722
2342.000000	0.263628
2343.000000	0.263869
2344.000000	0.264046
2345.000000	0.263944
2346.000000	0.264372
2347.000000	0.264259
2348.000000	0.263219
2349.000000	0.263959
2350.000000	0.263684
2351.000000	0.263185
2352.000000	0.263570
2353.000000	0.264772
2354.000000	0.265889
2355.000000	0.266151
2356.000000	0.267053
2357.000000	0.266869
2358.000000	0.265744
2359.000000	0.266576
2360.000000	0.266894
2361.000000	0.265936
2362.000000	0.266671
2363.000000	0.267339
2364.000000	0.265404
2365.000000	0.264023
2366.000000	0.262868
2367.000000	0.261770
2368.000000	0.262167
2369.000000	0.261792
2370.000000	0.261790
2371.000000	0.261732
2372.000000	0.262361
2373.000000	0.265157
2374.000000	0.266757
2375.000000	0.268101
2376.000000	0.268920
2377.000000	0.268449
2378.000000	0.268040
2379.000000	0.267152
2380.000000	0.266902
2381.000000	0.267092
2382.000000	0.265711
2383.000000	0.264548
2384.000000	0.263663
2385.000000	0.263092
2386.000000	0.264993
2387.000000	0.266825
2388.000000	0.269042
2389.000000	0.269662
2390.000000	0.267959
2391.000000	0.267535
2392.000000	0.265810
2393.000000	0.265444
2394.000000	0.266905
2395.000000	0.267833
2396.000000	0.268975
2397.000000	0.269106
2398.000000	0.268950
2399.000000	0.267508
2400.000000	0.265478
2401.000000	0.263446
2402.000000	0.262725
2403.000000	0.265251
2404.000000	0.266630
2405.000000	0.265356
2406.000000	0.265303
2407.000000	0.264410
2408.000000	0.261803
2409.000000	0.261577
2410.000000	0.259929
2411.000000	0.256866
2412.000000	0.256745
2413.000000	0.257021
2414.000000	0.260423
2415.000000	0.265085
2416.000000	0.266324
2417.000000	0.269411
2418.000000	0.268304
2419.000000	0.262650
2420.000000	0.261310
2421.000000	0.258080
2422.000000	0.256243
2423.000000	0.260107
2424.000000	0.262017
2425.000000	0.262832
2426.000000	0.263879
2427.000000	0.266360
2428.000000	0.268340
2429.000000	0.268240
2430.000000	0.270148
2431.000000	0.266380
2432.000000	0.259550
2433.000000	0.259958
2434.000000	0.258149
2435.000000	0.254892
2436.000000	0.258561
2437.000000	0.260532
2438.000000	0.260996
2439.000000	0.261861
2440.000000	0.257875
2441.000000	0.252481
2442.000000	0.246759
2443.000000	0.246996
2444.000000	0.251792
2445.000000	0.253316
2446.000000	0.256483
2447.000000	0.256893
2448.000000	0.257346
2449.000000	0.261836
2450.000000	0.267895
2451.000000	0.273246
2452.000000	0.273908
2453.000000	0.271645
2454.000000	0.268379
2455.000000	0.267312
2456.000000	0.266170
2457.000000	0.265840
2458.000000	0.263541
2459.000000	0.258265
2460.000000	0.257560
2461.000000	0.261403
2462.000000	0.266368
2463.000000	0.268658
2464.000000	0.266517
2465.000000	0.261217
2466.000000	0.257278
2467.000000	0.256872
2468.000000	0.265328
2469.000000	0.273899
2470.000000	0.279283
2471.000000	0.287458
2472.000000	0.289907
2473.000000	0.281866
2474.000000	0.270819
2475.000000	0.267227
2476.000000	0.258189
2477.000000	0.256531
2478.000000	0.266313
2479.000000	0.260819
2480.000000	0.264396
2481.000000	0.273325
2482.000000	0.268859
2483.000000	0.264374
2484.000000	0.251323
2485.000000	0.242313
2486.000000	0.242014
2487.000000	0.253698
2488.000000	0.280308
2489.000000	0.281969
2490.000000	0.278739
2491.000000	0.280094
2492.000000	0.266028
2493.000000	0.252637
2494.000000	0.253141
2495.000000	0.241972
2496.000000	0.238039
2497.000000	0.251778
2498.000000	0.256870
2499.000000	0.271669
2500.000000	0.273280
