# Wavelength	PV7_00000.asd.rts.txt
350.000000	0.185105
351.000000	0.185583
352.000000	0.185520
353.000000	0.182256
354.000000	0.178321
355.000000	0.180421
356.000000	0.182669
357.000000	0.185140
358.000000	0.188721
359.000000	0.189116
360.000000	0.188065
361.000000	0.188169
362.000000	0.190101
363.000000	0.190490
364.000000	0.188402
365.000000	0.191616
366.000000	0.191516
367.000000	0.187769
368.000000	0.187466
369.000000	0.189508
370.000000	0.191613
371.000000	0.191398
372.000000	0.190678
373.000000	0.191302
374.000000	0.193703
375.000000	0.193139
376.000000	0.192414
377.000000	0.192985
378.000000	0.195518
379.000000	0.197546
380.000000	0.198076
381.000000	0.197687
382.000000	0.198713
383.000000	0.199556
384.000000	0.199209
385.000000	0.198470
386.000000	0.199186
387.000000	0.201038
388.000000	0.201065
389.000000	0.200482
390.000000	0.200490
391.000000	0.201858
392.000000	0.202293
393.000000	0.202344
394.000000	0.202723
395.000000	0.203201
396.000000	0.204345
397.000000	0.205799
398.000000	0.205973
399.000000	0.206229
400.000000	0.206660
401.000000	0.206767
402.000000	0.206800
403.000000	0.206939
404.000000	0.207414
405.000000	0.208209
406.000000	0.208499
407.000000	0.208304
408.000000	0.208988
409.000000	0.209486
410.000000	0.209754
411.000000	0.210248
412.000000	0.210625
413.000000	0.210953
414.000000	0.211376
415.000000	0.211776
416.000000	0.212222
417.000000	0.212687
418.000000	0.212855
419.000000	0.213186
420.000000	0.213651
421.000000	0.213786
422.000000	0.213984
423.000000	0.214297
424.000000	0.214717
425.000000	0.214978
426.000000	0.215194
427.000000	0.215445
428.000000	0.215614
429.000000	0.215810
430.000000	0.216067
431.000000	0.216319
432.000000	0.216548
433.000000	0.216747
434.000000	0.217017
435.000000	0.217338
436.000000	0.217587
437.000000	0.217676
438.000000	0.217907
439.000000	0.218043
440.000000	0.218111
441.000000	0.218403
442.000000	0.218650
443.000000	0.218724
444.000000	0.218729
445.000000	0.219016
446.000000	0.219466
447.000000	0.219692
448.000000	0.219875
449.000000	0.220126
450.000000	0.220471
451.000000	0.220679
452.000000	0.220939
453.000000	0.221245
454.000000	0.221594
455.000000	0.221722
456.000000	0.221882
457.000000	0.222335
458.000000	0.222516
459.000000	0.222652
460.000000	0.223035
461.000000	0.223387
462.000000	0.223722
463.000000	0.223929
464.000000	0.224113
465.000000	0.224411
466.000000	0.224737
467.000000	0.224978
468.000000	0.225146
469.000000	0.225272
470.000000	0.225524
471.000000	0.225731
472.000000	0.225920
473.000000	0.226149
474.000000	0.226426
475.000000	0.226569
476.000000	0.226710
477.000000	0.227032
478.000000	0.227164
479.000000	0.227312
480.000000	0.227574
481.000000	0.227821
482.000000	0.228122
483.000000	0.228347
484.000000	0.228507
485.000000	0.228652
486.000000	0.228926
487.000000	0.229101
488.000000	0.229386
489.000000	0.229743
490.000000	0.229948
491.000000	0.230200
492.000000	0.230505
493.000000	0.230707
494.000000	0.230965
495.000000	0.231255
496.000000	0.231512
497.000000	0.231778
498.000000	0.232008
499.000000	0.232274
500.000000	0.232619
501.000000	0.232968
502.000000	0.233288
503.000000	0.233493
504.000000	0.233710
505.000000	0.233946
506.000000	0.234187
507.000000	0.234393
508.000000	0.234638
509.000000	0.234918
510.000000	0.235201
511.000000	0.235486
512.000000	0.235790
513.000000	0.236090
514.000000	0.236427
515.000000	0.236769
516.000000	0.237017
517.000000	0.237310
518.000000	0.237669
519.000000	0.238001
520.000000	0.238258
521.000000	0.238524
522.000000	0.238829
523.000000	0.239104
524.000000	0.239382
525.000000	0.239666
526.000000	0.239982
527.000000	0.240250
528.000000	0.240477
529.000000	0.240737
530.000000	0.240973
531.000000	0.241255
532.000000	0.241542
533.000000	0.241818
534.000000	0.242119
535.000000	0.242422
536.000000	0.242673
537.000000	0.242994
538.000000	0.243339
539.000000	0.243591
540.000000	0.243818
541.000000	0.244045
542.000000	0.244313
543.000000	0.244574
544.000000	0.244893
545.000000	0.245214
546.000000	0.245455
547.000000	0.245703
548.000000	0.245984
549.000000	0.246204
550.000000	0.246479
551.000000	0.246803
552.000000	0.247094
553.000000	0.247410
554.000000	0.247748
555.000000	0.248102
556.000000	0.248466
557.000000	0.248782
558.000000	0.249132
559.000000	0.249435
560.000000	0.249726
561.000000	0.250059
562.000000	0.250358
563.000000	0.250631
564.000000	0.250926
565.000000	0.251199
566.000000	0.251528
567.000000	0.251840
568.000000	0.252089
569.000000	0.252369
570.000000	0.252681
571.000000	0.253001
572.000000	0.253305
573.000000	0.253587
574.000000	0.253838
575.000000	0.254108
576.000000	0.254445
577.000000	0.254756
578.000000	0.255040
579.000000	0.255412
580.000000	0.255743
581.000000	0.256005
582.000000	0.256349
583.000000	0.256634
584.000000	0.256882
585.000000	0.257200
586.000000	0.257485
587.000000	0.257756
588.000000	0.258052
589.000000	0.258339
590.000000	0.258608
591.000000	0.258868
592.000000	0.259171
593.000000	0.259462
594.000000	0.259719
595.000000	0.259962
596.000000	0.260190
597.000000	0.260412
598.000000	0.260558
599.000000	0.260753
600.000000	0.261019
601.000000	0.261280
602.000000	0.261543
603.000000	0.261781
604.000000	0.261983
605.000000	0.262131
606.000000	0.262289
607.000000	0.262459
608.000000	0.262605
609.000000	0.262757
610.000000	0.262924
611.000000	0.263099
612.000000	0.263234
613.000000	0.263362
614.000000	0.263537
615.000000	0.263701
616.000000	0.263871
617.000000	0.264015
618.000000	0.264144
619.000000	0.264316
620.000000	0.264491
621.000000	0.264651
622.000000	0.264875
623.000000	0.265090
624.000000	0.265239
625.000000	0.265418
626.000000	0.265592
627.000000	0.265763
628.000000	0.265994
629.000000	0.266283
630.000000	0.266492
631.000000	0.266666
632.000000	0.266807
633.000000	0.266965
634.000000	0.267157
635.000000	0.267273
636.000000	0.267380
637.000000	0.267503
638.000000	0.267607
639.000000	0.267723
640.000000	0.267879
641.000000	0.267946
642.000000	0.268067
643.000000	0.268228
644.000000	0.268375
645.000000	0.268529
646.000000	0.268697
647.000000	0.268861
648.000000	0.269052
649.000000	0.269258
650.000000	0.269446
651.000000	0.269611
652.000000	0.269745
653.000000	0.269890
654.000000	0.270030
655.000000	0.270197
656.000000	0.270370
657.000000	0.270481
658.000000	0.270605
659.000000	0.270727
660.000000	0.270841
661.000000	0.271012
662.000000	0.271168
663.000000	0.271339
664.000000	0.271519
665.000000	0.271695
666.000000	0.271871
667.000000	0.272028
668.000000	0.272199
669.000000	0.272387
670.000000	0.272592
671.000000	0.272783
672.000000	0.272993
673.000000	0.273198
674.000000	0.273347
675.000000	0.273446
676.000000	0.273540
677.000000	0.273691
678.000000	0.273818
679.000000	0.273969
680.000000	0.274171
681.000000	0.274326
682.000000	0.274479
683.000000	0.274593
684.000000	0.274752
685.000000	0.274911
686.000000	0.275071
687.000000	0.275197
688.000000	0.275348
689.000000	0.275541
690.000000	0.275791
691.000000	0.275987
692.000000	0.276144
693.000000	0.276338
694.000000	0.276549
695.000000	0.276737
696.000000	0.276910
697.000000	0.277101
698.000000	0.277279
699.000000	0.277451
700.000000	0.277621
701.000000	0.277727
702.000000	0.277854
703.000000	0.277997
704.000000	0.278079
705.000000	0.278197
706.000000	0.278341
707.000000	0.278536
708.000000	0.278752
709.000000	0.278951
710.000000	0.279123
711.000000	0.279255
712.000000	0.279396
713.000000	0.279576
714.000000	0.279751
715.000000	0.279924
716.000000	0.280094
717.000000	0.280245
718.000000	0.280403
719.000000	0.280577
720.000000	0.280779
721.000000	0.280998
722.000000	0.281153
723.000000	0.281285
724.000000	0.281430
725.000000	0.281544
726.000000	0.281674
727.000000	0.281748
728.000000	0.281813
729.000000	0.281904
730.000000	0.281996
731.000000	0.282134
732.000000	0.282286
733.000000	0.282467
734.000000	0.282643
735.000000	0.282760
736.000000	0.282917
737.000000	0.283038
738.000000	0.283130
739.000000	0.283251
740.000000	0.283287
741.000000	0.283310
742.000000	0.283346
743.000000	0.283378
744.000000	0.283427
745.000000	0.283482
746.000000	0.283576
747.000000	0.283661
748.000000	0.283769
749.000000	0.283905
750.000000	0.284031
751.000000	0.284125
752.000000	0.284245
753.000000	0.284397
754.000000	0.284509
755.000000	0.284574
756.000000	0.284629
757.000000	0.284670
758.000000	0.284687
759.000000	0.284752
760.000000	0.284838
761.000000	0.284974
762.000000	0.285093
763.000000	0.285174
764.000000	0.285301
765.000000	0.285423
766.000000	0.285533
767.000000	0.285630
768.000000	0.285721
769.000000	0.285803
770.000000	0.285886
771.000000	0.285997
772.000000	0.286082
773.000000	0.286117
774.000000	0.286215
775.000000	0.286306
776.000000	0.286395
777.000000	0.286469
778.000000	0.286497
779.000000	0.286519
780.000000	0.286560
781.000000	0.286612
782.000000	0.286657
783.000000	0.286757
784.000000	0.286814
785.000000	0.286852
786.000000	0.286861
787.000000	0.286841
788.000000	0.286823
789.000000	0.286804
790.000000	0.286783
791.000000	0.286801
792.000000	0.286879
793.000000	0.286972
794.000000	0.287048
795.000000	0.287132
796.000000	0.287182
797.000000	0.287196
798.000000	0.287223
799.000000	0.287275
800.000000	0.287321
801.000000	0.287332
802.000000	0.287359
803.000000	0.287347
804.000000	0.287321
805.000000	0.287361
806.000000	0.287367
807.000000	0.287405
808.000000	0.287465
809.000000	0.287505
810.000000	0.287496
811.000000	0.287437
812.000000	0.287470
813.000000	0.287453
814.000000	0.287373
815.000000	0.287350
816.000000	0.287314
817.000000	0.287317
818.000000	0.287340
819.000000	0.287388
820.000000	0.287463
821.000000	0.287502
822.000000	0.287484
823.000000	0.287458
824.000000	0.287421
825.000000	0.287454
826.000000	0.287426
827.000000	0.287397
828.000000	0.287430
829.000000	0.287404
830.000000	0.287365
831.000000	0.287355
832.000000	0.287269
833.000000	0.287234
834.000000	0.287240
835.000000	0.287293
836.000000	0.287390
837.000000	0.287446
838.000000	0.287456
839.000000	0.287431
840.000000	0.287341
841.000000	0.287215
842.000000	0.287074
843.000000	0.287023
844.000000	0.287084
845.000000	0.287176
846.000000	0.287179
847.000000	0.287149
848.000000	0.287126
849.000000	0.287158
850.000000	0.287133
851.000000	0.287061
852.000000	0.286995
853.000000	0.286928
854.000000	0.286841
855.000000	0.286784
856.000000	0.286648
857.000000	0.286431
858.000000	0.286313
859.000000	0.286266
860.000000	0.286145
861.000000	0.285993
862.000000	0.285920
863.000000	0.285963
864.000000	0.285995
865.000000	0.285975
866.000000	0.285919
867.000000	0.285845
868.000000	0.285760
869.000000	0.285620
870.000000	0.285481
871.000000	0.285343
872.000000	0.285248
873.000000	0.285157
874.000000	0.285077
875.000000	0.284937
876.000000	0.284759
877.000000	0.284546
878.000000	0.284338
879.000000	0.284186
880.000000	0.283968
881.000000	0.283711
882.000000	0.283470
883.000000	0.283278
884.000000	0.283097
885.000000	0.283045
886.000000	0.282969
887.000000	0.282824
888.000000	0.282729
889.000000	0.282697
890.000000	0.282604
891.000000	0.282491
892.000000	0.282321
893.000000	0.282059
894.000000	0.281819
895.000000	0.281564
896.000000	0.281316
897.000000	0.281107
898.000000	0.280954
899.000000	0.280770
900.000000	0.280617
901.000000	0.280480
902.000000	0.280346
903.000000	0.280219
904.000000	0.280129
905.000000	0.280009
906.000000	0.279922
907.000000	0.279794
908.000000	0.279617
909.000000	0.279293
910.000000	0.278994
911.000000	0.278732
912.000000	0.278509
913.000000	0.278376
914.000000	0.278239
915.000000	0.278099
916.000000	0.277883
917.000000	0.277683
918.000000	0.277505
919.000000	0.277321
920.000000	0.277168
921.000000	0.276961
922.000000	0.276700
923.000000	0.276395
924.000000	0.275993
925.000000	0.275654
926.000000	0.275466
927.000000	0.275248
928.000000	0.275066
929.000000	0.274891
930.000000	0.274685
931.000000	0.274493
932.000000	0.274260
933.000000	0.273998
934.000000	0.273702
935.000000	0.273488
936.000000	0.273346
937.000000	0.273144
938.000000	0.272926
939.000000	0.272690
940.000000	0.272380
941.000000	0.272074
942.000000	0.271895
943.000000	0.271757
944.000000	0.271527
945.000000	0.271451
946.000000	0.271213
947.000000	0.270950
948.000000	0.270803
949.000000	0.270548
950.000000	0.270341
951.000000	0.270163
952.000000	0.269938
953.000000	0.269788
954.000000	0.269589
955.000000	0.269226
956.000000	0.268991
957.000000	0.268808
958.000000	0.268589
959.000000	0.268358
960.000000	0.268078
961.000000	0.267810
962.000000	0.267574
963.000000	0.267386
964.000000	0.267153
965.000000	0.266851
966.000000	0.266440
967.000000	0.266259
968.000000	0.266049
969.000000	0.265781
970.000000	0.265649
971.000000	0.265584
972.000000	0.265419
973.000000	0.265122
974.000000	0.265002
975.000000	0.264788
976.000000	0.264558
977.000000	0.264381
978.000000	0.264124
979.000000	0.263886
980.000000	0.263592
981.000000	0.263503
982.000000	0.263362
983.000000	0.263141
984.000000	0.262926
985.000000	0.262758
986.000000	0.262558
987.000000	0.262441
988.000000	0.262330
989.000000	0.262015
990.000000	0.261802
991.000000	0.261706
992.000000	0.261660
993.000000	0.261516
994.000000	0.261329
995.000000	0.261212
996.000000	0.260982
997.000000	0.261013
998.000000	0.260941
999.000000	0.260682
1000.000000	0.260462
1001.000000	0.260837
1002.000000	0.260719
1003.000000	0.260529
1004.000000	0.260232
1005.000000	0.259693
1006.000000	0.259440
1007.000000	0.259314
1008.000000	0.259156
1009.000000	0.259166
1010.000000	0.259035
1011.000000	0.258809
1012.000000	0.258562
1013.000000	0.258033
1014.000000	0.257869
1015.000000	0.257920
1016.000000	0.257845
1017.000000	0.257917
1018.000000	0.258321
1019.000000	0.258545
1020.000000	0.258988
1021.000000	0.258764
1022.000000	0.258170
1023.000000	0.258099
1024.000000	0.257764
1025.000000	0.257858
1026.000000	0.258107
1027.000000	0.258217
1028.000000	0.258165
1029.000000	0.258060
1030.000000	0.258069
1031.000000	0.258138
1032.000000	0.258074
1033.000000	0.257934
1034.000000	0.257980
1035.000000	0.258136
1036.000000	0.258230
1037.000000	0.258563
1038.000000	0.258575
1039.000000	0.258445
1040.000000	0.258417
1041.000000	0.258301
1042.000000	0.258092
1043.000000	0.258204
1044.000000	0.258438
1045.000000	0.258560
1046.000000	0.258731
1047.000000	0.258941
1048.000000	0.259099
1049.000000	0.259165
1050.000000	0.259306
1051.000000	0.259387
1052.000000	0.259206
1053.000000	0.259199
1054.000000	0.259471
1055.000000	0.259654
1056.000000	0.259821
1057.000000	0.260146
1058.000000	0.260310
1059.000000	0.260279
1060.000000	0.260411
1061.000000	0.260665
1062.000000	0.260926
1063.000000	0.261277
1064.000000	0.261501
1065.000000	0.261587
1066.000000	0.261766
1067.000000	0.261882
1068.000000	0.262016
1069.000000	0.262200
1070.000000	0.262312
1071.000000	0.262389
1072.000000	0.262522
1073.000000	0.262684
1074.000000	0.262881
1075.000000	0.263201
1076.000000	0.263547
1077.000000	0.263649
1078.000000	0.263704
1079.000000	0.263865
1080.000000	0.263936
1081.000000	0.264122
1082.000000	0.264606
1083.000000	0.264889
1084.000000	0.265080
1085.000000	0.265338
1086.000000	0.265576
1087.000000	0.265841
1088.000000	0.266067
1089.000000	0.266288
1090.000000	0.266517
1091.000000	0.266677
1092.000000	0.266812
1093.000000	0.267038
1094.000000	0.267200
1095.000000	0.267214
1096.000000	0.267460
1097.000000	0.267814
1098.000000	0.268140
1099.000000	0.268569
1100.000000	0.268900
1101.000000	0.269127
1102.000000	0.269352
1103.000000	0.269530
1104.000000	0.269738
1105.000000	0.269987
1106.000000	0.270132
1107.000000	0.270057
1108.000000	0.270168
1109.000000	0.270391
1110.000000	0.270563
1111.000000	0.270808
1112.000000	0.271238
1113.000000	0.271515
1114.000000	0.271716
1115.000000	0.271946
1116.000000	0.272214
1117.000000	0.272404
1118.000000	0.272545
1119.000000	0.272622
1120.000000	0.272636
1121.000000	0.272657
1122.000000	0.272638
1123.000000	0.272873
1124.000000	0.273019
1125.000000	0.273221
1126.000000	0.273551
1127.000000	0.273740
1128.000000	0.273868
1129.000000	0.273961
1130.000000	0.274078
1131.000000	0.274113
1132.000000	0.274231
1133.000000	0.274465
1134.000000	0.274639
1135.000000	0.274785
1136.000000	0.274896
1137.000000	0.274979
1138.000000	0.275017
1139.000000	0.275084
1140.000000	0.275203
1141.000000	0.275261
1142.000000	0.275345
1143.000000	0.275367
1144.000000	0.275540
1145.000000	0.275651
1146.000000	0.275717
1147.000000	0.275791
1148.000000	0.275807
1149.000000	0.275875
1150.000000	0.275945
1151.000000	0.276041
1152.000000	0.276113
1153.000000	0.276250
1154.000000	0.276402
1155.000000	0.276494
1156.000000	0.276622
1157.000000	0.276720
1158.000000	0.276723
1159.000000	0.276733
1160.000000	0.276703
1161.000000	0.276714
1162.000000	0.276749
1163.000000	0.276934
1164.000000	0.276980
1165.000000	0.277088
1166.000000	0.277206
1167.000000	0.277267
1168.000000	0.277296
1169.000000	0.277392
1170.000000	0.277449
1171.000000	0.277469
1172.000000	0.277528
1173.000000	0.277584
1174.000000	0.277631
1175.000000	0.277631
1176.000000	0.277627
1177.000000	0.277723
1178.000000	0.277754
1179.000000	0.277741
1180.000000	0.277683
1181.000000	0.277633
1182.000000	0.277585
1183.000000	0.277632
1184.000000	0.277707
1185.000000	0.277747
1186.000000	0.277830
1187.000000	0.277846
1188.000000	0.277804
1189.000000	0.277779
1190.000000	0.277785
1191.000000	0.277805
1192.000000	0.277905
1193.000000	0.278040
1194.000000	0.278114
1195.000000	0.278188
1196.000000	0.278207
1197.000000	0.278249
1198.000000	0.278324
1199.000000	0.278380
1200.000000	0.278396
1201.000000	0.278487
1202.000000	0.278504
1203.000000	0.278525
1204.000000	0.278598
1205.000000	0.278617
1206.000000	0.278584
1207.000000	0.278612
1208.000000	0.278575
1209.000000	0.278488
1210.000000	0.278490
1211.000000	0.278548
1212.000000	0.278550
1213.000000	0.278602
1214.000000	0.278632
1215.000000	0.278605
1216.000000	0.278600
1217.000000	0.278587
1218.000000	0.278551
1219.000000	0.278514
1220.000000	0.278511
1221.000000	0.278512
1222.000000	0.278542
1223.000000	0.278575
1224.000000	0.278591
1225.000000	0.278585
1226.000000	0.278557
1227.000000	0.278502
1228.000000	0.278555
1229.000000	0.278530
1230.000000	0.278458
1231.000000	0.278373
1232.000000	0.278365
1233.000000	0.278412
1234.000000	0.278479
1235.000000	0.278503
1236.000000	0.278452
1237.000000	0.278470
1238.000000	0.278458
1239.000000	0.278421
1240.000000	0.278417
1241.000000	0.278376
1242.000000	0.278302
1243.000000	0.278226
1244.000000	0.278203
1245.000000	0.278252
1246.000000	0.278227
1247.000000	0.278260
1248.000000	0.278337
1249.000000	0.278404
1250.000000	0.278505
1251.000000	0.278564
1252.000000	0.278585
1253.000000	0.278604
1254.000000	0.278585
1255.000000	0.278492
1256.000000	0.278462
1257.000000	0.278458
1258.000000	0.278464
1259.000000	0.278433
1260.000000	0.278473
1261.000000	0.278503
1262.000000	0.278487
1263.000000	0.278498
1264.000000	0.278477
1265.000000	0.278436
1266.000000	0.278423
1267.000000	0.278426
1268.000000	0.278410
1269.000000	0.278302
1270.000000	0.278248
1271.000000	0.278201
1272.000000	0.278201
1273.000000	0.278290
1274.000000	0.278306
1275.000000	0.278283
1276.000000	0.278270
1277.000000	0.278254
1278.000000	0.278087
1279.000000	0.277997
1280.000000	0.277876
1281.000000	0.277763
1282.000000	0.277703
1283.000000	0.277719
1284.000000	0.277714
1285.000000	0.277702
1286.000000	0.277682
1287.000000	0.277713
1288.000000	0.277743
1289.000000	0.277750
1290.000000	0.277706
1291.000000	0.277635
1292.000000	0.277608
1293.000000	0.277570
1294.000000	0.277555
1295.000000	0.277589
1296.000000	0.277561
1297.000000	0.277539
1298.000000	0.277570
1299.000000	0.277592
1300.000000	0.277630
1301.000000	0.277635
1302.000000	0.277598
1303.000000	0.277614
1304.000000	0.277615
1305.000000	0.277679
1306.000000	0.277710
1307.000000	0.277815
1308.000000	0.277883
1309.000000	0.277893
1310.000000	0.277922
1311.000000	0.277996
1312.000000	0.277972
1313.000000	0.277932
1314.000000	0.277971
1315.000000	0.277933
1316.000000	0.277965
1317.000000	0.278062
1318.000000	0.278082
1319.000000	0.278108
1320.000000	0.278134
1321.000000	0.278024
1322.000000	0.277933
1323.000000	0.277879
1324.000000	0.277799
1325.000000	0.277760
1326.000000	0.277708
1327.000000	0.277654
1328.000000	0.277671
1329.000000	0.277620
1330.000000	0.277562
1331.000000	0.277563
1332.000000	0.277608
1333.000000	0.277628
1334.000000	0.277735
1335.000000	0.277843
1336.000000	0.277925
1337.000000	0.277997
1338.000000	0.278044
1339.000000	0.278088
1340.000000	0.278120
1341.000000	0.278118
1342.000000	0.278070
1343.000000	0.278055
1344.000000	0.278081
1345.000000	0.278082
1346.000000	0.278204
1347.000000	0.278213
1348.000000	0.278148
1349.000000	0.278051
1350.000000	0.277943
1351.000000	0.277842
1352.000000	0.277725
1353.000000	0.277627
1354.000000	0.277565
1355.000000	0.277476
1356.000000	0.277473
1357.000000	0.277399
1358.000000	0.277375
1359.000000	0.277419
1360.000000	0.277422
1361.000000	0.277484
1362.000000	0.277492
1363.000000	0.277403
1364.000000	0.277390
1365.000000	0.277348
1366.000000	0.277340
1367.000000	0.277370
1368.000000	0.277412
1369.000000	0.277500
1370.000000	0.277477
1371.000000	0.277366
1372.000000	0.277279
1373.000000	0.277190
1374.000000	0.277161
1375.000000	0.277158
1376.000000	0.277207
1377.000000	0.277253
1378.000000	0.277253
1379.000000	0.277220
1380.000000	0.277197
1381.000000	0.277153
1382.000000	0.277123
1383.000000	0.277168
1384.000000	0.277170
1385.000000	0.277158
1386.000000	0.277201
1387.000000	0.277263
1388.000000	0.277303
1389.000000	0.277346
1390.000000	0.277408
1391.000000	0.277414
1392.000000	0.277470
1393.000000	0.277495
1394.000000	0.277556
1395.000000	0.277596
1396.000000	0.277610
1397.000000	0.277593
1398.000000	0.277515
1399.000000	0.277482
1400.000000	0.277425
1401.000000	0.277384
1402.000000	0.277399
1403.000000	0.277409
1404.000000	0.277447
1405.000000	0.277469
1406.000000	0.277503
1407.000000	0.277538
1408.000000	0.277496
1409.000000	0.277505
1410.000000	0.277553
1411.000000	0.277566
1412.000000	0.277596
1413.000000	0.277624
1414.000000	0.277623
1415.000000	0.277625
1416.000000	0.277607
1417.000000	0.277624
1418.000000	0.277582
1419.000000	0.277555
1420.000000	0.277490
1421.000000	0.277447
1422.000000	0.277431
1423.000000	0.277465
1424.000000	0.277436
1425.000000	0.277419
1426.000000	0.277394
1427.000000	0.277381
1428.000000	0.277366
1429.000000	0.277336
1430.000000	0.277322
1431.000000	0.277265
1432.000000	0.277202
1433.000000	0.277179
1434.000000	0.277133
1435.000000	0.277112
1436.000000	0.277114
1437.000000	0.277129
1438.000000	0.277103
1439.000000	0.277111
1440.000000	0.277131
1441.000000	0.277147
1442.000000	0.277212
1443.000000	0.277263
1444.000000	0.277319
1445.000000	0.277362
1446.000000	0.277386
1447.000000	0.277416
1448.000000	0.277413
1449.000000	0.277400
1450.000000	0.277375
1451.000000	0.277299
1452.000000	0.277229
1453.000000	0.277205
1454.000000	0.277155
1455.000000	0.277141
1456.000000	0.277225
1457.000000	0.277321
1458.000000	0.277416
1459.000000	0.277544
1460.000000	0.277633
1461.000000	0.277676
1462.000000	0.277745
1463.000000	0.277751
1464.000000	0.277772
1465.000000	0.277853
1466.000000	0.277876
1467.000000	0.277914
1468.000000	0.277947
1469.000000	0.277989
1470.000000	0.277978
1471.000000	0.278002
1472.000000	0.278034
1473.000000	0.278081
1474.000000	0.278074
1475.000000	0.278053
1476.000000	0.278042
1477.000000	0.277988
1478.000000	0.277953
1479.000000	0.277940
1480.000000	0.277905
1481.000000	0.277866
1482.000000	0.277900
1483.000000	0.277900
1484.000000	0.277862
1485.000000	0.277837
1486.000000	0.277785
1487.000000	0.277773
1488.000000	0.277802
1489.000000	0.277847
1490.000000	0.277817
1491.000000	0.277819
1492.000000	0.277812
1493.000000	0.277797
1494.000000	0.277734
1495.000000	0.277675
1496.000000	0.277581
1497.000000	0.277551
1498.000000	0.277577
1499.000000	0.277574
1500.000000	0.277574
1501.000000	0.277529
1502.000000	0.277431
1503.000000	0.277417
1504.000000	0.277454
1505.000000	0.277483
1506.000000	0.277546
1507.000000	0.277576
1508.000000	0.277574
1509.000000	0.277582
1510.000000	0.277593
1511.000000	0.277632
1512.000000	0.277685
1513.000000	0.277747
1514.000000	0.277774
1515.000000	0.277725
1516.000000	0.277739
1517.000000	0.277763
1518.000000	0.277734
1519.000000	0.277671
1520.000000	0.277631
1521.000000	0.277521
1522.000000	0.277503
1523.000000	0.277553
1524.000000	0.277482
1525.000000	0.277478
1526.000000	0.277461
1527.000000	0.277442
1528.000000	0.277550
1529.000000	0.277607
1530.000000	0.277550
1531.000000	0.277571
1532.000000	0.277590
1533.000000	0.277541
1534.000000	0.277574
1535.000000	0.277621
1536.000000	0.277558
1537.000000	0.277594
1538.000000	0.277632
1539.000000	0.277559
1540.000000	0.277510
1541.000000	0.277486
1542.000000	0.277456
1543.000000	0.277449
1544.000000	0.277453
1545.000000	0.277478
1546.000000	0.277492
1547.000000	0.277483
1548.000000	0.277495
1549.000000	0.277491
1550.000000	0.277420
1551.000000	0.277376
1552.000000	0.277360
1553.000000	0.277290
1554.000000	0.277292
1555.000000	0.277341
1556.000000	0.277356
1557.000000	0.277358
1558.000000	0.277377
1559.000000	0.277340
1560.000000	0.277309
1561.000000	0.277331
1562.000000	0.277291
1563.000000	0.277239
1564.000000	0.277208
1565.000000	0.277151
1566.000000	0.277068
1567.000000	0.277084
1568.000000	0.277053
1569.000000	0.277048
1570.000000	0.277043
1571.000000	0.277016
1572.000000	0.276993
1573.000000	0.276989
1574.000000	0.276968
1575.000000	0.276932
1576.000000	0.276959
1577.000000	0.277009
1578.000000	0.277022
1579.000000	0.277113
1580.000000	0.277171
1581.000000	0.277249
1582.000000	0.277295
1583.000000	0.277337
1584.000000	0.277327
1585.000000	0.277334
1586.000000	0.277351
1587.000000	0.277354
1588.000000	0.277352
1589.000000	0.277377
1590.000000	0.277355
1591.000000	0.277318
1592.000000	0.277288
1593.000000	0.277252
1594.000000	0.277202
1595.000000	0.277207
1596.000000	0.277173
1597.000000	0.277115
1598.000000	0.277068
1599.000000	0.277058
1600.000000	0.276984
1601.000000	0.276939
1602.000000	0.276922
1603.000000	0.276896
1604.000000	0.276905
1605.000000	0.276996
1606.000000	0.277043
1607.000000	0.277149
1608.000000	0.277179
1609.000000	0.277227
1610.000000	0.277223
1611.000000	0.277137
1612.000000	0.277119
1613.000000	0.277228
1614.000000	0.277234
1615.000000	0.277282
1616.000000	0.277325
1617.000000	0.277265
1618.000000	0.277227
1619.000000	0.277196
1620.000000	0.277162
1621.000000	0.277132
1622.000000	0.277155
1623.000000	0.277204
1624.000000	0.277183
1625.000000	0.277021
1626.000000	0.276889
1627.000000	0.276705
1628.000000	0.276658
1629.000000	0.276665
1630.000000	0.276704
1631.000000	0.276789
1632.000000	0.276806
1633.000000	0.276823
1634.000000	0.276856
1635.000000	0.276920
1636.000000	0.276928
1637.000000	0.276944
1638.000000	0.276925
1639.000000	0.276873
1640.000000	0.276866
1641.000000	0.276942
1642.000000	0.276979
1643.000000	0.277058
1644.000000	0.277090
1645.000000	0.277096
1646.000000	0.277057
1647.000000	0.277015
1648.000000	0.276957
1649.000000	0.276950
1650.000000	0.276923
1651.000000	0.276900
1652.000000	0.276894
1653.000000	0.276830
1654.000000	0.276825
1655.000000	0.276821
1656.000000	0.276736
1657.000000	0.276699
1658.000000	0.276633
1659.000000	0.276600
1660.000000	0.276593
1661.000000	0.276502
1662.000000	0.276489
1663.000000	0.276489
1664.000000	0.276497
1665.000000	0.276571
1666.000000	0.276638
1667.000000	0.276620
1668.000000	0.276614
1669.000000	0.276569
1670.000000	0.276546
1671.000000	0.276624
1672.000000	0.276708
1673.000000	0.276798
1674.000000	0.276866
1675.000000	0.276935
1676.000000	0.276903
1677.000000	0.276922
1678.000000	0.276941
1679.000000	0.276899
1680.000000	0.276865
1681.000000	0.276845
1682.000000	0.276803
1683.000000	0.276773
1684.000000	0.276760
1685.000000	0.276743
1686.000000	0.276646
1687.000000	0.276597
1688.000000	0.276509
1689.000000	0.276441
1690.000000	0.276439
1691.000000	0.276446
1692.000000	0.276431
1693.000000	0.276392
1694.000000	0.276328
1695.000000	0.276292
1696.000000	0.276196
1697.000000	0.276099
1698.000000	0.276029
1699.000000	0.275992
1700.000000	0.275983
1701.000000	0.276046
1702.000000	0.276011
1703.000000	0.275948
1704.000000	0.275957
1705.000000	0.275970
1706.000000	0.276025
1707.000000	0.276046
1708.000000	0.276037
1709.000000	0.275992
1710.000000	0.275997
1711.000000	0.275985
1712.000000	0.275996
1713.000000	0.275978
1714.000000	0.275952
1715.000000	0.275935
1716.000000	0.275956
1717.000000	0.275909
1718.000000	0.275749
1719.000000	0.275693
1720.000000	0.275712
1721.000000	0.275695
1722.000000	0.275742
1723.000000	0.275756
1724.000000	0.275728
1725.000000	0.275753
1726.000000	0.275747
1727.000000	0.275763
1728.000000	0.275757
1729.000000	0.275678
1730.000000	0.275708
1731.000000	0.275671
1732.000000	0.275553
1733.000000	0.275563
1734.000000	0.275499
1735.000000	0.275476
1736.000000	0.275449
1737.000000	0.275501
1738.000000	0.275639
1739.000000	0.275673
1740.000000	0.275739
1741.000000	0.275692
1742.000000	0.275505
1743.000000	0.275494
1744.000000	0.275515
1745.000000	0.275489
1746.000000	0.275491
1747.000000	0.275426
1748.000000	0.275367
1749.000000	0.275378
1750.000000	0.275325
1751.000000	0.275326
1752.000000	0.275426
1753.000000	0.275417
1754.000000	0.275452
1755.000000	0.275551
1756.000000	0.275586
1757.000000	0.275601
1758.000000	0.275611
1759.000000	0.275542
1760.000000	0.275533
1761.000000	0.275532
1762.000000	0.275499
1763.000000	0.275481
1764.000000	0.275484
1765.000000	0.275418
1766.000000	0.275429
1767.000000	0.275461
1768.000000	0.275436
1769.000000	0.275494
1770.000000	0.275544
1771.000000	0.275532
1772.000000	0.275530
1773.000000	0.275482
1774.000000	0.275465
1775.000000	0.275506
1776.000000	0.275517
1777.000000	0.275518
1778.000000	0.275472
1779.000000	0.275351
1780.000000	0.275335
1781.000000	0.275309
1782.000000	0.275287
1783.000000	0.275359
1784.000000	0.275344
1785.000000	0.275337
1786.000000	0.275409
1787.000000	0.275547
1788.000000	0.275681
1789.000000	0.275671
1790.000000	0.275605
1791.000000	0.275567
1792.000000	0.275640
1793.000000	0.275641
1794.000000	0.275633
1795.000000	0.275651
1796.000000	0.275637
1797.000000	0.275603
1798.000000	0.275586
1799.000000	0.275540
1800.000000	0.275458
1801.000000	0.275542
1802.000000	0.275613
1803.000000	0.275430
1804.000000	0.275632
1805.000000	0.276276
1806.000000	0.276478
1807.000000	0.276672
1808.000000	0.276710
1809.000000	0.276472
1810.000000	0.276095
1811.000000	0.275979
1812.000000	0.275869
1813.000000	0.275990
1814.000000	0.276592
1815.000000	0.276622
1816.000000	0.276481
1817.000000	0.276337
1818.000000	0.275908
1819.000000	0.275651
1820.000000	0.275783
1821.000000	0.275519
1822.000000	0.275450
1823.000000	0.275356
1824.000000	0.275147
1825.000000	0.274809
1826.000000	0.274790
1827.000000	0.274806
1828.000000	0.274670
1829.000000	0.274792
1830.000000	0.274711
1831.000000	0.274523
1832.000000	0.273841
1833.000000	0.273860
1834.000000	0.274201
1835.000000	0.274381
1836.000000	0.274889
1837.000000	0.275138
1838.000000	0.275066
1839.000000	0.275001
1840.000000	0.275031
1841.000000	0.274759
1842.000000	0.274663
1843.000000	0.274487
1844.000000	0.274512
1845.000000	0.274493
1846.000000	0.274729
1847.000000	0.275207
1848.000000	0.275325
1849.000000	0.275635
1850.000000	0.275938
1851.000000	0.275959
1852.000000	0.275687
1853.000000	0.275694
1854.000000	0.275349
1855.000000	0.275205
1856.000000	0.275173
1857.000000	0.275107
1858.000000	0.275156
1859.000000	0.275298
1860.000000	0.275390
1861.000000	0.275276
1862.000000	0.275155
1863.000000	0.274857
1864.000000	0.274844
1865.000000	0.274921
1866.000000	0.275088
1867.000000	0.275549
1868.000000	0.275605
1869.000000	0.275414
1870.000000	0.275300
1871.000000	0.275017
1872.000000	0.274967
1873.000000	0.275120
1874.000000	0.275642
1875.000000	0.276028
1876.000000	0.276337
1877.000000	0.276349
1878.000000	0.276408
1879.000000	0.275969
1880.000000	0.275659
1881.000000	0.275531
1882.000000	0.275154
1883.000000	0.275029
1884.000000	0.274988
1885.000000	0.274818
1886.000000	0.274661
1887.000000	0.274579
1888.000000	0.274437
1889.000000	0.274401
1890.000000	0.274295
1891.000000	0.274307
1892.000000	0.274214
1893.000000	0.274089
1894.000000	0.274196
1895.000000	0.274145
1896.000000	0.274273
1897.000000	0.274437
1898.000000	0.274207
1899.000000	0.273939
1900.000000	0.273729
1901.000000	0.273564
1902.000000	0.273597
1903.000000	0.273805
1904.000000	0.274107
1905.000000	0.274183
1906.000000	0.274118
1907.000000	0.273994
1908.000000	0.273883
1909.000000	0.273695
1910.000000	0.273710
1911.000000	0.273934
1912.000000	0.273942
1913.000000	0.273925
1914.000000	0.273967
1915.000000	0.273864
1916.000000	0.274080
1917.000000	0.274128
1918.000000	0.274363
1919.000000	0.274239
1920.000000	0.274123
1921.000000	0.274061
1922.000000	0.273912
1923.000000	0.274039
1924.000000	0.274109
1925.000000	0.274030
1926.000000	0.273885
1927.000000	0.273695
1928.000000	0.273560
1929.000000	0.273561
1930.000000	0.273434
1931.000000	0.273411
1932.000000	0.273659
1933.000000	0.273706
1934.000000	0.273859
1935.000000	0.274056
1936.000000	0.274082
1937.000000	0.274287
1938.000000	0.274342
1939.000000	0.274269
1940.000000	0.274041
1941.000000	0.273938
1942.000000	0.273865
1943.000000	0.273574
1944.000000	0.273549
1945.000000	0.273712
1946.000000	0.273694
1947.000000	0.273983
1948.000000	0.274361
1949.000000	0.274554
1950.000000	0.274559
1951.000000	0.274447
1952.000000	0.274244
1953.000000	0.274026
1954.000000	0.273895
1955.000000	0.273887
1956.000000	0.273851
1957.000000	0.273806
1958.000000	0.273737
1959.000000	0.273819
1960.000000	0.273835
1961.000000	0.273732
1962.000000	0.273630
1963.000000	0.273528
1964.000000	0.273245
1965.000000	0.273076
1966.000000	0.273119
1967.000000	0.273234
1968.000000	0.273384
1969.000000	0.273470
1970.000000	0.273622
1971.000000	0.273480
1972.000000	0.273242
1973.000000	0.272990
1974.000000	0.272688
1975.000000	0.272530
1976.000000	0.272413
1977.000000	0.272539
1978.000000	0.272628
1979.000000	0.273101
1980.000000	0.273538
1981.000000	0.273733
1982.000000	0.273908
1983.000000	0.273896
1984.000000	0.273887
1985.000000	0.273827
1986.000000	0.273788
1987.000000	0.273798
1988.000000	0.273923
1989.000000	0.273866
1990.000000	0.273701
1991.000000	0.273242
1992.000000	0.272620
1993.000000	0.272302
1994.000000	0.272082
1995.000000	0.272029
1996.000000	0.272386
1997.000000	0.272581
1998.000000	0.272856
1999.000000	0.273042
2000.000000	0.273354
2001.000000	0.273305
2002.000000	0.273119
2003.000000	0.273092
2004.000000	0.272775
2005.000000	0.272449
2006.000000	0.272530
2007.000000	0.272609
2008.000000	0.272692
2009.000000	0.272985
2010.000000	0.273121
2011.000000	0.273051
2012.000000	0.272959
2013.000000	0.272703
2014.000000	0.272577
2015.000000	0.272524
2016.000000	0.272222
2017.000000	0.272130
2018.000000	0.272268
2019.000000	0.272228
2020.000000	0.272198
2021.000000	0.272254
2022.000000	0.272371
2023.000000	0.272312
2024.000000	0.272260
2025.000000	0.272280
2026.000000	0.272105
2027.000000	0.271926
2028.000000	0.271980
2029.000000	0.271952
2030.000000	0.271785
2031.000000	0.271415
2032.000000	0.271120
2033.000000	0.271157
2034.000000	0.271056
2035.000000	0.271244
2036.000000	0.271078
2037.000000	0.270745
2038.000000	0.270595
2039.000000	0.270491
2040.000000	0.270451
2041.000000	0.270372
2042.000000	0.270435
2043.000000	0.270217
2044.000000	0.269871
2045.000000	0.269843
2046.000000	0.269621
2047.000000	0.269673
2048.000000	0.270027
2049.000000	0.270276
2050.000000	0.270323
2051.000000	0.270295
2052.000000	0.269831
2053.000000	0.269650
2054.000000	0.269758
2055.000000	0.270016
2056.000000	0.270375
2057.000000	0.270847
2058.000000	0.271099
2059.000000	0.271047
2060.000000	0.271001
2061.000000	0.270807
2062.000000	0.270654
2063.000000	0.270523
2064.000000	0.270295
2065.000000	0.270147
2066.000000	0.270018
2067.000000	0.270114
2068.000000	0.270225
2069.000000	0.270320
2070.000000	0.270468
2071.000000	0.270370
2072.000000	0.270125
2073.000000	0.270134
2074.000000	0.270013
2075.000000	0.269867
2076.000000	0.269774
2077.000000	0.269591
2078.000000	0.269127
2079.000000	0.268974
2080.000000	0.269029
2081.000000	0.269037
2082.000000	0.269214
2083.000000	0.269346
2084.000000	0.269278
2085.000000	0.269249
2086.000000	0.269220
2087.000000	0.269242
2088.000000	0.269371
2089.000000	0.269481
2090.000000	0.269533
2091.000000	0.269633
2092.000000	0.269692
2093.000000	0.269758
2094.000000	0.269683
2095.000000	0.269465
2096.000000	0.269447
2097.000000	0.269411
2098.000000	0.269205
2099.000000	0.269332
2100.000000	0.269528
2101.000000	0.269487
2102.000000	0.269678
2103.000000	0.269632
2104.000000	0.269442
2105.000000	0.269348
2106.000000	0.269140
2107.000000	0.269046
2108.000000	0.269030
2109.000000	0.269066
2110.000000	0.268872
2111.000000	0.268964
2112.000000	0.269278
2113.000000	0.269322
2114.000000	0.269421
2115.000000	0.269441
2116.000000	0.269246
2117.000000	0.268695
2118.000000	0.268399
2119.000000	0.268477
2120.000000	0.268508
2121.000000	0.268810
2122.000000	0.268905
2123.000000	0.268902
2124.000000	0.268878
2125.000000	0.268752
2126.000000	0.268642
2127.000000	0.268528
2128.000000	0.268657
2129.000000	0.268856
2130.000000	0.268997
2131.000000	0.269106
2132.000000	0.268884
2133.000000	0.268812
2134.000000	0.268804
2135.000000	0.268814
2136.000000	0.268958
2137.000000	0.268852
2138.000000	0.268414
2139.000000	0.268287
2140.000000	0.268256
2141.000000	0.268160
2142.000000	0.268062
2143.000000	0.267892
2144.000000	0.267866
2145.000000	0.267845
2146.000000	0.267901
2147.000000	0.268277
2148.000000	0.268348
2149.000000	0.268390
2150.000000	0.268433
2151.000000	0.268336
2152.000000	0.268269
2153.000000	0.268125
2154.000000	0.268106
2155.000000	0.268171
2156.000000	0.268285
2157.000000	0.268640
2158.000000	0.268740
2159.000000	0.268854
2160.000000	0.268850
2161.000000	0.268495
2162.000000	0.268488
2163.000000	0.268490
2164.000000	0.268490
2165.000000	0.268721
2166.000000	0.268728
2167.000000	0.268863
2168.000000	0.268962
2169.000000	0.269028
2170.000000	0.269425
2171.000000	0.269460
2172.000000	0.269240
2173.000000	0.269278
2174.000000	0.269210
2175.000000	0.269298
2176.000000	0.269783
2177.000000	0.269947
2178.000000	0.270101
2179.000000	0.270178
2180.000000	0.269871
2181.000000	0.270015
2182.000000	0.269817
2183.000000	0.269623
2184.000000	0.269950
2185.000000	0.269983
2186.000000	0.269836
2187.000000	0.269896
2188.000000	0.269542
2189.000000	0.269043
2190.000000	0.269118
2191.000000	0.269562
2192.000000	0.269386
2193.000000	0.269300
2194.000000	0.268823
2195.000000	0.267289
2196.000000	0.266737
2197.000000	0.266331
2198.000000	0.266207
2199.000000	0.267258
2200.000000	0.267492
2201.000000	0.267518
2202.000000	0.267615
2203.000000	0.267075
2204.000000	0.266504
2205.000000	0.266537
2206.000000	0.267135
2207.000000	0.268063
2208.000000	0.268978
2209.000000	0.269650
2210.000000	0.269488
2211.000000	0.268154
2212.000000	0.267764
2213.000000	0.267277
2214.000000	0.266242
2215.000000	0.266147
2216.000000	0.267029
2217.000000	0.267203
2218.000000	0.267441
2219.000000	0.267926
2220.000000	0.268443
2221.000000	0.268556
2222.000000	0.268829
2223.000000	0.268693
2224.000000	0.267743
2225.000000	0.267644
2226.000000	0.266715
2227.000000	0.266182
2228.000000	0.266299
2229.000000	0.265258
2230.000000	0.265556
2231.000000	0.266135
2232.000000	0.266775
2233.000000	0.268361
2234.000000	0.269019
2235.000000	0.269711
2236.000000	0.269657
2237.000000	0.268104
2238.000000	0.267980
2239.000000	0.268151
2240.000000	0.268342
2241.000000	0.269581
2242.000000	0.269974
2243.000000	0.269853
2244.000000	0.269666
2245.000000	0.269011
2246.000000	0.268665
2247.000000	0.268200
2248.000000	0.267928
2249.000000	0.268121
2250.000000	0.267738
2251.000000	0.267616
2252.000000	0.267374
2253.000000	0.267116
2254.000000	0.267158
2255.000000	0.267440
2256.000000	0.267959
2257.000000	0.268714
2258.000000	0.269810
2259.000000	0.270169
2260.000000	0.270029
2261.000000	0.269446
2262.000000	0.267757
2263.000000	0.267274
2264.000000	0.266909
2265.000000	0.266756
2266.000000	0.267451
2267.000000	0.267401
2268.000000	0.266835
2269.000000	0.266946
2270.000000	0.267436
2271.000000	0.267385
2272.000000	0.267354
2273.000000	0.267428
2274.000000	0.267004
2275.000000	0.266871
2276.000000	0.267128
2277.000000	0.266998
2278.000000	0.267225
2279.000000	0.267959
2280.000000	0.269354
2281.000000	0.270340
2282.000000	0.271059
2283.000000	0.271039
2284.000000	0.270084
2285.000000	0.268970
2286.000000	0.268284
2287.000000	0.267972
2288.000000	0.267444
2289.000000	0.267820
2290.000000	0.267649
2291.000000	0.267193
2292.000000	0.267527
2293.000000	0.267023
2294.000000	0.266898
2295.000000	0.266783
2296.000000	0.266871
2297.000000	0.267160
2298.000000	0.267392
2299.000000	0.267833
2300.000000	0.267949
2301.000000	0.267941
2302.000000	0.267905
2303.000000	0.267326
2304.000000	0.267286
2305.000000	0.267155
2306.000000	0.267497
2307.000000	0.268271
2308.000000	0.269783
2309.000000	0.270347
2310.000000	0.270777
2311.000000	0.270702
2312.000000	0.269689
2313.000000	0.268953
2314.000000	0.268120
2315.000000	0.267251
2316.000000	0.266921
2317.000000	0.267057
2318.000000	0.267854
2319.000000	0.268516
2320.000000	0.268523
2321.000000	0.267911
2322.000000	0.267003
2323.000000	0.266685
2324.000000	0.266533
2325.000000	0.266479
2326.000000	0.266988
2327.000000	0.267522
2328.000000	0.268208
2329.000000	0.269096
2330.000000	0.269421
2331.000000	0.268674
2332.000000	0.267661
2333.000000	0.266543
2334.000000	0.265000
2335.000000	0.264800
2336.000000	0.265037
2337.000000	0.265269
2338.000000	0.266709
2339.000000	0.267215
2340.000000	0.267274
2341.000000	0.267507
2342.000000	0.267424
2343.000000	0.267797
2344.000000	0.268323
2345.000000	0.268484
2346.000000	0.268725
2347.000000	0.268755
2348.000000	0.268165
2349.000000	0.268934
2350.000000	0.268791
2351.000000	0.269054
2352.000000	0.269676
2353.000000	0.268451
2354.000000	0.268006
2355.000000	0.268249
2356.000000	0.267567
2357.000000	0.267532
2358.000000	0.266809
2359.000000	0.265931
2360.000000	0.265940
2361.000000	0.266141
2362.000000	0.267053
2363.000000	0.268177
2364.000000	0.267943
2365.000000	0.268122
2366.000000	0.268612
2367.000000	0.268610
2368.000000	0.268512
2369.000000	0.268140
2370.000000	0.267590
2371.000000	0.266956
2372.000000	0.268421
2373.000000	0.270330
2374.000000	0.271326
2375.000000	0.272711
2376.000000	0.271980
2377.000000	0.270305
2378.000000	0.268816
2379.000000	0.267506
2380.000000	0.266794
2381.000000	0.265703
2382.000000	0.265569
2383.000000	0.264713
2384.000000	0.264431
2385.000000	0.266504
2386.000000	0.267646
2387.000000	0.268103
2388.000000	0.268825
2389.000000	0.267419
2390.000000	0.265089
2391.000000	0.264062
2392.000000	0.263528
2393.000000	0.263449
2394.000000	0.264827
2395.000000	0.267796
2396.000000	0.266944
2397.000000	0.267111
2398.000000	0.270170
2399.000000	0.268125
2400.000000	0.268728
2401.000000	0.269699
2402.000000	0.265603
2403.000000	0.265026
2404.000000	0.264624
2405.000000	0.263297
2406.000000	0.264500
2407.000000	0.264484
2408.000000	0.264780
2409.000000	0.263291
2410.000000	0.261485
2411.000000	0.260874
2412.000000	0.258868
2413.000000	0.259723
2414.000000	0.259898
2415.000000	0.258306
2416.000000	0.259843
2417.000000	0.261178
2418.000000	0.262080
2419.000000	0.266006
2420.000000	0.268973
2421.000000	0.268960
2422.000000	0.268449
2423.000000	0.267791
2424.000000	0.267724
2425.000000	0.266225
2426.000000	0.267414
2427.000000	0.271082
2428.000000	0.269699
2429.000000	0.270860
2430.000000	0.271692
2431.000000	0.269400
2432.000000	0.270492
2433.000000	0.271813
2434.000000	0.273368
2435.000000	0.269195
2436.000000	0.264025
2437.000000	0.265225
2438.000000	0.265025
2439.000000	0.269380
2440.000000	0.277182
2441.000000	0.273706
2442.000000	0.269053
2443.000000	0.267049
2444.000000	0.258041
2445.000000	0.259695
2446.000000	0.264000
2447.000000	0.264448
2448.000000	0.272898
2449.000000	0.271029
2450.000000	0.269700
2451.000000	0.274658
2452.000000	0.274943
2453.000000	0.278897
2454.000000	0.283196
2455.000000	0.279156
2456.000000	0.272434
2457.000000	0.268839
2458.000000	0.264022
2459.000000	0.269214
2460.000000	0.278681
2461.000000	0.278685
2462.000000	0.275701
2463.000000	0.267430
2464.000000	0.254128
2465.000000	0.246330
2466.000000	0.240758
2467.000000	0.236068
2468.000000	0.236841
2469.000000	0.236489
2470.000000	0.241543
2471.000000	0.248364
2472.000000	0.250721
2473.000000	0.252900
2474.000000	0.249144
2475.000000	0.252892
2476.000000	0.253299
2477.000000	0.251359
2478.000000	0.264670
2479.000000	0.253148
2480.000000	0.240454
2481.000000	0.245099
2482.000000	0.243072
2483.000000	0.256988
2484.000000	0.274597
2485.000000	0.294801
2486.000000	0.313392
2487.000000	0.319056
2488.000000	0.329162
2489.000000	0.305937
2490.000000	0.273791
2491.000000	0.255917
2492.000000	0.239154
2493.000000	0.235557
2494.000000	0.242766
2495.000000	0.265362
2496.000000	0.270184
2497.000000	0.275878
2498.000000	0.270951
2499.000000	0.243660
2500.000000	0.235503
