# Wavelength	hexa30_00002.asd.rts.txt
350.000000	0.207662
351.000000	0.206843
352.000000	0.207283
353.000000	0.202462
354.000000	0.195143
355.000000	0.201134
356.000000	0.201601
357.000000	0.197998
358.000000	0.201774
359.000000	0.202725
360.000000	0.203209
361.000000	0.206780
362.000000	0.206816
363.000000	0.207079
364.000000	0.209099
365.000000	0.209452
366.000000	0.207226
367.000000	0.204487
368.000000	0.206777
369.000000	0.208271
370.000000	0.208689
371.000000	0.209214
372.000000	0.208862
373.000000	0.209065
374.000000	0.210702
375.000000	0.211001
376.000000	0.210895
377.000000	0.210951
378.000000	0.211738
379.000000	0.212531
380.000000	0.213252
381.000000	0.214652
382.000000	0.215636
383.000000	0.215243
384.000000	0.213787
385.000000	0.213759
386.000000	0.215308
387.000000	0.217336
388.000000	0.216810
389.000000	0.217364
390.000000	0.218506
391.000000	0.218324
392.000000	0.219289
393.000000	0.219943
394.000000	0.219348
395.000000	0.219940
396.000000	0.220540
397.000000	0.220806
398.000000	0.221736
399.000000	0.222025
400.000000	0.221997
401.000000	0.222477
402.000000	0.222732
403.000000	0.222981
404.000000	0.223542
405.000000	0.223728
406.000000	0.223988
407.000000	0.224565
408.000000	0.225231
409.000000	0.225800
410.000000	0.226192
411.000000	0.226353
412.000000	0.226319
413.000000	0.226502
414.000000	0.227227
415.000000	0.227781
416.000000	0.228062
417.000000	0.228201
418.000000	0.228757
419.000000	0.229065
420.000000	0.229189
421.000000	0.229818
422.000000	0.230124
423.000000	0.230173
424.000000	0.230378
425.000000	0.230802
426.000000	0.231219
427.000000	0.231476
428.000000	0.231833
429.000000	0.232193
430.000000	0.232513
431.000000	0.232813
432.000000	0.232897
433.000000	0.232888
434.000000	0.233155
435.000000	0.233492
436.000000	0.233779
437.000000	0.233934
438.000000	0.234079
439.000000	0.234218
440.000000	0.234418
441.000000	0.234545
442.000000	0.234787
443.000000	0.235064
444.000000	0.235266
445.000000	0.235388
446.000000	0.235591
447.000000	0.235872
448.000000	0.236133
449.000000	0.236441
450.000000	0.236808
451.000000	0.236976
452.000000	0.237218
453.000000	0.237516
454.000000	0.237733
455.000000	0.237930
456.000000	0.238238
457.000000	0.238621
458.000000	0.238777
459.000000	0.238924
460.000000	0.239293
461.000000	0.239491
462.000000	0.239760
463.000000	0.240064
464.000000	0.240365
465.000000	0.240604
466.000000	0.240785
467.000000	0.241088
468.000000	0.241275
469.000000	0.241322
470.000000	0.241439
471.000000	0.241700
472.000000	0.241939
473.000000	0.242090
474.000000	0.242294
475.000000	0.242544
476.000000	0.242885
477.000000	0.243074
478.000000	0.243053
479.000000	0.243187
480.000000	0.243628
481.000000	0.243750
482.000000	0.243899
483.000000	0.244227
484.000000	0.244562
485.000000	0.244813
486.000000	0.245084
487.000000	0.245222
488.000000	0.245412
489.000000	0.245688
490.000000	0.245963
491.000000	0.246202
492.000000	0.246475
493.000000	0.246735
494.000000	0.246986
495.000000	0.247287
496.000000	0.247609
497.000000	0.247850
498.000000	0.248139
499.000000	0.248535
500.000000	0.248817
501.000000	0.249063
502.000000	0.249324
503.000000	0.249563
504.000000	0.249795
505.000000	0.250051
506.000000	0.250346
507.000000	0.250582
508.000000	0.250888
509.000000	0.251249
510.000000	0.251468
511.000000	0.251720
512.000000	0.252052
513.000000	0.252359
514.000000	0.252658
515.000000	0.252998
516.000000	0.253364
517.000000	0.253637
518.000000	0.253948
519.000000	0.254300
520.000000	0.254586
521.000000	0.254861
522.000000	0.255151
523.000000	0.255419
524.000000	0.255709
525.000000	0.256003
526.000000	0.256294
527.000000	0.256608
528.000000	0.256917
529.000000	0.257224
530.000000	0.257425
531.000000	0.257679
532.000000	0.257981
533.000000	0.258210
534.000000	0.258489
535.000000	0.258810
536.000000	0.259078
537.000000	0.259337
538.000000	0.259610
539.000000	0.259901
540.000000	0.260222
541.000000	0.260505
542.000000	0.260744
543.000000	0.261057
544.000000	0.261416
545.000000	0.261729
546.000000	0.262023
547.000000	0.262329
548.000000	0.262649
549.000000	0.262874
550.000000	0.263176
551.000000	0.263554
552.000000	0.263903
553.000000	0.264200
554.000000	0.264495
555.000000	0.264833
556.000000	0.265206
557.000000	0.265527
558.000000	0.265882
559.000000	0.266222
560.000000	0.266504
561.000000	0.266817
562.000000	0.267170
563.000000	0.267457
564.000000	0.267748
565.000000	0.268035
566.000000	0.268398
567.000000	0.268776
568.000000	0.269107
569.000000	0.269420
570.000000	0.269702
571.000000	0.269983
572.000000	0.270363
573.000000	0.270721
574.000000	0.271023
575.000000	0.271332
576.000000	0.271718
577.000000	0.272063
578.000000	0.272347
579.000000	0.272707
580.000000	0.273040
581.000000	0.273322
582.000000	0.273656
583.000000	0.273965
584.000000	0.274248
585.000000	0.274540
586.000000	0.274836
587.000000	0.275126
588.000000	0.275415
589.000000	0.275785
590.000000	0.276147
591.000000	0.276448
592.000000	0.276750
593.000000	0.277051
594.000000	0.277340
595.000000	0.277597
596.000000	0.277805
597.000000	0.277997
598.000000	0.278136
599.000000	0.278286
600.000000	0.278498
601.000000	0.278717
602.000000	0.278915
603.000000	0.279107
604.000000	0.279318
605.000000	0.279558
606.000000	0.279759
607.000000	0.279927
608.000000	0.280117
609.000000	0.280322
610.000000	0.280526
611.000000	0.280715
612.000000	0.280893
613.000000	0.281053
614.000000	0.281223
615.000000	0.281372
616.000000	0.281466
617.000000	0.281520
618.000000	0.281698
619.000000	0.281873
620.000000	0.281991
621.000000	0.282090
622.000000	0.282228
623.000000	0.282410
624.000000	0.282618
625.000000	0.282796
626.000000	0.283003
627.000000	0.283255
628.000000	0.283506
629.000000	0.283782
630.000000	0.283992
631.000000	0.284261
632.000000	0.284508
633.000000	0.284756
634.000000	0.285015
635.000000	0.285226
636.000000	0.285381
637.000000	0.285485
638.000000	0.285617
639.000000	0.285741
640.000000	0.285890
641.000000	0.286001
642.000000	0.286098
643.000000	0.286211
644.000000	0.286369
645.000000	0.286511
646.000000	0.286675
647.000000	0.286859
648.000000	0.287012
649.000000	0.287191
650.000000	0.287390
651.000000	0.287592
652.000000	0.287727
653.000000	0.287858
654.000000	0.288017
655.000000	0.288182
656.000000	0.288374
657.000000	0.288554
658.000000	0.288707
659.000000	0.288891
660.000000	0.289096
661.000000	0.289244
662.000000	0.289381
663.000000	0.289559
664.000000	0.289740
665.000000	0.289908
666.000000	0.290092
667.000000	0.290286
668.000000	0.290441
669.000000	0.290581
670.000000	0.290733
671.000000	0.290893
672.000000	0.291072
673.000000	0.291256
674.000000	0.291428
675.000000	0.291603
676.000000	0.291799
677.000000	0.292037
678.000000	0.292216
679.000000	0.292387
680.000000	0.292583
681.000000	0.292708
682.000000	0.292882
683.000000	0.293065
684.000000	0.293289
685.000000	0.293469
686.000000	0.293644
687.000000	0.293832
688.000000	0.293988
689.000000	0.294126
690.000000	0.294299
691.000000	0.294493
692.000000	0.294676
693.000000	0.294888
694.000000	0.295083
695.000000	0.295282
696.000000	0.295465
697.000000	0.295603
698.000000	0.295777
699.000000	0.295974
700.000000	0.296168
701.000000	0.296308
702.000000	0.296492
703.000000	0.296710
704.000000	0.296853
705.000000	0.297002
706.000000	0.297151
707.000000	0.297345
708.000000	0.297508
709.000000	0.297638
710.000000	0.297771
711.000000	0.297929
712.000000	0.298074
713.000000	0.298221
714.000000	0.298410
715.000000	0.298536
716.000000	0.298646
717.000000	0.298820
718.000000	0.298981
719.000000	0.299112
720.000000	0.299231
721.000000	0.299376
722.000000	0.299522
723.000000	0.299700
724.000000	0.299834
725.000000	0.299912
726.000000	0.300021
727.000000	0.300127
728.000000	0.300253
729.000000	0.300412
730.000000	0.300559
731.000000	0.300734
732.000000	0.300903
733.000000	0.301074
734.000000	0.301192
735.000000	0.301254
736.000000	0.301372
737.000000	0.301448
738.000000	0.301458
739.000000	0.301517
740.000000	0.301540
741.000000	0.301599
742.000000	0.301690
743.000000	0.301788
744.000000	0.301928
745.000000	0.302065
746.000000	0.302250
747.000000	0.302446
748.000000	0.302606
749.000000	0.302742
750.000000	0.302839
751.000000	0.302912
752.000000	0.302965
753.000000	0.302998
754.000000	0.302985
755.000000	0.303031
756.000000	0.303114
757.000000	0.303147
758.000000	0.303249
759.000000	0.303395
760.000000	0.303498
761.000000	0.303642
762.000000	0.303765
763.000000	0.303842
764.000000	0.303947
765.000000	0.303981
766.000000	0.304009
767.000000	0.304083
768.000000	0.304099
769.000000	0.304127
770.000000	0.304201
771.000000	0.304285
772.000000	0.304409
773.000000	0.304501
774.000000	0.304579
775.000000	0.304628
776.000000	0.304665
777.000000	0.304707
778.000000	0.304843
779.000000	0.304888
780.000000	0.304850
781.000000	0.304886
782.000000	0.304944
783.000000	0.305055
784.000000	0.305083
785.000000	0.305093
786.000000	0.305134
787.000000	0.305206
788.000000	0.305230
789.000000	0.305249
790.000000	0.305284
791.000000	0.305384
792.000000	0.305435
793.000000	0.305451
794.000000	0.305482
795.000000	0.305580
796.000000	0.305657
797.000000	0.305691
798.000000	0.305740
799.000000	0.305746
800.000000	0.305706
801.000000	0.305647
802.000000	0.305629
803.000000	0.305651
804.000000	0.305719
805.000000	0.305724
806.000000	0.305722
807.000000	0.305742
808.000000	0.305669
809.000000	0.305728
810.000000	0.305801
811.000000	0.305781
812.000000	0.305816
813.000000	0.305853
814.000000	0.305872
815.000000	0.305904
816.000000	0.305925
817.000000	0.305944
818.000000	0.305905
819.000000	0.305935
820.000000	0.305957
821.000000	0.305899
822.000000	0.305866
823.000000	0.305875
824.000000	0.305871
825.000000	0.305894
826.000000	0.305905
827.000000	0.305887
828.000000	0.305880
829.000000	0.305883
830.000000	0.305825
831.000000	0.305761
832.000000	0.305650
833.000000	0.305602
834.000000	0.305596
835.000000	0.305623
836.000000	0.305603
837.000000	0.305596
838.000000	0.305627
839.000000	0.305648
840.000000	0.305561
841.000000	0.305449
842.000000	0.305366
843.000000	0.305295
844.000000	0.305304
845.000000	0.305350
846.000000	0.305358
847.000000	0.305299
848.000000	0.305173
849.000000	0.305030
850.000000	0.304889
851.000000	0.304807
852.000000	0.304834
853.000000	0.304896
854.000000	0.304798
855.000000	0.304671
856.000000	0.304550
857.000000	0.304417
858.000000	0.304366
859.000000	0.304339
860.000000	0.304268
861.000000	0.304192
862.000000	0.304156
863.000000	0.304113
864.000000	0.304003
865.000000	0.303887
866.000000	0.303820
867.000000	0.303731
868.000000	0.303680
869.000000	0.303611
870.000000	0.303534
871.000000	0.303397
872.000000	0.303227
873.000000	0.303013
874.000000	0.302873
875.000000	0.302705
876.000000	0.302555
877.000000	0.302436
878.000000	0.302256
879.000000	0.302151
880.000000	0.302044
881.000000	0.301903
882.000000	0.301752
883.000000	0.301609
884.000000	0.301431
885.000000	0.301334
886.000000	0.301178
887.000000	0.300946
888.000000	0.300792
889.000000	0.300708
890.000000	0.300499
891.000000	0.300171
892.000000	0.299929
893.000000	0.299735
894.000000	0.299649
895.000000	0.299528
896.000000	0.299354
897.000000	0.299167
898.000000	0.299012
899.000000	0.298797
900.000000	0.298644
901.000000	0.298529
902.000000	0.298341
903.000000	0.298149
904.000000	0.298012
905.000000	0.297867
906.000000	0.297775
907.000000	0.297648
908.000000	0.297495
909.000000	0.297257
910.000000	0.296997
911.000000	0.296705
912.000000	0.296407
913.000000	0.296223
914.000000	0.296025
915.000000	0.295826
916.000000	0.295586
917.000000	0.295350
918.000000	0.295129
919.000000	0.294910
920.000000	0.294720
921.000000	0.294547
922.000000	0.294386
923.000000	0.294200
924.000000	0.293959
925.000000	0.293756
926.000000	0.293622
927.000000	0.293342
928.000000	0.293025
929.000000	0.292716
930.000000	0.292437
931.000000	0.292172
932.000000	0.291927
933.000000	0.291705
934.000000	0.291402
935.000000	0.291138
936.000000	0.290965
937.000000	0.290777
938.000000	0.290475
939.000000	0.290264
940.000000	0.290073
941.000000	0.289831
942.000000	0.289560
943.000000	0.289403
944.000000	0.289289
945.000000	0.289166
946.000000	0.288918
947.000000	0.288681
948.000000	0.288528
949.000000	0.288198
950.000000	0.287823
951.000000	0.287470
952.000000	0.287235
953.000000	0.286989
954.000000	0.286688
955.000000	0.286283
956.000000	0.285927
957.000000	0.285762
958.000000	0.285665
959.000000	0.285545
960.000000	0.285498
961.000000	0.285368
962.000000	0.285142
963.000000	0.285039
964.000000	0.284845
965.000000	0.284658
966.000000	0.284468
967.000000	0.284282
968.000000	0.283973
969.000000	0.283574
970.000000	0.283309
971.000000	0.283078
972.000000	0.282893
973.000000	0.282635
974.000000	0.282226
975.000000	0.282045
976.000000	0.281960
977.000000	0.281790
978.000000	0.281588
979.000000	0.281484
980.000000	0.281237
981.000000	0.280957
982.000000	0.280780
983.000000	0.280487
984.000000	0.280188
985.000000	0.280169
986.000000	0.279884
987.000000	0.279648
988.000000	0.279554
989.000000	0.279244
990.000000	0.278983
991.000000	0.278827
992.000000	0.278765
993.000000	0.278619
994.000000	0.278361
995.000000	0.278156
996.000000	0.277929
997.000000	0.277838
998.000000	0.277731
999.000000	0.277596
1000.000000	0.277447
1001.000000	0.277726
1002.000000	0.277647
1003.000000	0.277401
1004.000000	0.277183
1005.000000	0.276870
1006.000000	0.276577
1007.000000	0.276303
1008.000000	0.276163
1009.000000	0.275976
1010.000000	0.275654
1011.000000	0.275784
1012.000000	0.275790
1013.000000	0.275402
1014.000000	0.275385
1015.000000	0.275261
1016.000000	0.275195
1017.000000	0.275279
1018.000000	0.275309
1019.000000	0.275316
1020.000000	0.275348
1021.000000	0.275049
1022.000000	0.274761
1023.000000	0.274822
1024.000000	0.274785
1025.000000	0.274787
1026.000000	0.275029
1027.000000	0.274936
1028.000000	0.274627
1029.000000	0.274600
1030.000000	0.274511
1031.000000	0.274441
1032.000000	0.274784
1033.000000	0.275017
1034.000000	0.274989
1035.000000	0.274812
1036.000000	0.274839
1037.000000	0.274652
1038.000000	0.274527
1039.000000	0.274688
1040.000000	0.274951
1041.000000	0.274847
1042.000000	0.274794
1043.000000	0.274873
1044.000000	0.274931
1045.000000	0.274966
1046.000000	0.275028
1047.000000	0.275144
1048.000000	0.275285
1049.000000	0.275331
1050.000000	0.275371
1051.000000	0.275417
1052.000000	0.275284
1053.000000	0.275303
1054.000000	0.275657
1055.000000	0.275860
1056.000000	0.276021
1057.000000	0.276351
1058.000000	0.276462
1059.000000	0.276479
1060.000000	0.276685
1061.000000	0.276885
1062.000000	0.277122
1063.000000	0.277267
1064.000000	0.277445
1065.000000	0.277525
1066.000000	0.277705
1067.000000	0.277930
1068.000000	0.278126
1069.000000	0.278277
1070.000000	0.278460
1071.000000	0.278679
1072.000000	0.278868
1073.000000	0.279048
1074.000000	0.279449
1075.000000	0.279625
1076.000000	0.279846
1077.000000	0.280051
1078.000000	0.280128
1079.000000	0.280222
1080.000000	0.280240
1081.000000	0.280451
1082.000000	0.280841
1083.000000	0.281101
1084.000000	0.281489
1085.000000	0.281819
1086.000000	0.281982
1087.000000	0.282240
1088.000000	0.282492
1089.000000	0.282747
1090.000000	0.282991
1091.000000	0.283225
1092.000000	0.283296
1093.000000	0.283597
1094.000000	0.283790
1095.000000	0.283780
1096.000000	0.284024
1097.000000	0.284491
1098.000000	0.284719
1099.000000	0.284911
1100.000000	0.285095
1101.000000	0.285002
1102.000000	0.285138
1103.000000	0.285425
1104.000000	0.285631
1105.000000	0.285903
1106.000000	0.286120
1107.000000	0.286181
1108.000000	0.286289
1109.000000	0.286488
1110.000000	0.286642
1111.000000	0.286788
1112.000000	0.286927
1113.000000	0.287113
1114.000000	0.287271
1115.000000	0.287520
1116.000000	0.287899
1117.000000	0.288151
1118.000000	0.288426
1119.000000	0.288553
1120.000000	0.288563
1121.000000	0.288577
1122.000000	0.288525
1123.000000	0.288734
1124.000000	0.288828
1125.000000	0.288987
1126.000000	0.289263
1127.000000	0.289405
1128.000000	0.289490
1129.000000	0.289531
1130.000000	0.289647
1131.000000	0.289770
1132.000000	0.289809
1133.000000	0.289913
1134.000000	0.289980
1135.000000	0.289867
1136.000000	0.289883
1137.000000	0.289984
1138.000000	0.290010
1139.000000	0.290115
1140.000000	0.290242
1141.000000	0.290280
1142.000000	0.290385
1143.000000	0.290478
1144.000000	0.290664
1145.000000	0.290794
1146.000000	0.290803
1147.000000	0.290878
1148.000000	0.290846
1149.000000	0.290929
1150.000000	0.291110
1151.000000	0.291214
1152.000000	0.291258
1153.000000	0.291353
1154.000000	0.291429
1155.000000	0.291438
1156.000000	0.291412
1157.000000	0.291454
1158.000000	0.291397
1159.000000	0.291415
1160.000000	0.291579
1161.000000	0.291639
1162.000000	0.291720
1163.000000	0.291870
1164.000000	0.291780
1165.000000	0.291683
1166.000000	0.291694
1167.000000	0.291642
1168.000000	0.291603
1169.000000	0.291700
1170.000000	0.291733
1171.000000	0.291710
1172.000000	0.291786
1173.000000	0.291932
1174.000000	0.291983
1175.000000	0.291987
1176.000000	0.291966
1177.000000	0.291949
1178.000000	0.291946
1179.000000	0.291956
1180.000000	0.291902
1181.000000	0.291892
1182.000000	0.291848
1183.000000	0.291904
1184.000000	0.291979
1185.000000	0.292043
1186.000000	0.292183
1187.000000	0.292213
1188.000000	0.292175
1189.000000	0.292138
1190.000000	0.292108
1191.000000	0.292076
1192.000000	0.292111
1193.000000	0.292215
1194.000000	0.292247
1195.000000	0.292276
1196.000000	0.292299
1197.000000	0.292290
1198.000000	0.292260
1199.000000	0.292226
1200.000000	0.292152
1201.000000	0.292089
1202.000000	0.292070
1203.000000	0.292090
1204.000000	0.292055
1205.000000	0.292045
1206.000000	0.291994
1207.000000	0.291954
1208.000000	0.291907
1209.000000	0.291940
1210.000000	0.291944
1211.000000	0.291915
1212.000000	0.291913
1213.000000	0.291980
1214.000000	0.291997
1215.000000	0.291991
1216.000000	0.291985
1217.000000	0.291919
1218.000000	0.291861
1219.000000	0.291818
1220.000000	0.291807
1221.000000	0.291807
1222.000000	0.291804
1223.000000	0.291833
1224.000000	0.291862
1225.000000	0.291848
1226.000000	0.291883
1227.000000	0.291883
1228.000000	0.291916
1229.000000	0.291902
1230.000000	0.291835
1231.000000	0.291773
1232.000000	0.291824
1233.000000	0.291869
1234.000000	0.291905
1235.000000	0.291900
1236.000000	0.291777
1237.000000	0.291734
1238.000000	0.291655
1239.000000	0.291572
1240.000000	0.291496
1241.000000	0.291436
1242.000000	0.291353
1243.000000	0.291318
1244.000000	0.291293
1245.000000	0.291332
1246.000000	0.291372
1247.000000	0.291411
1248.000000	0.291459
1249.000000	0.291498
1250.000000	0.291509
1251.000000	0.291479
1252.000000	0.291442
1253.000000	0.291425
1254.000000	0.291375
1255.000000	0.291290
1256.000000	0.291229
1257.000000	0.291163
1258.000000	0.291162
1259.000000	0.291134
1260.000000	0.291163
1261.000000	0.291198
1262.000000	0.291206
1263.000000	0.291236
1264.000000	0.291255
1265.000000	0.291267
1266.000000	0.291265
1267.000000	0.291300
1268.000000	0.291285
1269.000000	0.291177
1270.000000	0.291179
1271.000000	0.291106
1272.000000	0.291072
1273.000000	0.291166
1274.000000	0.291197
1275.000000	0.291195
1276.000000	0.291221
1277.000000	0.291265
1278.000000	0.291186
1279.000000	0.291155
1280.000000	0.291121
1281.000000	0.291019
1282.000000	0.290906
1283.000000	0.290887
1284.000000	0.290796
1285.000000	0.290781
1286.000000	0.290836
1287.000000	0.290834
1288.000000	0.290857
1289.000000	0.290893
1290.000000	0.290828
1291.000000	0.290762
1292.000000	0.290768
1293.000000	0.290744
1294.000000	0.290720
1295.000000	0.290772
1296.000000	0.290717
1297.000000	0.290631
1298.000000	0.290642
1299.000000	0.290614
1300.000000	0.290647
1301.000000	0.290680
1302.000000	0.290651
1303.000000	0.290691
1304.000000	0.290671
1305.000000	0.290700
1306.000000	0.290679
1307.000000	0.290669
1308.000000	0.290666
1309.000000	0.290640
1310.000000	0.290613
1311.000000	0.290630
1312.000000	0.290534
1313.000000	0.290450
1314.000000	0.290338
1315.000000	0.290236
1316.000000	0.290232
1317.000000	0.290226
1318.000000	0.290280
1319.000000	0.290268
1320.000000	0.290207
1321.000000	0.290165
1322.000000	0.290115
1323.000000	0.290115
1324.000000	0.290166
1325.000000	0.290159
1326.000000	0.290081
1327.000000	0.290023
1328.000000	0.290044
1329.000000	0.289971
1330.000000	0.289909
1331.000000	0.289844
1332.000000	0.289768
1333.000000	0.289657
1334.000000	0.289619
1335.000000	0.289554
1336.000000	0.289393
1337.000000	0.289309
1338.000000	0.289240
1339.000000	0.289096
1340.000000	0.288987
1341.000000	0.288934
1342.000000	0.288793
1343.000000	0.288687
1344.000000	0.288642
1345.000000	0.288519
1346.000000	0.288497
1347.000000	0.288441
1348.000000	0.288318
1349.000000	0.288152
1350.000000	0.288040
1351.000000	0.287924
1352.000000	0.287863
1353.000000	0.287876
1354.000000	0.287898
1355.000000	0.287896
1356.000000	0.287931
1357.000000	0.287947
1358.000000	0.287953
1359.000000	0.287921
1360.000000	0.287903
1361.000000	0.287909
1362.000000	0.287894
1363.000000	0.287862
1364.000000	0.287849
1365.000000	0.287816
1366.000000	0.287773
1367.000000	0.287735
1368.000000	0.287625
1369.000000	0.287638
1370.000000	0.287570
1371.000000	0.287404
1372.000000	0.287340
1373.000000	0.287282
1374.000000	0.287185
1375.000000	0.287119
1376.000000	0.287195
1377.000000	0.287222
1378.000000	0.287162
1379.000000	0.287130
1380.000000	0.287131
1381.000000	0.287105
1382.000000	0.287056
1383.000000	0.287053
1384.000000	0.286908
1385.000000	0.286691
1386.000000	0.286626
1387.000000	0.286569
1388.000000	0.286460
1389.000000	0.286410
1390.000000	0.286356
1391.000000	0.286170
1392.000000	0.286076
1393.000000	0.285979
1394.000000	0.285907
1395.000000	0.285827
1396.000000	0.285794
1397.000000	0.285671
1398.000000	0.285465
1399.000000	0.285276
1400.000000	0.285051
1401.000000	0.284823
1402.000000	0.284611
1403.000000	0.284379
1404.000000	0.284254
1405.000000	0.284090
1406.000000	0.283912
1407.000000	0.283790
1408.000000	0.283565
1409.000000	0.283333
1410.000000	0.283175
1411.000000	0.282968
1412.000000	0.282726
1413.000000	0.282506
1414.000000	0.282226
1415.000000	0.281937
1416.000000	0.281632
1417.000000	0.281354
1418.000000	0.281081
1419.000000	0.280802
1420.000000	0.280491
1421.000000	0.280230
1422.000000	0.279934
1423.000000	0.279689
1424.000000	0.279340
1425.000000	0.278971
1426.000000	0.278615
1427.000000	0.278231
1428.000000	0.277878
1429.000000	0.277572
1430.000000	0.277281
1431.000000	0.277009
1432.000000	0.276713
1433.000000	0.276463
1434.000000	0.276186
1435.000000	0.275962
1436.000000	0.275700
1437.000000	0.275422
1438.000000	0.275127
1439.000000	0.274848
1440.000000	0.274552
1441.000000	0.274265
1442.000000	0.273995
1443.000000	0.273655
1444.000000	0.273324
1445.000000	0.273049
1446.000000	0.272763
1447.000000	0.272499
1448.000000	0.272255
1449.000000	0.272008
1450.000000	0.271803
1451.000000	0.271616
1452.000000	0.271346
1453.000000	0.271083
1454.000000	0.270851
1455.000000	0.270656
1456.000000	0.270568
1457.000000	0.270519
1458.000000	0.270438
1459.000000	0.270360
1460.000000	0.270306
1461.000000	0.270222
1462.000000	0.270114
1463.000000	0.269924
1464.000000	0.269745
1465.000000	0.269665
1466.000000	0.269573
1467.000000	0.269556
1468.000000	0.269548
1469.000000	0.269489
1470.000000	0.269367
1471.000000	0.269255
1472.000000	0.269168
1473.000000	0.269165
1474.000000	0.269145
1475.000000	0.269133
1476.000000	0.269098
1477.000000	0.269033
1478.000000	0.268987
1479.000000	0.268938
1480.000000	0.268902
1481.000000	0.268844
1482.000000	0.268801
1483.000000	0.268794
1484.000000	0.268792
1485.000000	0.268797
1486.000000	0.268811
1487.000000	0.268856
1488.000000	0.268934
1489.000000	0.269042
1490.000000	0.269077
1491.000000	0.269168
1492.000000	0.269258
1493.000000	0.269353
1494.000000	0.269449
1495.000000	0.269527
1496.000000	0.269578
1497.000000	0.269659
1498.000000	0.269773
1499.000000	0.269845
1500.000000	0.269941
1501.000000	0.270014
1502.000000	0.270034
1503.000000	0.270117
1504.000000	0.270260
1505.000000	0.270391
1506.000000	0.270518
1507.000000	0.270630
1508.000000	0.270723
1509.000000	0.270783
1510.000000	0.270851
1511.000000	0.270971
1512.000000	0.271017
1513.000000	0.271071
1514.000000	0.271187
1515.000000	0.271196
1516.000000	0.271261
1517.000000	0.271305
1518.000000	0.271290
1519.000000	0.271322
1520.000000	0.271386
1521.000000	0.271417
1522.000000	0.271516
1523.000000	0.271650
1524.000000	0.271701
1525.000000	0.271796
1526.000000	0.271911
1527.000000	0.271992
1528.000000	0.272103
1529.000000	0.272207
1530.000000	0.272214
1531.000000	0.272286
1532.000000	0.272414
1533.000000	0.272518
1534.000000	0.272655
1535.000000	0.272773
1536.000000	0.272785
1537.000000	0.272850
1538.000000	0.272948
1539.000000	0.272974
1540.000000	0.273029
1541.000000	0.273124
1542.000000	0.273161
1543.000000	0.273211
1544.000000	0.273285
1545.000000	0.273347
1546.000000	0.273401
1547.000000	0.273457
1548.000000	0.273476
1549.000000	0.273462
1550.000000	0.273466
1551.000000	0.273451
1552.000000	0.273452
1553.000000	0.273469
1554.000000	0.273458
1555.000000	0.273485
1556.000000	0.273519
1557.000000	0.273479
1558.000000	0.273482
1559.000000	0.273455
1560.000000	0.273410
1561.000000	0.273384
1562.000000	0.273352
1563.000000	0.273341
1564.000000	0.273318
1565.000000	0.273308
1566.000000	0.273213
1567.000000	0.273134
1568.000000	0.273076
1569.000000	0.273045
1570.000000	0.273025
1571.000000	0.273025
1572.000000	0.273012
1573.000000	0.273018
1574.000000	0.273027
1575.000000	0.273039
1576.000000	0.273076
1577.000000	0.273125
1578.000000	0.273119
1579.000000	0.273167
1580.000000	0.273174
1581.000000	0.273197
1582.000000	0.273161
1583.000000	0.273072
1584.000000	0.272997
1585.000000	0.272941
1586.000000	0.272924
1587.000000	0.272963
1588.000000	0.272943
1589.000000	0.272918
1590.000000	0.272875
1591.000000	0.272816
1592.000000	0.272791
1593.000000	0.272799
1594.000000	0.272782
1595.000000	0.272811
1596.000000	0.272815
1597.000000	0.272827
1598.000000	0.272827
1599.000000	0.272866
1600.000000	0.272830
1601.000000	0.272797
1602.000000	0.272784
1603.000000	0.272781
1604.000000	0.272765
1605.000000	0.272792
1606.000000	0.272784
1607.000000	0.272803
1608.000000	0.272765
1609.000000	0.272750
1610.000000	0.272692
1611.000000	0.272597
1612.000000	0.272501
1613.000000	0.272477
1614.000000	0.272400
1615.000000	0.272322
1616.000000	0.272294
1617.000000	0.272239
1618.000000	0.272193
1619.000000	0.272147
1620.000000	0.272127
1621.000000	0.272128
1622.000000	0.272202
1623.000000	0.272328
1624.000000	0.272381
1625.000000	0.272319
1626.000000	0.272281
1627.000000	0.272226
1628.000000	0.272228
1629.000000	0.272276
1630.000000	0.272289
1631.000000	0.272218
1632.000000	0.272175
1633.000000	0.272144
1634.000000	0.272134
1635.000000	0.272182
1636.000000	0.272195
1637.000000	0.272210
1638.000000	0.272216
1639.000000	0.272268
1640.000000	0.272275
1641.000000	0.272319
1642.000000	0.272361
1643.000000	0.272411
1644.000000	0.272458
1645.000000	0.272534
1646.000000	0.272532
1647.000000	0.272505
1648.000000	0.272468
1649.000000	0.272438
1650.000000	0.272497
1651.000000	0.272655
1652.000000	0.272753
1653.000000	0.272821
1654.000000	0.272937
1655.000000	0.272971
1656.000000	0.272993
1657.000000	0.273143
1658.000000	0.273209
1659.000000	0.273293
1660.000000	0.273396
1661.000000	0.273437
1662.000000	0.273477
1663.000000	0.273469
1664.000000	0.273501
1665.000000	0.273541
1666.000000	0.273653
1667.000000	0.273754
1668.000000	0.273812
1669.000000	0.273861
1670.000000	0.273841
1671.000000	0.273853
1672.000000	0.273888
1673.000000	0.273858
1674.000000	0.273953
1675.000000	0.274079
1676.000000	0.274146
1677.000000	0.274198
1678.000000	0.274165
1679.000000	0.274079
1680.000000	0.274050
1681.000000	0.274045
1682.000000	0.274034
1683.000000	0.274068
1684.000000	0.274039
1685.000000	0.274036
1686.000000	0.274028
1687.000000	0.274022
1688.000000	0.274082
1689.000000	0.274142
1690.000000	0.274197
1691.000000	0.274301
1692.000000	0.274346
1693.000000	0.274402
1694.000000	0.274421
1695.000000	0.274503
1696.000000	0.274531
1697.000000	0.274510
1698.000000	0.274485
1699.000000	0.274528
1700.000000	0.274591
1701.000000	0.274716
1702.000000	0.274782
1703.000000	0.274806
1704.000000	0.274843
1705.000000	0.274921
1706.000000	0.275091
1707.000000	0.275192
1708.000000	0.275262
1709.000000	0.275291
1710.000000	0.275316
1711.000000	0.275389
1712.000000	0.275549
1713.000000	0.275609
1714.000000	0.275692
1715.000000	0.275711
1716.000000	0.275647
1717.000000	0.275593
1718.000000	0.275467
1719.000000	0.275373
1720.000000	0.275352
1721.000000	0.275272
1722.000000	0.275146
1723.000000	0.275108
1724.000000	0.275083
1725.000000	0.275117
1726.000000	0.275194
1727.000000	0.275232
1728.000000	0.275202
1729.000000	0.275177
1730.000000	0.275279
1731.000000	0.275312
1732.000000	0.275327
1733.000000	0.275420
1734.000000	0.275385
1735.000000	0.275453
1736.000000	0.275600
1737.000000	0.275651
1738.000000	0.275695
1739.000000	0.275759
1740.000000	0.275780
1741.000000	0.275804
1742.000000	0.275862
1743.000000	0.275945
1744.000000	0.276011
1745.000000	0.276004
1746.000000	0.275986
1747.000000	0.275978
1748.000000	0.275921
1749.000000	0.275895
1750.000000	0.275873
1751.000000	0.275902
1752.000000	0.276024
1753.000000	0.276113
1754.000000	0.276226
1755.000000	0.276344
1756.000000	0.276429
1757.000000	0.276529
1758.000000	0.276624
1759.000000	0.276676
1760.000000	0.276724
1761.000000	0.276737
1762.000000	0.276747
1763.000000	0.276757
1764.000000	0.276766
1765.000000	0.276732
1766.000000	0.276746
1767.000000	0.276706
1768.000000	0.276662
1769.000000	0.276733
1770.000000	0.276787
1771.000000	0.276794
1772.000000	0.276797
1773.000000	0.276738
1774.000000	0.276748
1775.000000	0.276813
1776.000000	0.276889
1777.000000	0.277011
1778.000000	0.277048
1779.000000	0.277025
1780.000000	0.277075
1781.000000	0.277070
1782.000000	0.277136
1783.000000	0.277335
1784.000000	0.277389
1785.000000	0.277418
1786.000000	0.277508
1787.000000	0.277630
1788.000000	0.277807
1789.000000	0.277975
1790.000000	0.278074
1791.000000	0.278089
1792.000000	0.278043
1793.000000	0.278073
1794.000000	0.278123
1795.000000	0.278201
1796.000000	0.278398
1797.000000	0.278469
1798.000000	0.278455
1799.000000	0.278433
1800.000000	0.278330
1801.000000	0.278597
1802.000000	0.278558
1803.000000	0.278063
1804.000000	0.277937
1805.000000	0.278010
1806.000000	0.278097
1807.000000	0.278268
1808.000000	0.278265
1809.000000	0.278025
1810.000000	0.278378
1811.000000	0.278323
1812.000000	0.277911
1813.000000	0.277987
1814.000000	0.278260
1815.000000	0.278496
1816.000000	0.279150
1817.000000	0.279293
1818.000000	0.279234
1819.000000	0.279363
1820.000000	0.279145
1821.000000	0.278675
1822.000000	0.278344
1823.000000	0.277678
1824.000000	0.277441
1825.000000	0.277233
1826.000000	0.277355
1827.000000	0.277657
1828.000000	0.278300
1829.000000	0.278759
1830.000000	0.279003
1831.000000	0.279020
1832.000000	0.278588
1833.000000	0.278495
1834.000000	0.278352
1835.000000	0.278291
1836.000000	0.278372
1837.000000	0.278401
1838.000000	0.278222
1839.000000	0.278151
1840.000000	0.278287
1841.000000	0.278159
1842.000000	0.278142
1843.000000	0.278105
1844.000000	0.278223
1845.000000	0.278484
1846.000000	0.278486
1847.000000	0.278418
1848.000000	0.278053
1849.000000	0.277569
1850.000000	0.277238
1851.000000	0.277103
1852.000000	0.277173
1853.000000	0.277219
1854.000000	0.277274
1855.000000	0.277138
1856.000000	0.276919
1857.000000	0.276591
1858.000000	0.276131
1859.000000	0.275710
1860.000000	0.275360
1861.000000	0.275322
1862.000000	0.275094
1863.000000	0.274906
1864.000000	0.274750
1865.000000	0.274642
1866.000000	0.274357
1867.000000	0.273931
1868.000000	0.273727
1869.000000	0.273366
1870.000000	0.272910
1871.000000	0.272545
1872.000000	0.272087
1873.000000	0.271724
1874.000000	0.271310
1875.000000	0.271036
1876.000000	0.270657
1877.000000	0.270133
1878.000000	0.269913
1879.000000	0.269242
1880.000000	0.268637
1881.000000	0.268236
1882.000000	0.267499
1883.000000	0.266689
1884.000000	0.265986
1885.000000	0.265042
1886.000000	0.264217
1887.000000	0.263424
1888.000000	0.262638
1889.000000	0.261895
1890.000000	0.261358
1891.000000	0.260654
1892.000000	0.259824
1893.000000	0.258947
1894.000000	0.257900
1895.000000	0.256781
1896.000000	0.255737
1897.000000	0.254693
1898.000000	0.253551
1899.000000	0.252513
1900.000000	0.251537
1901.000000	0.250462
1902.000000	0.249085
1903.000000	0.247907
1904.000000	0.246833
1905.000000	0.245659
1906.000000	0.244546
1907.000000	0.243710
1908.000000	0.242582
1909.000000	0.241410
1910.000000	0.240365
1911.000000	0.238887
1912.000000	0.237526
1913.000000	0.236368
1914.000000	0.235294
1915.000000	0.234483
1916.000000	0.233869
1917.000000	0.233081
1918.000000	0.232375
1919.000000	0.231546
1920.000000	0.230790
1921.000000	0.230001
1922.000000	0.229222
1923.000000	0.228581
1924.000000	0.227737
1925.000000	0.226832
1926.000000	0.225961
1927.000000	0.225199
1928.000000	0.224600
1929.000000	0.224154
1930.000000	0.223945
1931.000000	0.223930
1932.000000	0.223840
1933.000000	0.223663
1934.000000	0.223379
1935.000000	0.223052
1936.000000	0.222690
1937.000000	0.222271
1938.000000	0.221890
1939.000000	0.221535
1940.000000	0.221122
1941.000000	0.220815
1942.000000	0.220832
1943.000000	0.220976
1944.000000	0.221174
1945.000000	0.221356
1946.000000	0.221283
1947.000000	0.221126
1948.000000	0.220794
1949.000000	0.220600
1950.000000	0.220732
1951.000000	0.220625
1952.000000	0.220527
1953.000000	0.220399
1954.000000	0.220263
1955.000000	0.220018
1956.000000	0.219796
1957.000000	0.219903
1958.000000	0.220061
1959.000000	0.220197
1960.000000	0.220359
1961.000000	0.220374
1962.000000	0.220348
1963.000000	0.220329
1964.000000	0.220124
1965.000000	0.219860
1966.000000	0.219710
1967.000000	0.219681
1968.000000	0.219778
1969.000000	0.219726
1970.000000	0.219724
1971.000000	0.219301
1972.000000	0.218763
1973.000000	0.218510
1974.000000	0.218507
1975.000000	0.218449
1976.000000	0.218507
1977.000000	0.218889
1978.000000	0.219040
1979.000000	0.219301
1980.000000	0.219813
1981.000000	0.220128
1982.000000	0.219963
1983.000000	0.219989
1984.000000	0.220068
1985.000000	0.219959
1986.000000	0.220042
1987.000000	0.220489
1988.000000	0.220790
1989.000000	0.220902
1990.000000	0.221195
1991.000000	0.221254
1992.000000	0.221340
1993.000000	0.221433
1994.000000	0.221481
1995.000000	0.221563
1996.000000	0.221692
1997.000000	0.221785
1998.000000	0.221877
1999.000000	0.222042
2000.000000	0.222259
2001.000000	0.222385
2002.000000	0.222651
2003.000000	0.222992
2004.000000	0.223251
2005.000000	0.223317
2006.000000	0.223487
2007.000000	0.223656
2008.000000	0.223988
2009.000000	0.224473
2010.000000	0.225050
2011.000000	0.225811
2012.000000	0.226278
2013.000000	0.226703
2014.000000	0.226727
2015.000000	0.226830
2016.000000	0.226925
2017.000000	0.227157
2018.000000	0.227509
2019.000000	0.227744
2020.000000	0.228102
2021.000000	0.228421
2022.000000	0.228612
2023.000000	0.229007
2024.000000	0.229631
2025.000000	0.230051
2026.000000	0.230354
2027.000000	0.230689
2028.000000	0.230937
2029.000000	0.231177
2030.000000	0.231362
2031.000000	0.231550
2032.000000	0.231826
2033.000000	0.232127
2034.000000	0.232360
2035.000000	0.232780
2036.000000	0.232969
2037.000000	0.233049
2038.000000	0.233278
2039.000000	0.233605
2040.000000	0.233921
2041.000000	0.234284
2042.000000	0.234581
2043.000000	0.234724
2044.000000	0.234912
2045.000000	0.235051
2046.000000	0.234971
2047.000000	0.235023
2048.000000	0.234915
2049.000000	0.235260
2050.000000	0.235578
2051.000000	0.235931
2052.000000	0.236513
2053.000000	0.236830
2054.000000	0.237270
2055.000000	0.237605
2056.000000	0.237828
2057.000000	0.238089
2058.000000	0.237999
2059.000000	0.237988
2060.000000	0.238183
2061.000000	0.238425
2062.000000	0.238633
2063.000000	0.239196
2064.000000	0.239357
2065.000000	0.239421
2066.000000	0.239553
2067.000000	0.239806
2068.000000	0.240162
2069.000000	0.240512
2070.000000	0.240713
2071.000000	0.240908
2072.000000	0.241040
2073.000000	0.241278
2074.000000	0.241546
2075.000000	0.241787
2076.000000	0.242024
2077.000000	0.242292
2078.000000	0.242624
2079.000000	0.242821
2080.000000	0.242983
2081.000000	0.243219
2082.000000	0.243398
2083.000000	0.243555
2084.000000	0.244015
2085.000000	0.244435
2086.000000	0.244477
2087.000000	0.244568
2088.000000	0.244890
2089.000000	0.245243
2090.000000	0.245473
2091.000000	0.246030
2092.000000	0.246211
2093.000000	0.245831
2094.000000	0.245889
2095.000000	0.246172
2096.000000	0.246435
2097.000000	0.246782
2098.000000	0.247098
2099.000000	0.247408
2100.000000	0.247451
2101.000000	0.247566
2102.000000	0.247844
2103.000000	0.247963
2104.000000	0.248324
2105.000000	0.248648
2106.000000	0.249069
2107.000000	0.249380
2108.000000	0.249637
2109.000000	0.249870
2110.000000	0.249854
2111.000000	0.249949
2112.000000	0.250017
2113.000000	0.249970
2114.000000	0.250067
2115.000000	0.250178
2116.000000	0.250107
2117.000000	0.250305
2118.000000	0.250379
2119.000000	0.250355
2120.000000	0.250615
2121.000000	0.251081
2122.000000	0.251377
2123.000000	0.251778
2124.000000	0.252140
2125.000000	0.252373
2126.000000	0.252662
2127.000000	0.253176
2128.000000	0.253510
2129.000000	0.253629
2130.000000	0.253819
2131.000000	0.253730
2132.000000	0.253558
2133.000000	0.253743
2134.000000	0.253812
2135.000000	0.253757
2136.000000	0.253881
2137.000000	0.253839
2138.000000	0.253594
2139.000000	0.253478
2140.000000	0.253347
2141.000000	0.253305
2142.000000	0.253256
2143.000000	0.253048
2144.000000	0.253085
2145.000000	0.253131
2146.000000	0.252980
2147.000000	0.253440
2148.000000	0.254024
2149.000000	0.254505
2150.000000	0.254829
2151.000000	0.255046
2152.000000	0.255238
2153.000000	0.255104
2154.000000	0.255015
2155.000000	0.254975
2156.000000	0.254854
2157.000000	0.254561
2158.000000	0.254410
2159.000000	0.254338
2160.000000	0.254482
2161.000000	0.254739
2162.000000	0.255003
2163.000000	0.255456
2164.000000	0.255617
2165.000000	0.255645
2166.000000	0.255554
2167.000000	0.255263
2168.000000	0.255188
2169.000000	0.255244
2170.000000	0.255348
2171.000000	0.255515
2172.000000	0.255959
2173.000000	0.256121
2174.000000	0.256246
2175.000000	0.256230
2176.000000	0.256007
2177.000000	0.255910
2178.000000	0.255661
2179.000000	0.255758
2180.000000	0.256029
2181.000000	0.256458
2182.000000	0.256798
2183.000000	0.256966
2184.000000	0.256802
2185.000000	0.256893
2186.000000	0.256628
2187.000000	0.256573
2188.000000	0.256534
2189.000000	0.256048
2190.000000	0.255580
2191.000000	0.255373
2192.000000	0.255368
2193.000000	0.255720
2194.000000	0.255714
2195.000000	0.256077
2196.000000	0.255935
2197.000000	0.255012
2198.000000	0.254643
2199.000000	0.254255
2200.000000	0.254229
2201.000000	0.254739
2202.000000	0.255001
2203.000000	0.255132
2204.000000	0.255425
2205.000000	0.255679
2206.000000	0.256486
2207.000000	0.257573
2208.000000	0.258191
2209.000000	0.257892
2210.000000	0.257652
2211.000000	0.256565
2212.000000	0.256028
2213.000000	0.255860
2214.000000	0.255880
2215.000000	0.255925
2216.000000	0.256527
2217.000000	0.256809
2218.000000	0.257006
2219.000000	0.257454
2220.000000	0.258083
2221.000000	0.258540
2222.000000	0.258917
2223.000000	0.259189
2224.000000	0.259422
2225.000000	0.259670
2226.000000	0.259317
2227.000000	0.258585
2228.000000	0.257846
2229.000000	0.256910
2230.000000	0.256136
2231.000000	0.256248
2232.000000	0.256650
2233.000000	0.256944
2234.000000	0.257673
2235.000000	0.258960
2236.000000	0.259083
2237.000000	0.258449
2238.000000	0.258282
2239.000000	0.257362
2240.000000	0.257119
2241.000000	0.257105
2242.000000	0.257724
2243.000000	0.259236
2244.000000	0.259828
2245.000000	0.260988
2246.000000	0.261376
2247.000000	0.260470
2248.000000	0.260011
2249.000000	0.260012
2250.000000	0.259017
2251.000000	0.256976
2252.000000	0.255703
2253.000000	0.254723
2254.000000	0.254400
2255.000000	0.255614
2256.000000	0.256364
2257.000000	0.257592
2258.000000	0.257616
2259.000000	0.257182
2260.000000	0.257883
2261.000000	0.257507
2262.000000	0.256213
2263.000000	0.256045
2264.000000	0.255816
2265.000000	0.256046
2266.000000	0.257618
2267.000000	0.257640
2268.000000	0.256877
2269.000000	0.256609
2270.000000	0.255494
2271.000000	0.255062
2272.000000	0.255421
2273.000000	0.255714
2274.000000	0.256195
2275.000000	0.256581
2276.000000	0.257620
2277.000000	0.257280
2278.000000	0.256266
2279.000000	0.255511
2280.000000	0.254505
2281.000000	0.253864
2282.000000	0.253944
2283.000000	0.253881
2284.000000	0.253311
2285.000000	0.252461
2286.000000	0.251484
2287.000000	0.251161
2288.000000	0.251367
2289.000000	0.251440
2290.000000	0.251832
2291.000000	0.251572
2292.000000	0.251030
2293.000000	0.250986
2294.000000	0.251114
2295.000000	0.251494
2296.000000	0.251923
2297.000000	0.252873
2298.000000	0.253185
2299.000000	0.253316
2300.000000	0.252941
2301.000000	0.251496
2302.000000	0.250929
2303.000000	0.250567
2304.000000	0.250411
2305.000000	0.251404
2306.000000	0.251351
2307.000000	0.250603
2308.000000	0.250012
2309.000000	0.249064
2310.000000	0.247891
2311.000000	0.248054
2312.000000	0.247713
2313.000000	0.247011
2314.000000	0.246540
2315.000000	0.245780
2316.000000	0.245556
2317.000000	0.246337
2318.000000	0.247317
2319.000000	0.248502
2320.000000	0.248700
2321.000000	0.247800
2322.000000	0.247003
2323.000000	0.245790
2324.000000	0.245026
2325.000000	0.244659
2326.000000	0.244169
2327.000000	0.243651
2328.000000	0.242263
2329.000000	0.241684
2330.000000	0.241022
2331.000000	0.240126
2332.000000	0.241148
2333.000000	0.241802
2334.000000	0.241769
2335.000000	0.242095
2336.000000	0.242451
2337.000000	0.242040
2338.000000	0.240760
2339.000000	0.240284
2340.000000	0.239578
2341.000000	0.238822
2342.000000	0.238550
2343.000000	0.238520
2344.000000	0.238534
2345.000000	0.238154
2346.000000	0.238049
2347.000000	0.237611
2348.000000	0.236332
2349.000000	0.236346
2350.000000	0.235655
2351.000000	0.235085
2352.000000	0.235253
2353.000000	0.234871
2354.000000	0.235748
2355.000000	0.237245
2356.000000	0.237638
2357.000000	0.237307
2358.000000	0.235131
2359.000000	0.233173
2360.000000	0.231865
2361.000000	0.230940
2362.000000	0.230148
2363.000000	0.230007
2364.000000	0.229623
2365.000000	0.228502
2366.000000	0.230371
2367.000000	0.230989
2368.000000	0.230851
2369.000000	0.232050
2370.000000	0.230290
2371.000000	0.229980
2372.000000	0.230831
2373.000000	0.229936
2374.000000	0.229253
2375.000000	0.228528
2376.000000	0.227045
2377.000000	0.225811
2378.000000	0.226405
2379.000000	0.225849
2380.000000	0.223609
2381.000000	0.221090
2382.000000	0.217749
2383.000000	0.215691
2384.000000	0.214898
2385.000000	0.215252
2386.000000	0.216731
2387.000000	0.217604
2388.000000	0.219098
2389.000000	0.220726
2390.000000	0.220643
2391.000000	0.219887
2392.000000	0.219523
2393.000000	0.218401
2394.000000	0.217801
2395.000000	0.219005
2396.000000	0.217949
2397.000000	0.218181
2398.000000	0.220002
2399.000000	0.218599
2400.000000	0.217268
2401.000000	0.217065
2402.000000	0.216599
2403.000000	0.216889
2404.000000	0.218303
2405.000000	0.218073
2406.000000	0.217700
2407.000000	0.216237
2408.000000	0.214756
2409.000000	0.216673
2410.000000	0.215433
2411.000000	0.212857
2412.000000	0.212723
2413.000000	0.212448
2414.000000	0.212877
2415.000000	0.213816
2416.000000	0.217144
2417.000000	0.219769
2418.000000	0.218687
2419.000000	0.218863
2420.000000	0.218713
2421.000000	0.214225
2422.000000	0.211764
2423.000000	0.211617
2424.000000	0.209181
2425.000000	0.210229
2426.000000	0.211494
2427.000000	0.212252
2428.000000	0.214649
2429.000000	0.215972
2430.000000	0.217106
2431.000000	0.216302
2432.000000	0.216446
2433.000000	0.217942
2434.000000	0.218361
2435.000000	0.218380
2436.000000	0.217693
2437.000000	0.215176
2438.000000	0.209755
2439.000000	0.205712
2440.000000	0.202956
2441.000000	0.200415
2442.000000	0.202444
2443.000000	0.205631
2444.000000	0.209785
2445.000000	0.214861
2446.000000	0.217631
2447.000000	0.217610
2448.000000	0.215629
2449.000000	0.213463
2450.000000	0.213525
2451.000000	0.217126
2452.000000	0.216869
2453.000000	0.214398
2454.000000	0.209916
2455.000000	0.204101
2456.000000	0.205894
2457.000000	0.210065
2458.000000	0.218009
2459.000000	0.229045
2460.000000	0.233565
2461.000000	0.234443
2462.000000	0.233963
2463.000000	0.226494
2464.000000	0.215133
2465.000000	0.206037
2466.000000	0.194944
2467.000000	0.188878
2468.000000	0.192815
2469.000000	0.195756
2470.000000	0.201590
2471.000000	0.203572
2472.000000	0.200221
2473.000000	0.201596
2474.000000	0.194568
2475.000000	0.188997
2476.000000	0.189853
2477.000000	0.191591
2478.000000	0.200769
2479.000000	0.209812
2480.000000	0.213613
2481.000000	0.204143
2482.000000	0.198802
2483.000000	0.199986
2484.000000	0.186818
2485.000000	0.191918
2486.000000	0.196735
2487.000000	0.196727
2488.000000	0.224506
2489.000000	0.220491
2490.000000	0.208332
2491.000000	0.217216
2492.000000	0.207397
2493.000000	0.220445
2494.000000	0.229856
2495.000000	0.206036
2496.000000	0.195569
2497.000000	0.191768
2498.000000	0.189823
2499.000000	0.203539
2500.000000	0.207914
