# Wavelength	Hexa90_00002.asd.rts.txt
350.000000	0.372131
351.000000	0.366312
352.000000	0.363534
353.000000	0.359961
354.000000	0.358259
355.000000	0.364151
356.000000	0.367497
357.000000	0.368101
358.000000	0.365552
359.000000	0.366619
360.000000	0.368701
361.000000	0.367460
362.000000	0.368641
363.000000	0.370856
364.000000	0.372013
365.000000	0.373258
366.000000	0.374347
367.000000	0.374360
368.000000	0.372653
369.000000	0.374287
370.000000	0.376574
371.000000	0.375307
372.000000	0.374779
373.000000	0.375065
374.000000	0.376462
375.000000	0.378271
376.000000	0.378981
377.000000	0.378697
378.000000	0.379627
379.000000	0.379351
380.000000	0.378719
381.000000	0.380401
382.000000	0.379610
383.000000	0.379060
384.000000	0.380856
385.000000	0.381639
386.000000	0.382580
387.000000	0.383994
388.000000	0.384655
389.000000	0.385477
390.000000	0.386158
391.000000	0.385707
392.000000	0.386206
393.000000	0.386609
394.000000	0.386312
395.000000	0.387758
396.000000	0.388861
397.000000	0.388904
398.000000	0.389071
399.000000	0.389451
400.000000	0.389971
401.000000	0.390242
402.000000	0.391091
403.000000	0.391887
404.000000	0.392255
405.000000	0.392537
406.000000	0.393312
407.000000	0.394458
408.000000	0.394348
409.000000	0.394608
410.000000	0.395228
411.000000	0.395246
412.000000	0.395498
413.000000	0.395986
414.000000	0.396550
415.000000	0.397048
416.000000	0.397377
417.000000	0.397600
418.000000	0.398131
419.000000	0.398529
420.000000	0.398794
421.000000	0.399277
422.000000	0.399699
423.000000	0.399961
424.000000	0.400197
425.000000	0.400698
426.000000	0.401199
427.000000	0.401495
428.000000	0.401916
429.000000	0.402261
430.000000	0.402528
431.000000	0.402979
432.000000	0.403236
433.000000	0.403312
434.000000	0.403573
435.000000	0.403819
436.000000	0.404022
437.000000	0.404164
438.000000	0.404345
439.000000	0.404559
440.000000	0.404909
441.000000	0.405156
442.000000	0.405365
443.000000	0.405500
444.000000	0.405752
445.000000	0.405962
446.000000	0.406336
447.000000	0.406794
448.000000	0.406980
449.000000	0.407178
450.000000	0.407580
451.000000	0.407881
452.000000	0.408151
453.000000	0.408353
454.000000	0.408715
455.000000	0.408982
456.000000	0.409313
457.000000	0.409710
458.000000	0.410111
459.000000	0.410445
460.000000	0.410730
461.000000	0.410873
462.000000	0.411099
463.000000	0.411285
464.000000	0.411583
465.000000	0.411947
466.000000	0.412236
467.000000	0.412456
468.000000	0.412802
469.000000	0.413046
470.000000	0.413198
471.000000	0.413398
472.000000	0.413596
473.000000	0.413818
474.000000	0.414169
475.000000	0.414292
476.000000	0.414413
477.000000	0.414829
478.000000	0.414949
479.000000	0.415142
480.000000	0.415535
481.000000	0.415763
482.000000	0.416060
483.000000	0.416308
484.000000	0.416586
485.000000	0.416722
486.000000	0.416941
487.000000	0.417213
488.000000	0.417470
489.000000	0.417758
490.000000	0.418165
491.000000	0.418429
492.000000	0.418729
493.000000	0.419079
494.000000	0.419296
495.000000	0.419549
496.000000	0.419891
497.000000	0.420279
498.000000	0.420567
499.000000	0.420836
500.000000	0.421121
501.000000	0.421387
502.000000	0.421702
503.000000	0.422022
504.000000	0.422292
505.000000	0.422534
506.000000	0.422791
507.000000	0.423055
508.000000	0.423399
509.000000	0.423770
510.000000	0.424108
511.000000	0.424400
512.000000	0.424712
513.000000	0.425081
514.000000	0.425366
515.000000	0.425650
516.000000	0.425965
517.000000	0.426287
518.000000	0.426678
519.000000	0.427033
520.000000	0.427329
521.000000	0.427621
522.000000	0.427937
523.000000	0.428220
524.000000	0.428552
525.000000	0.428889
526.000000	0.429188
527.000000	0.429458
528.000000	0.429696
529.000000	0.429981
530.000000	0.430232
531.000000	0.430563
532.000000	0.430881
533.000000	0.431141
534.000000	0.431412
535.000000	0.431706
536.000000	0.432045
537.000000	0.432408
538.000000	0.432746
539.000000	0.432991
540.000000	0.433262
541.000000	0.433522
542.000000	0.433787
543.000000	0.434063
544.000000	0.434393
545.000000	0.434683
546.000000	0.434964
547.000000	0.435282
548.000000	0.435664
549.000000	0.435967
550.000000	0.436291
551.000000	0.436656
552.000000	0.436975
553.000000	0.437285
554.000000	0.437591
555.000000	0.437918
556.000000	0.438322
557.000000	0.438681
558.000000	0.439111
559.000000	0.439425
560.000000	0.439720
561.000000	0.440105
562.000000	0.440447
563.000000	0.440729
564.000000	0.441059
565.000000	0.441375
566.000000	0.441756
567.000000	0.442128
568.000000	0.442424
569.000000	0.442755
570.000000	0.443062
571.000000	0.443343
572.000000	0.443679
573.000000	0.444004
574.000000	0.444293
575.000000	0.444634
576.000000	0.445022
577.000000	0.445350
578.000000	0.445652
579.000000	0.446001
580.000000	0.446338
581.000000	0.446636
582.000000	0.446932
583.000000	0.447220
584.000000	0.447517
585.000000	0.447856
586.000000	0.448216
587.000000	0.448565
588.000000	0.448891
589.000000	0.449296
590.000000	0.449703
591.000000	0.450055
592.000000	0.450364
593.000000	0.450698
594.000000	0.451026
595.000000	0.451227
596.000000	0.451402
597.000000	0.451621
598.000000	0.451781
599.000000	0.451910
600.000000	0.452141
601.000000	0.452428
602.000000	0.452637
603.000000	0.452811
604.000000	0.453007
605.000000	0.453259
606.000000	0.453410
607.000000	0.453477
608.000000	0.453590
609.000000	0.453765
610.000000	0.453997
611.000000	0.454257
612.000000	0.454464
613.000000	0.454625
614.000000	0.454800
615.000000	0.454905
616.000000	0.454981
617.000000	0.455027
618.000000	0.455179
619.000000	0.455353
620.000000	0.455513
621.000000	0.455727
622.000000	0.455933
623.000000	0.456159
624.000000	0.456419
625.000000	0.456649
626.000000	0.456899
627.000000	0.457198
628.000000	0.457546
629.000000	0.457980
630.000000	0.458299
631.000000	0.458623
632.000000	0.458944
633.000000	0.459278
634.000000	0.459598
635.000000	0.459807
636.000000	0.459971
637.000000	0.460104
638.000000	0.460202
639.000000	0.460288
640.000000	0.460429
641.000000	0.460460
642.000000	0.460546
643.000000	0.460696
644.000000	0.460869
645.000000	0.460944
646.000000	0.461039
647.000000	0.461197
648.000000	0.461340
649.000000	0.461518
650.000000	0.461709
651.000000	0.461894
652.000000	0.462063
653.000000	0.462260
654.000000	0.462425
655.000000	0.462603
656.000000	0.462805
657.000000	0.462960
658.000000	0.463205
659.000000	0.463460
660.000000	0.463667
661.000000	0.463899
662.000000	0.464087
663.000000	0.464289
664.000000	0.464469
665.000000	0.464638
666.000000	0.464804
667.000000	0.464936
668.000000	0.465112
669.000000	0.465340
670.000000	0.465592
671.000000	0.465731
672.000000	0.465899
673.000000	0.466105
674.000000	0.466289
675.000000	0.466463
676.000000	0.466638
677.000000	0.466849
678.000000	0.467013
679.000000	0.467140
680.000000	0.467266
681.000000	0.467401
682.000000	0.467625
683.000000	0.467821
684.000000	0.468028
685.000000	0.468214
686.000000	0.468408
687.000000	0.468577
688.000000	0.468765
689.000000	0.468947
690.000000	0.469156
691.000000	0.469385
692.000000	0.469555
693.000000	0.469753
694.000000	0.469974
695.000000	0.470219
696.000000	0.470439
697.000000	0.470580
698.000000	0.470780
699.000000	0.471016
700.000000	0.471251
701.000000	0.471446
702.000000	0.471643
703.000000	0.471812
704.000000	0.471913
705.000000	0.472072
706.000000	0.472233
707.000000	0.472411
708.000000	0.472549
709.000000	0.472705
710.000000	0.472943
711.000000	0.473143
712.000000	0.473323
713.000000	0.473517
714.000000	0.473676
715.000000	0.473842
716.000000	0.474026
717.000000	0.474191
718.000000	0.474399
719.000000	0.474593
720.000000	0.474752
721.000000	0.474972
722.000000	0.475126
723.000000	0.475262
724.000000	0.475372
725.000000	0.475422
726.000000	0.475551
727.000000	0.475703
728.000000	0.475827
729.000000	0.475954
730.000000	0.476050
731.000000	0.476240
732.000000	0.476409
733.000000	0.476561
734.000000	0.476654
735.000000	0.476717
736.000000	0.476913
737.000000	0.477038
738.000000	0.477062
739.000000	0.477175
740.000000	0.477242
741.000000	0.477301
742.000000	0.477447
743.000000	0.477628
744.000000	0.477753
745.000000	0.477822
746.000000	0.477922
747.000000	0.478012
748.000000	0.478183
749.000000	0.478379
750.000000	0.478503
751.000000	0.478612
752.000000	0.478703
753.000000	0.478811
754.000000	0.478966
755.000000	0.479077
756.000000	0.479186
757.000000	0.479287
758.000000	0.479438
759.000000	0.479623
760.000000	0.479724
761.000000	0.479869
762.000000	0.479973
763.000000	0.480028
764.000000	0.480187
765.000000	0.480272
766.000000	0.480341
767.000000	0.480454
768.000000	0.480538
769.000000	0.480616
770.000000	0.480716
771.000000	0.480846
772.000000	0.481024
773.000000	0.481115
774.000000	0.481153
775.000000	0.481218
776.000000	0.481307
777.000000	0.481374
778.000000	0.481411
779.000000	0.481445
780.000000	0.481491
781.000000	0.481516
782.000000	0.481546
783.000000	0.481680
784.000000	0.481741
785.000000	0.481864
786.000000	0.481910
787.000000	0.481851
788.000000	0.481922
789.000000	0.482012
790.000000	0.482078
791.000000	0.482177
792.000000	0.482261
793.000000	0.482319
794.000000	0.482371
795.000000	0.482480
796.000000	0.482569
797.000000	0.482605
798.000000	0.482613
799.000000	0.482656
800.000000	0.482747
801.000000	0.482870
802.000000	0.482917
803.000000	0.482963
804.000000	0.483083
805.000000	0.483116
806.000000	0.483049
807.000000	0.483045
808.000000	0.483112
809.000000	0.483236
810.000000	0.483373
811.000000	0.483465
812.000000	0.483535
813.000000	0.483563
814.000000	0.483564
815.000000	0.483626
816.000000	0.483603
817.000000	0.483599
818.000000	0.483609
819.000000	0.483658
820.000000	0.483731
821.000000	0.483745
822.000000	0.483777
823.000000	0.483772
824.000000	0.483681
825.000000	0.483660
826.000000	0.483693
827.000000	0.483698
828.000000	0.483692
829.000000	0.483646
830.000000	0.483573
831.000000	0.483582
832.000000	0.483566
833.000000	0.483603
834.000000	0.483652
835.000000	0.483708
836.000000	0.483694
837.000000	0.483636
838.000000	0.483573
839.000000	0.483483
840.000000	0.483417
841.000000	0.483419
842.000000	0.483436
843.000000	0.483402
844.000000	0.483379
845.000000	0.483365
846.000000	0.483420
847.000000	0.483405
848.000000	0.483331
849.000000	0.483315
850.000000	0.483404
851.000000	0.483431
852.000000	0.483401
853.000000	0.483371
854.000000	0.483272
855.000000	0.483276
856.000000	0.483277
857.000000	0.483088
858.000000	0.482968
859.000000	0.482894
860.000000	0.482732
861.000000	0.482681
862.000000	0.482714
863.000000	0.482614
864.000000	0.482590
865.000000	0.482555
866.000000	0.482503
867.000000	0.482495
868.000000	0.482450
869.000000	0.482268
870.000000	0.482055
871.000000	0.481911
872.000000	0.481791
873.000000	0.481620
874.000000	0.481669
875.000000	0.481621
876.000000	0.481474
877.000000	0.481258
878.000000	0.481073
879.000000	0.480987
880.000000	0.480791
881.000000	0.480552
882.000000	0.480455
883.000000	0.480456
884.000000	0.480313
885.000000	0.480115
886.000000	0.479927
887.000000	0.479813
888.000000	0.479699
889.000000	0.479521
890.000000	0.479209
891.000000	0.479067
892.000000	0.479005
893.000000	0.478903
894.000000	0.478852
895.000000	0.478645
896.000000	0.478402
897.000000	0.478172
898.000000	0.477970
899.000000	0.477709
900.000000	0.477482
901.000000	0.477308
902.000000	0.477316
903.000000	0.477300
904.000000	0.477258
905.000000	0.477087
906.000000	0.476952
907.000000	0.476764
908.000000	0.476598
909.000000	0.476418
910.000000	0.476287
911.000000	0.476144
912.000000	0.475957
913.000000	0.475776
914.000000	0.475577
915.000000	0.475418
916.000000	0.475153
917.000000	0.474850
918.000000	0.474656
919.000000	0.474608
920.000000	0.474605
921.000000	0.474533
922.000000	0.474379
923.000000	0.474143
924.000000	0.473807
925.000000	0.473480
926.000000	0.473293
927.000000	0.473207
928.000000	0.473038
929.000000	0.472758
930.000000	0.472449
931.000000	0.472338
932.000000	0.472207
933.000000	0.472005
934.000000	0.471717
935.000000	0.471441
936.000000	0.471268
937.000000	0.471050
938.000000	0.470664
939.000000	0.470465
940.000000	0.470309
941.000000	0.470031
942.000000	0.469726
943.000000	0.469534
944.000000	0.469335
945.000000	0.469247
946.000000	0.469039
947.000000	0.468859
948.000000	0.468756
949.000000	0.468339
950.000000	0.467967
951.000000	0.467666
952.000000	0.467320
953.000000	0.467157
954.000000	0.467029
955.000000	0.466710
956.000000	0.466401
957.000000	0.466219
958.000000	0.466038
959.000000	0.465848
960.000000	0.465656
961.000000	0.465453
962.000000	0.465193
963.000000	0.464880
964.000000	0.464614
965.000000	0.464416
966.000000	0.464128
967.000000	0.464013
968.000000	0.463714
969.000000	0.463277
970.000000	0.463101
971.000000	0.462803
972.000000	0.462528
973.000000	0.462250
974.000000	0.461983
975.000000	0.461750
976.000000	0.461518
977.000000	0.461284
978.000000	0.461212
979.000000	0.461180
980.000000	0.460879
981.000000	0.460720
982.000000	0.460594
983.000000	0.460430
984.000000	0.460294
985.000000	0.460148
986.000000	0.459945
987.000000	0.459855
988.000000	0.459736
989.000000	0.459299
990.000000	0.459140
991.000000	0.459093
992.000000	0.458916
993.000000	0.458994
994.000000	0.458858
995.000000	0.458691
996.000000	0.458531
997.000000	0.458503
998.000000	0.458497
999.000000	0.458515
1000.000000	0.458381
1001.000000	0.458618
1002.000000	0.458487
1003.000000	0.458288
1004.000000	0.458187
1005.000000	0.457822
1006.000000	0.457466
1007.000000	0.457218
1008.000000	0.457344
1009.000000	0.457202
1010.000000	0.456817
1011.000000	0.456722
1012.000000	0.456627
1013.000000	0.456324
1014.000000	0.456382
1015.000000	0.456489
1016.000000	0.456773
1017.000000	0.456859
1018.000000	0.456965
1019.000000	0.457124
1020.000000	0.457582
1021.000000	0.457130
1022.000000	0.456510
1023.000000	0.456542
1024.000000	0.456171
1025.000000	0.456261
1026.000000	0.456795
1027.000000	0.456715
1028.000000	0.456484
1029.000000	0.456566
1030.000000	0.456536
1031.000000	0.456543
1032.000000	0.456824
1033.000000	0.456835
1034.000000	0.456862
1035.000000	0.456916
1036.000000	0.457046
1037.000000	0.457116
1038.000000	0.457149
1039.000000	0.457373
1040.000000	0.457699
1041.000000	0.457891
1042.000000	0.458009
1043.000000	0.458282
1044.000000	0.458467
1045.000000	0.458391
1046.000000	0.458380
1047.000000	0.458555
1048.000000	0.458767
1049.000000	0.458715
1050.000000	0.458724
1051.000000	0.458692
1052.000000	0.458223
1053.000000	0.458111
1054.000000	0.458558
1055.000000	0.458867
1056.000000	0.459270
1057.000000	0.459639
1058.000000	0.459910
1059.000000	0.459870
1060.000000	0.460030
1061.000000	0.460384
1062.000000	0.460554
1063.000000	0.460914
1064.000000	0.461254
1065.000000	0.461473
1066.000000	0.461716
1067.000000	0.462071
1068.000000	0.462236
1069.000000	0.462109
1070.000000	0.462182
1071.000000	0.462376
1072.000000	0.462493
1073.000000	0.462629
1074.000000	0.463037
1075.000000	0.463176
1076.000000	0.463331
1077.000000	0.463463
1078.000000	0.463438
1079.000000	0.463570
1080.000000	0.463765
1081.000000	0.463959
1082.000000	0.464407
1083.000000	0.464663
1084.000000	0.464836
1085.000000	0.465147
1086.000000	0.465479
1087.000000	0.465769
1088.000000	0.465999
1089.000000	0.466183
1090.000000	0.466272
1091.000000	0.466241
1092.000000	0.466362
1093.000000	0.466680
1094.000000	0.466903
1095.000000	0.467084
1096.000000	0.467294
1097.000000	0.467510
1098.000000	0.467741
1099.000000	0.467894
1100.000000	0.468165
1101.000000	0.468489
1102.000000	0.468638
1103.000000	0.468663
1104.000000	0.468821
1105.000000	0.468902
1106.000000	0.469045
1107.000000	0.469296
1108.000000	0.469410
1109.000000	0.469494
1110.000000	0.469590
1111.000000	0.469726
1112.000000	0.469833
1113.000000	0.470067
1114.000000	0.470492
1115.000000	0.470658
1116.000000	0.470785
1117.000000	0.470880
1118.000000	0.470781
1119.000000	0.470714
1120.000000	0.470654
1121.000000	0.470637
1122.000000	0.470749
1123.000000	0.471054
1124.000000	0.471162
1125.000000	0.471316
1126.000000	0.471439
1127.000000	0.471425
1128.000000	0.471344
1129.000000	0.471208
1130.000000	0.471266
1131.000000	0.471370
1132.000000	0.471354
1133.000000	0.471491
1134.000000	0.471605
1135.000000	0.471545
1136.000000	0.471492
1137.000000	0.471520
1138.000000	0.471440
1139.000000	0.471332
1140.000000	0.471348
1141.000000	0.471350
1142.000000	0.471363
1143.000000	0.471327
1144.000000	0.471396
1145.000000	0.471321
1146.000000	0.471049
1147.000000	0.470865
1148.000000	0.470453
1149.000000	0.470296
1150.000000	0.470304
1151.000000	0.470215
1152.000000	0.470111
1153.000000	0.469983
1154.000000	0.469709
1155.000000	0.469494
1156.000000	0.469323
1157.000000	0.469140
1158.000000	0.468902
1159.000000	0.468649
1160.000000	0.468342
1161.000000	0.468071
1162.000000	0.467870
1163.000000	0.467814
1164.000000	0.467717
1165.000000	0.467545
1166.000000	0.467427
1167.000000	0.467251
1168.000000	0.467034
1169.000000	0.466831
1170.000000	0.466693
1171.000000	0.466600
1172.000000	0.466537
1173.000000	0.466507
1174.000000	0.466422
1175.000000	0.466267
1176.000000	0.466078
1177.000000	0.465941
1178.000000	0.465839
1179.000000	0.465752
1180.000000	0.465565
1181.000000	0.465490
1182.000000	0.465378
1183.000000	0.465246
1184.000000	0.465219
1185.000000	0.465154
1186.000000	0.465134
1187.000000	0.465027
1188.000000	0.464885
1189.000000	0.464684
1190.000000	0.464483
1191.000000	0.464311
1192.000000	0.464274
1193.000000	0.464287
1194.000000	0.464153
1195.000000	0.464049
1196.000000	0.463855
1197.000000	0.463707
1198.000000	0.463614
1199.000000	0.463533
1200.000000	0.463463
1201.000000	0.463373
1202.000000	0.463287
1203.000000	0.463215
1204.000000	0.463106
1205.000000	0.463042
1206.000000	0.462928
1207.000000	0.462945
1208.000000	0.462830
1209.000000	0.462748
1210.000000	0.462662
1211.000000	0.462522
1212.000000	0.462416
1213.000000	0.462383
1214.000000	0.462363
1215.000000	0.462353
1216.000000	0.462296
1217.000000	0.462209
1218.000000	0.462087
1219.000000	0.461950
1220.000000	0.461823
1221.000000	0.461762
1222.000000	0.461698
1223.000000	0.461649
1224.000000	0.461668
1225.000000	0.461638
1226.000000	0.461627
1227.000000	0.461604
1228.000000	0.461590
1229.000000	0.461456
1230.000000	0.461177
1231.000000	0.460977
1232.000000	0.460919
1233.000000	0.460939
1234.000000	0.461027
1235.000000	0.461035
1236.000000	0.460887
1237.000000	0.460848
1238.000000	0.460779
1239.000000	0.460705
1240.000000	0.460641
1241.000000	0.460580
1242.000000	0.460514
1243.000000	0.460485
1244.000000	0.460526
1245.000000	0.460674
1246.000000	0.460751
1247.000000	0.460863
1248.000000	0.460982
1249.000000	0.461042
1250.000000	0.461090
1251.000000	0.461181
1252.000000	0.461171
1253.000000	0.461114
1254.000000	0.461072
1255.000000	0.460973
1256.000000	0.460903
1257.000000	0.460888
1258.000000	0.460912
1259.000000	0.460853
1260.000000	0.460899
1261.000000	0.460915
1262.000000	0.460916
1263.000000	0.460990
1264.000000	0.460970
1265.000000	0.460970
1266.000000	0.461004
1267.000000	0.460987
1268.000000	0.460988
1269.000000	0.460882
1270.000000	0.460848
1271.000000	0.460866
1272.000000	0.460881
1273.000000	0.460935
1274.000000	0.460989
1275.000000	0.460984
1276.000000	0.460966
1277.000000	0.461010
1278.000000	0.460932
1279.000000	0.460871
1280.000000	0.460713
1281.000000	0.460566
1282.000000	0.460478
1283.000000	0.460491
1284.000000	0.460454
1285.000000	0.460442
1286.000000	0.460436
1287.000000	0.460438
1288.000000	0.460488
1289.000000	0.460471
1290.000000	0.460375
1291.000000	0.460276
1292.000000	0.460175
1293.000000	0.460112
1294.000000	0.460084
1295.000000	0.460035
1296.000000	0.459947
1297.000000	0.459864
1298.000000	0.459861
1299.000000	0.459854
1300.000000	0.459858
1301.000000	0.459804
1302.000000	0.459636
1303.000000	0.459536
1304.000000	0.459359
1305.000000	0.459206
1306.000000	0.459050
1307.000000	0.458929
1308.000000	0.458876
1309.000000	0.458893
1310.000000	0.458830
1311.000000	0.458839
1312.000000	0.458677
1313.000000	0.458498
1314.000000	0.458347
1315.000000	0.458123
1316.000000	0.458058
1317.000000	0.457991
1318.000000	0.457804
1319.000000	0.457565
1320.000000	0.457352
1321.000000	0.457034
1322.000000	0.456671
1323.000000	0.456441
1324.000000	0.456215
1325.000000	0.455912
1326.000000	0.455586
1327.000000	0.455206
1328.000000	0.454873
1329.000000	0.454447
1330.000000	0.454004
1331.000000	0.453617
1332.000000	0.453322
1333.000000	0.452890
1334.000000	0.452502
1335.000000	0.452162
1336.000000	0.451728
1337.000000	0.451322
1338.000000	0.450944
1339.000000	0.450489
1340.000000	0.449938
1341.000000	0.449438
1342.000000	0.448916
1343.000000	0.448376
1344.000000	0.447811
1345.000000	0.447204
1346.000000	0.446740
1347.000000	0.446102
1348.000000	0.445501
1349.000000	0.444854
1350.000000	0.444153
1351.000000	0.443454
1352.000000	0.442715
1353.000000	0.442035
1354.000000	0.441428
1355.000000	0.440762
1356.000000	0.440250
1357.000000	0.439665
1358.000000	0.439039
1359.000000	0.438497
1360.000000	0.437926
1361.000000	0.437378
1362.000000	0.436849
1363.000000	0.436259
1364.000000	0.435813
1365.000000	0.435431
1366.000000	0.435036
1367.000000	0.434690
1368.000000	0.434328
1369.000000	0.434081
1370.000000	0.433727
1371.000000	0.433296
1372.000000	0.432833
1373.000000	0.432303
1374.000000	0.431761
1375.000000	0.431225
1376.000000	0.430832
1377.000000	0.430382
1378.000000	0.429835
1379.000000	0.429206
1380.000000	0.428520
1381.000000	0.427778
1382.000000	0.427017
1383.000000	0.426367
1384.000000	0.425600
1385.000000	0.424769
1386.000000	0.424059
1387.000000	0.423311
1388.000000	0.422423
1389.000000	0.421525
1390.000000	0.420653
1391.000000	0.419628
1392.000000	0.418688
1393.000000	0.417637
1394.000000	0.416593
1395.000000	0.415433
1396.000000	0.414213
1397.000000	0.412853
1398.000000	0.411362
1399.000000	0.409846
1400.000000	0.408232
1401.000000	0.406523
1402.000000	0.404832
1403.000000	0.402943
1404.000000	0.401076
1405.000000	0.399106
1406.000000	0.397013
1407.000000	0.394985
1408.000000	0.392816
1409.000000	0.390636
1410.000000	0.388437
1411.000000	0.386047
1412.000000	0.383613
1413.000000	0.381136
1414.000000	0.378587
1415.000000	0.376119
1416.000000	0.373598
1417.000000	0.371015
1418.000000	0.368416
1419.000000	0.365865
1420.000000	0.363243
1421.000000	0.360686
1422.000000	0.358167
1423.000000	0.355707
1424.000000	0.353161
1425.000000	0.350693
1426.000000	0.348210
1427.000000	0.345699
1428.000000	0.343290
1429.000000	0.340887
1430.000000	0.338501
1431.000000	0.336194
1432.000000	0.333909
1433.000000	0.331686
1434.000000	0.329496
1435.000000	0.327420
1436.000000	0.325364
1437.000000	0.323343
1438.000000	0.321306
1439.000000	0.319334
1440.000000	0.317420
1441.000000	0.315501
1442.000000	0.313700
1443.000000	0.311934
1444.000000	0.310195
1445.000000	0.308527
1446.000000	0.306953
1447.000000	0.305378
1448.000000	0.303887
1449.000000	0.302493
1450.000000	0.301153
1451.000000	0.299960
1452.000000	0.298811
1453.000000	0.297718
1454.000000	0.296697
1455.000000	0.295722
1456.000000	0.294881
1457.000000	0.294104
1458.000000	0.293359
1459.000000	0.292667
1460.000000	0.292012
1461.000000	0.291383
1462.000000	0.290756
1463.000000	0.290124
1464.000000	0.289532
1465.000000	0.289006
1466.000000	0.288488
1467.000000	0.288004
1468.000000	0.287584
1469.000000	0.287233
1470.000000	0.286845
1471.000000	0.286530
1472.000000	0.286255
1473.000000	0.286047
1474.000000	0.285846
1475.000000	0.285711
1476.000000	0.285646
1477.000000	0.285609
1478.000000	0.285659
1479.000000	0.285744
1480.000000	0.285829
1481.000000	0.285938
1482.000000	0.286116
1483.000000	0.286324
1484.000000	0.286557
1485.000000	0.286805
1486.000000	0.287056
1487.000000	0.287368
1488.000000	0.287747
1489.000000	0.288151
1490.000000	0.288487
1491.000000	0.288903
1492.000000	0.289278
1493.000000	0.289752
1494.000000	0.290293
1495.000000	0.290825
1496.000000	0.291417
1497.000000	0.291987
1498.000000	0.292574
1499.000000	0.293123
1500.000000	0.293717
1501.000000	0.294308
1502.000000	0.294916
1503.000000	0.295574
1504.000000	0.296222
1505.000000	0.296851
1506.000000	0.297485
1507.000000	0.298099
1508.000000	0.298757
1509.000000	0.299436
1510.000000	0.300054
1511.000000	0.300694
1512.000000	0.301290
1513.000000	0.301851
1514.000000	0.302514
1515.000000	0.303113
1516.000000	0.303736
1517.000000	0.304359
1518.000000	0.304908
1519.000000	0.305437
1520.000000	0.305980
1521.000000	0.306453
1522.000000	0.306967
1523.000000	0.307564
1524.000000	0.308096
1525.000000	0.308627
1526.000000	0.309109
1527.000000	0.309562
1528.000000	0.310048
1529.000000	0.310485
1530.000000	0.310852
1531.000000	0.311283
1532.000000	0.311697
1533.000000	0.312055
1534.000000	0.312472
1535.000000	0.312864
1536.000000	0.313124
1537.000000	0.313492
1538.000000	0.313855
1539.000000	0.314083
1540.000000	0.314375
1541.000000	0.314692
1542.000000	0.314927
1543.000000	0.315141
1544.000000	0.315342
1545.000000	0.315553
1546.000000	0.315764
1547.000000	0.315985
1548.000000	0.316201
1549.000000	0.316332
1550.000000	0.316411
1551.000000	0.316564
1552.000000	0.316772
1553.000000	0.316932
1554.000000	0.317125
1555.000000	0.317358
1556.000000	0.317541
1557.000000	0.317707
1558.000000	0.317881
1559.000000	0.318005
1560.000000	0.318082
1561.000000	0.318165
1562.000000	0.318221
1563.000000	0.318271
1564.000000	0.318330
1565.000000	0.318398
1566.000000	0.318365
1567.000000	0.318380
1568.000000	0.318374
1569.000000	0.318384
1570.000000	0.318366
1571.000000	0.318336
1572.000000	0.318276
1573.000000	0.318196
1574.000000	0.318107
1575.000000	0.318010
1576.000000	0.317935
1577.000000	0.317828
1578.000000	0.317731
1579.000000	0.317738
1580.000000	0.317654
1581.000000	0.317595
1582.000000	0.317503
1583.000000	0.317353
1584.000000	0.317169
1585.000000	0.317044
1586.000000	0.316918
1587.000000	0.316757
1588.000000	0.316602
1589.000000	0.316478
1590.000000	0.316326
1591.000000	0.316166
1592.000000	0.316029
1593.000000	0.315927
1594.000000	0.315786
1595.000000	0.315686
1596.000000	0.315573
1597.000000	0.315474
1598.000000	0.315365
1599.000000	0.315283
1600.000000	0.315138
1601.000000	0.315026
1602.000000	0.314915
1603.000000	0.314807
1604.000000	0.314710
1605.000000	0.314651
1606.000000	0.314568
1607.000000	0.314556
1608.000000	0.314468
1609.000000	0.314395
1610.000000	0.314299
1611.000000	0.314140
1612.000000	0.314074
1613.000000	0.314152
1614.000000	0.314165
1615.000000	0.314263
1616.000000	0.314348
1617.000000	0.314356
1618.000000	0.314400
1619.000000	0.314437
1620.000000	0.314518
1621.000000	0.314644
1622.000000	0.314857
1623.000000	0.315123
1624.000000	0.315326
1625.000000	0.315410
1626.000000	0.315505
1627.000000	0.315576
1628.000000	0.315752
1629.000000	0.315974
1630.000000	0.316196
1631.000000	0.316404
1632.000000	0.316566
1633.000000	0.316690
1634.000000	0.316906
1635.000000	0.317186
1636.000000	0.317445
1637.000000	0.317797
1638.000000	0.318052
1639.000000	0.318291
1640.000000	0.318538
1641.000000	0.318822
1642.000000	0.319114
1643.000000	0.319466
1644.000000	0.319763
1645.000000	0.320046
1646.000000	0.320274
1647.000000	0.320466
1648.000000	0.320686
1649.000000	0.320977
1650.000000	0.321322
1651.000000	0.321762
1652.000000	0.322166
1653.000000	0.322532
1654.000000	0.322944
1655.000000	0.323308
1656.000000	0.323621
1657.000000	0.324053
1658.000000	0.324363
1659.000000	0.324679
1660.000000	0.325008
1661.000000	0.325194
1662.000000	0.325505
1663.000000	0.325826
1664.000000	0.326182
1665.000000	0.326612
1666.000000	0.327036
1667.000000	0.327394
1668.000000	0.327741
1669.000000	0.328053
1670.000000	0.328339
1671.000000	0.328703
1672.000000	0.329071
1673.000000	0.329406
1674.000000	0.329726
1675.000000	0.330119
1676.000000	0.330492
1677.000000	0.330790
1678.000000	0.331042
1679.000000	0.331328
1680.000000	0.331590
1681.000000	0.331865
1682.000000	0.332205
1683.000000	0.332510
1684.000000	0.332791
1685.000000	0.333101
1686.000000	0.333344
1687.000000	0.333622
1688.000000	0.333861
1689.000000	0.334092
1690.000000	0.334299
1691.000000	0.334591
1692.000000	0.334891
1693.000000	0.335194
1694.000000	0.335519
1695.000000	0.335865
1696.000000	0.336193
1697.000000	0.336454
1698.000000	0.336741
1699.000000	0.337081
1700.000000	0.337415
1701.000000	0.337825
1702.000000	0.338129
1703.000000	0.338404
1704.000000	0.338753
1705.000000	0.339071
1706.000000	0.339443
1707.000000	0.339766
1708.000000	0.340007
1709.000000	0.340207
1710.000000	0.340466
1711.000000	0.340723
1712.000000	0.340968
1713.000000	0.341224
1714.000000	0.341516
1715.000000	0.341833
1716.000000	0.342216
1717.000000	0.342543
1718.000000	0.342818
1719.000000	0.343110
1720.000000	0.343436
1721.000000	0.343758
1722.000000	0.344120
1723.000000	0.344445
1724.000000	0.344769
1725.000000	0.345097
1726.000000	0.345302
1727.000000	0.345587
1728.000000	0.345821
1729.000000	0.346050
1730.000000	0.346458
1731.000000	0.346800
1732.000000	0.347147
1733.000000	0.347529
1734.000000	0.347760
1735.000000	0.348086
1736.000000	0.348408
1737.000000	0.348734
1738.000000	0.349114
1739.000000	0.349480
1740.000000	0.349821
1741.000000	0.350154
1742.000000	0.350503
1743.000000	0.350914
1744.000000	0.351317
1745.000000	0.351663
1746.000000	0.352021
1747.000000	0.352335
1748.000000	0.352600
1749.000000	0.352865
1750.000000	0.353136
1751.000000	0.353526
1752.000000	0.353987
1753.000000	0.354372
1754.000000	0.354755
1755.000000	0.355100
1756.000000	0.355401
1757.000000	0.355654
1758.000000	0.355964
1759.000000	0.356277
1760.000000	0.356540
1761.000000	0.356745
1762.000000	0.356983
1763.000000	0.357209
1764.000000	0.357448
1765.000000	0.357682
1766.000000	0.357967
1767.000000	0.358196
1768.000000	0.358370
1769.000000	0.358645
1770.000000	0.358978
1771.000000	0.359231
1772.000000	0.359516
1773.000000	0.359823
1774.000000	0.360151
1775.000000	0.360515
1776.000000	0.360904
1777.000000	0.361348
1778.000000	0.361702
1779.000000	0.361976
1780.000000	0.362328
1781.000000	0.362640
1782.000000	0.362968
1783.000000	0.363367
1784.000000	0.363837
1785.000000	0.364215
1786.000000	0.364718
1787.000000	0.365354
1788.000000	0.365903
1789.000000	0.366343
1790.000000	0.366678
1791.000000	0.367021
1792.000000	0.367421
1793.000000	0.367829
1794.000000	0.368289
1795.000000	0.368783
1796.000000	0.369315
1797.000000	0.369758
1798.000000	0.370163
1799.000000	0.370565
1800.000000	0.370948
1801.000000	0.369927
1802.000000	0.370537
1803.000000	0.371212
1804.000000	0.371870
1805.000000	0.372784
1806.000000	0.373360
1807.000000	0.373847
1808.000000	0.374195
1809.000000	0.374144
1810.000000	0.374354
1811.000000	0.374619
1812.000000	0.374895
1813.000000	0.375134
1814.000000	0.375540
1815.000000	0.375852
1816.000000	0.376072
1817.000000	0.376177
1818.000000	0.376276
1819.000000	0.376633
1820.000000	0.376819
1821.000000	0.376894
1822.000000	0.376968
1823.000000	0.376886
1824.000000	0.376871
1825.000000	0.376647
1826.000000	0.376763
1827.000000	0.376931
1828.000000	0.377154
1829.000000	0.377515
1830.000000	0.377726
1831.000000	0.377807
1832.000000	0.377714
1833.000000	0.377676
1834.000000	0.377663
1835.000000	0.377471
1836.000000	0.376972
1837.000000	0.376686
1838.000000	0.376284
1839.000000	0.375748
1840.000000	0.375346
1841.000000	0.375211
1842.000000	0.374814
1843.000000	0.374013
1844.000000	0.373764
1845.000000	0.373702
1846.000000	0.373541
1847.000000	0.373511
1848.000000	0.373284
1849.000000	0.372960
1850.000000	0.372068
1851.000000	0.371430
1852.000000	0.370787
1853.000000	0.370103
1854.000000	0.369233
1855.000000	0.368230
1856.000000	0.367073
1857.000000	0.365649
1858.000000	0.364362
1859.000000	0.362846
1860.000000	0.361096
1861.000000	0.359614
1862.000000	0.357903
1863.000000	0.356040
1864.000000	0.354329
1865.000000	0.352803
1866.000000	0.350855
1867.000000	0.348762
1868.000000	0.346488
1869.000000	0.343822
1870.000000	0.341174
1871.000000	0.338447
1872.000000	0.335793
1873.000000	0.333194
1874.000000	0.330680
1875.000000	0.327972
1876.000000	0.325127
1877.000000	0.321867
1878.000000	0.318257
1879.000000	0.314499
1880.000000	0.310850
1881.000000	0.307040
1882.000000	0.303031
1883.000000	0.299070
1884.000000	0.295085
1885.000000	0.290694
1886.000000	0.286338
1887.000000	0.282050
1888.000000	0.277498
1889.000000	0.272600
1890.000000	0.267945
1891.000000	0.263317
1892.000000	0.258607
1893.000000	0.254000
1894.000000	0.249241
1895.000000	0.244234
1896.000000	0.239168
1897.000000	0.233983
1898.000000	0.228656
1899.000000	0.223582
1900.000000	0.218588
1901.000000	0.213697
1902.000000	0.208865
1903.000000	0.204028
1904.000000	0.199566
1905.000000	0.195185
1906.000000	0.190633
1907.000000	0.186090
1908.000000	0.181750
1909.000000	0.177462
1910.000000	0.173149
1911.000000	0.169057
1912.000000	0.165060
1913.000000	0.161176
1914.000000	0.157382
1915.000000	0.153754
1916.000000	0.150626
1917.000000	0.147355
1918.000000	0.144153
1919.000000	0.140990
1920.000000	0.138149
1921.000000	0.135408
1922.000000	0.132978
1923.000000	0.130945
1924.000000	0.128991
1925.000000	0.127183
1926.000000	0.125598
1927.000000	0.124153
1928.000000	0.122678
1929.000000	0.121316
1930.000000	0.119904
1931.000000	0.118686
1932.000000	0.117715
1933.000000	0.116909
1934.000000	0.116207
1935.000000	0.115528
1936.000000	0.114734
1937.000000	0.113919
1938.000000	0.113097
1939.000000	0.112374
1940.000000	0.111663
1941.000000	0.111112
1942.000000	0.110462
1943.000000	0.109943
1944.000000	0.109442
1945.000000	0.108842
1946.000000	0.108719
1947.000000	0.108759
1948.000000	0.108666
1949.000000	0.108617
1950.000000	0.108442
1951.000000	0.108116
1952.000000	0.107600
1953.000000	0.107134
1954.000000	0.106826
1955.000000	0.106550
1956.000000	0.106292
1957.000000	0.106275
1958.000000	0.106140
1959.000000	0.105885
1960.000000	0.105730
1961.000000	0.105465
1962.000000	0.105322
1963.000000	0.105293
1964.000000	0.105225
1965.000000	0.105063
1966.000000	0.105142
1967.000000	0.105051
1968.000000	0.104974
1969.000000	0.105091
1970.000000	0.105130
1971.000000	0.105146
1972.000000	0.105183
1973.000000	0.105092
1974.000000	0.104772
1975.000000	0.104781
1976.000000	0.104836
1977.000000	0.105053
1978.000000	0.105582
1979.000000	0.106239
1980.000000	0.106626
1981.000000	0.106946
1982.000000	0.107176
1983.000000	0.107452
1984.000000	0.107768
1985.000000	0.108273
1986.000000	0.108560
1987.000000	0.108760
1988.000000	0.108977
1989.000000	0.109408
1990.000000	0.109808
1991.000000	0.110436
1992.000000	0.111321
1993.000000	0.111845
1994.000000	0.112536
1995.000000	0.113338
1996.000000	0.113772
1997.000000	0.114323
1998.000000	0.114923
1999.000000	0.115528
2000.000000	0.116063
2001.000000	0.116777
2002.000000	0.117422
2003.000000	0.118051
2004.000000	0.118859
2005.000000	0.119651
2006.000000	0.120647
2007.000000	0.121814
2008.000000	0.122731
2009.000000	0.123421
2010.000000	0.124346
2011.000000	0.125136
2012.000000	0.126050
2013.000000	0.127101
2014.000000	0.128227
2015.000000	0.129229
2016.000000	0.130236
2017.000000	0.131108
2018.000000	0.131973
2019.000000	0.132967
2020.000000	0.133966
2021.000000	0.134893
2022.000000	0.135746
2023.000000	0.136758
2024.000000	0.137770
2025.000000	0.138868
2026.000000	0.140094
2027.000000	0.141339
2028.000000	0.142335
2029.000000	0.143183
2030.000000	0.144016
2031.000000	0.144794
2032.000000	0.145702
2033.000000	0.146845
2034.000000	0.147860
2035.000000	0.148978
2036.000000	0.149987
2037.000000	0.151005
2038.000000	0.151944
2039.000000	0.152834
2040.000000	0.153823
2041.000000	0.154695
2042.000000	0.155697
2043.000000	0.156773
2044.000000	0.157665
2045.000000	0.158503
2046.000000	0.159396
2047.000000	0.160350
2048.000000	0.161274
2049.000000	0.162301
2050.000000	0.163336
2051.000000	0.164167
2052.000000	0.164880
2053.000000	0.165537
2054.000000	0.166110
2055.000000	0.166839
2056.000000	0.167708
2057.000000	0.168427
2058.000000	0.169249
2059.000000	0.170116
2060.000000	0.171080
2061.000000	0.172129
2062.000000	0.173121
2063.000000	0.174319
2064.000000	0.175223
2065.000000	0.176102
2066.000000	0.176891
2067.000000	0.177619
2068.000000	0.178484
2069.000000	0.179694
2070.000000	0.180712
2071.000000	0.181789
2072.000000	0.183125
2073.000000	0.184106
2074.000000	0.185104
2075.000000	0.186155
2076.000000	0.187255
2077.000000	0.188276
2078.000000	0.189242
2079.000000	0.190237
2080.000000	0.191226
2081.000000	0.192314
2082.000000	0.193377
2083.000000	0.194669
2084.000000	0.196104
2085.000000	0.197401
2086.000000	0.198759
2087.000000	0.200022
2088.000000	0.201109
2089.000000	0.202383
2090.000000	0.203683
2091.000000	0.205133
2092.000000	0.206461
2093.000000	0.207916
2094.000000	0.209155
2095.000000	0.210180
2096.000000	0.211315
2097.000000	0.212461
2098.000000	0.213352
2099.000000	0.214270
2100.000000	0.215326
2101.000000	0.216258
2102.000000	0.217322
2103.000000	0.218342
2104.000000	0.219535
2105.000000	0.220650
2106.000000	0.221702
2107.000000	0.222789
2108.000000	0.223821
2109.000000	0.225021
2110.000000	0.226280
2111.000000	0.227458
2112.000000	0.228731
2113.000000	0.229637
2114.000000	0.230564
2115.000000	0.231389
2116.000000	0.232095
2117.000000	0.232823
2118.000000	0.233456
2119.000000	0.234100
2120.000000	0.234999
2121.000000	0.236120
2122.000000	0.237112
2123.000000	0.238327
2124.000000	0.239269
2125.000000	0.240079
2126.000000	0.240825
2127.000000	0.241435
2128.000000	0.242094
2129.000000	0.242635
2130.000000	0.243113
2131.000000	0.243487
2132.000000	0.244016
2133.000000	0.244854
2134.000000	0.245883
2135.000000	0.246831
2136.000000	0.247998
2137.000000	0.248630
2138.000000	0.248711
2139.000000	0.249145
2140.000000	0.249357
2141.000000	0.249777
2142.000000	0.250575
2143.000000	0.250924
2144.000000	0.251316
2145.000000	0.251690
2146.000000	0.251947
2147.000000	0.252362
2148.000000	0.252696
2149.000000	0.253099
2150.000000	0.253765
2151.000000	0.254336
2152.000000	0.254817
2153.000000	0.255374
2154.000000	0.255742
2155.000000	0.255785
2156.000000	0.256109
2157.000000	0.256603
2158.000000	0.257008
2159.000000	0.257507
2160.000000	0.258078
2161.000000	0.258597
2162.000000	0.259147
2163.000000	0.259846
2164.000000	0.260230
2165.000000	0.260384
2166.000000	0.260597
2167.000000	0.260778
2168.000000	0.260874
2169.000000	0.260954
2170.000000	0.261129
2171.000000	0.261317
2172.000000	0.261499
2173.000000	0.261605
2174.000000	0.261786
2175.000000	0.261808
2176.000000	0.261516
2177.000000	0.261570
2178.000000	0.261805
2179.000000	0.262187
2180.000000	0.262813
2181.000000	0.263489
2182.000000	0.263854
2183.000000	0.264086
2184.000000	0.264477
2185.000000	0.264378
2186.000000	0.264188
2187.000000	0.264263
2188.000000	0.264223
2189.000000	0.264188
2190.000000	0.264266
2191.000000	0.264753
2192.000000	0.265040
2193.000000	0.265385
2194.000000	0.265517
2195.000000	0.265549
2196.000000	0.265742
2197.000000	0.265596
2198.000000	0.265960
2199.000000	0.267250
2200.000000	0.267891
2201.000000	0.268391
2202.000000	0.268867
2203.000000	0.269207
2204.000000	0.268341
2205.000000	0.267866
2206.000000	0.268254
2207.000000	0.268469
2208.000000	0.269533
2209.000000	0.270392
2210.000000	0.271556
2211.000000	0.272892
2212.000000	0.273886
2213.000000	0.274391
2214.000000	0.274578
2215.000000	0.274608
2216.000000	0.274167
2217.000000	0.273703
2218.000000	0.272707
2219.000000	0.272884
2220.000000	0.273174
2221.000000	0.273639
2222.000000	0.275436
2223.000000	0.276249
2224.000000	0.276484
2225.000000	0.277136
2226.000000	0.276042
2227.000000	0.275430
2228.000000	0.275755
2229.000000	0.274556
2230.000000	0.274843
2231.000000	0.275326
2232.000000	0.274604
2233.000000	0.274831
2234.000000	0.274954
2235.000000	0.275131
2236.000000	0.275375
2237.000000	0.275711
2238.000000	0.275943
2239.000000	0.276076
2240.000000	0.276638
2241.000000	0.277675
2242.000000	0.277953
2243.000000	0.278060
2244.000000	0.278036
2245.000000	0.276879
2246.000000	0.276965
2247.000000	0.277671
2248.000000	0.278606
2249.000000	0.280928
2250.000000	0.282043
2251.000000	0.281421
2252.000000	0.280907
2253.000000	0.278886
2254.000000	0.276436
2255.000000	0.275405
2256.000000	0.274844
2257.000000	0.274635
2258.000000	0.274919
2259.000000	0.274623
2260.000000	0.273946
2261.000000	0.273374
2262.000000	0.272222
2263.000000	0.271883
2264.000000	0.272013
2265.000000	0.272279
2266.000000	0.273216
2267.000000	0.273210
2268.000000	0.273156
2269.000000	0.272803
2270.000000	0.271375
2271.000000	0.270729
2272.000000	0.270626
2273.000000	0.270200
2274.000000	0.269742
2275.000000	0.269403
2276.000000	0.269449
2277.000000	0.268148
2278.000000	0.267208
2279.000000	0.266395
2280.000000	0.265084
2281.000000	0.264493
2282.000000	0.262920
2283.000000	0.261149
2284.000000	0.259731
2285.000000	0.257936
2286.000000	0.257340
2287.000000	0.257058
2288.000000	0.256726
2289.000000	0.255654
2290.000000	0.253741
2291.000000	0.252549
2292.000000	0.251075
2293.000000	0.249397
2294.000000	0.248093
2295.000000	0.246922
2296.000000	0.245884
2297.000000	0.245156
2298.000000	0.244369
2299.000000	0.243816
2300.000000	0.243148
2301.000000	0.242303
2302.000000	0.241504
2303.000000	0.240906
2304.000000	0.239781
2305.000000	0.238420
2306.000000	0.237121
2307.000000	0.235339
2308.000000	0.233933
2309.000000	0.233070
2310.000000	0.231967
2311.000000	0.230991
2312.000000	0.229975
2313.000000	0.228054
2314.000000	0.225353
2315.000000	0.223431
2316.000000	0.221776
2317.000000	0.220252
2318.000000	0.220236
2319.000000	0.220126
2320.000000	0.219237
2321.000000	0.218954
2322.000000	0.217916
2323.000000	0.215983
2324.000000	0.214176
2325.000000	0.211772
2326.000000	0.209590
2327.000000	0.208347
2328.000000	0.207714
2329.000000	0.207319
2330.000000	0.206680
2331.000000	0.205932
2332.000000	0.204639
2333.000000	0.202783
2334.000000	0.200755
2335.000000	0.199038
2336.000000	0.196697
2337.000000	0.194326
2338.000000	0.192275
2339.000000	0.190257
2340.000000	0.187383
2341.000000	0.185770
2342.000000	0.185226
2343.000000	0.184176
2344.000000	0.183411
2345.000000	0.182245
2346.000000	0.180851
2347.000000	0.179471
2348.000000	0.177729
2349.000000	0.177185
2350.000000	0.175507
2351.000000	0.174404
2352.000000	0.173597
2353.000000	0.172745
2354.000000	0.172612
2355.000000	0.171664
2356.000000	0.169914
2357.000000	0.167319
2358.000000	0.164631
2359.000000	0.161644
2360.000000	0.158960
2361.000000	0.157756
2362.000000	0.155891
2363.000000	0.154619
2364.000000	0.153259
2365.000000	0.151167
2366.000000	0.149722
2367.000000	0.147661
2368.000000	0.146387
2369.000000	0.144815
2370.000000	0.142353
2371.000000	0.142065
2372.000000	0.142794
2373.000000	0.143663
2374.000000	0.144579
2375.000000	0.144311
2376.000000	0.142826
2377.000000	0.140830
2378.000000	0.140014
2379.000000	0.139421
2380.000000	0.137797
2381.000000	0.136229
2382.000000	0.133717
2383.000000	0.131716
2384.000000	0.131471
2385.000000	0.131107
2386.000000	0.130827
2387.000000	0.129246
2388.000000	0.126804
2389.000000	0.124894
2390.000000	0.123632
2391.000000	0.122829
2392.000000	0.120972
2393.000000	0.120661
2394.000000	0.120182
2395.000000	0.119843
2396.000000	0.122597
2397.000000	0.124022
2398.000000	0.123875
2399.000000	0.123765
2400.000000	0.122486
2401.000000	0.121442
2402.000000	0.121625
2403.000000	0.121453
2404.000000	0.121411
2405.000000	0.119915
2406.000000	0.116680
2407.000000	0.114695
2408.000000	0.114591
2409.000000	0.114808
2410.000000	0.115326
2411.000000	0.116451
2412.000000	0.114872
2413.000000	0.114000
2414.000000	0.114456
2415.000000	0.113197
2416.000000	0.113342
2417.000000	0.114169
2418.000000	0.113462
2419.000000	0.112433
2420.000000	0.111488
2421.000000	0.108648
2422.000000	0.105597
2423.000000	0.105205
2424.000000	0.105995
2425.000000	0.105102
2426.000000	0.105302
2427.000000	0.105610
2428.000000	0.104285
2429.000000	0.107381
2430.000000	0.110585
2431.000000	0.111791
2432.000000	0.114020
2433.000000	0.113328
2434.000000	0.111289
2435.000000	0.109775
2436.000000	0.109446
2437.000000	0.111983
2438.000000	0.114380
2439.000000	0.115419
2440.000000	0.115301
2441.000000	0.111916
2442.000000	0.110320
2443.000000	0.110902
2444.000000	0.109596
2445.000000	0.111118
2446.000000	0.108938
2447.000000	0.102131
2448.000000	0.098423
2449.000000	0.093965
2450.000000	0.093765
2451.000000	0.100735
2452.000000	0.105120
2453.000000	0.105517
2454.000000	0.103906
2455.000000	0.102183
2456.000000	0.099650
2457.000000	0.099148
2458.000000	0.101772
2459.000000	0.098981
2460.000000	0.096804
2461.000000	0.096172
2462.000000	0.097039
2463.000000	0.101246
2464.000000	0.104697
2465.000000	0.105913
2466.000000	0.103480
2467.000000	0.100630
2468.000000	0.093918
2469.000000	0.088266
2470.000000	0.082047
2471.000000	0.065337
2472.000000	0.057819
2473.000000	0.061106
2474.000000	0.065452
2475.000000	0.080360
2476.000000	0.087957
2477.000000	0.087580
2478.000000	0.088344
2479.000000	0.078900
2480.000000	0.078464
2481.000000	0.077217
2482.000000	0.070321
2483.000000	0.080454
2484.000000	0.087752
2485.000000	0.085818
2486.000000	0.091247
2487.000000	0.093156
2488.000000	0.087384
2489.000000	0.091568
2490.000000	0.084716
2491.000000	0.073557
2492.000000	0.063371
2493.000000	0.049014
2494.000000	0.045244
2495.000000	0.039177
2496.000000	0.041890
2497.000000	0.065377
2498.000000	0.071402
2499.000000	0.080251
2500.000000	0.080666
