# Wavelength	Hexa90_00000.asd.rts.txt
350.000000	0.359568
351.000000	0.356302
352.000000	0.360134
353.000000	0.362109
354.000000	0.361861
355.000000	0.362260
356.000000	0.364427
357.000000	0.367917
358.000000	0.364588
359.000000	0.364028
360.000000	0.366739
361.000000	0.369924
362.000000	0.369366
363.000000	0.370004
364.000000	0.373480
365.000000	0.376110
366.000000	0.375749
367.000000	0.373291
368.000000	0.373400
369.000000	0.375696
370.000000	0.377890
371.000000	0.377426
372.000000	0.375604
373.000000	0.375189
374.000000	0.377719
375.000000	0.378414
376.000000	0.378703
377.000000	0.378986
378.000000	0.379185
379.000000	0.379916
380.000000	0.380364
381.000000	0.380726
382.000000	0.381081
383.000000	0.381010
384.000000	0.380880
385.000000	0.381877
386.000000	0.382698
387.000000	0.383313
388.000000	0.384486
389.000000	0.385278
390.000000	0.385905
391.000000	0.386473
392.000000	0.386916
393.000000	0.386911
394.000000	0.386592
395.000000	0.387754
396.000000	0.389086
397.000000	0.389768
398.000000	0.389606
399.000000	0.390128
400.000000	0.391044
401.000000	0.391111
402.000000	0.391601
403.000000	0.392172
404.000000	0.392617
405.000000	0.393214
406.000000	0.393894
407.000000	0.394564
408.000000	0.394831
409.000000	0.395050
410.000000	0.395423
411.000000	0.396007
412.000000	0.396109
413.000000	0.396291
414.000000	0.397175
415.000000	0.397825
416.000000	0.398042
417.000000	0.398011
418.000000	0.398633
419.000000	0.399248
420.000000	0.399615
421.000000	0.399767
422.000000	0.400085
423.000000	0.400537
424.000000	0.401071
425.000000	0.401462
426.000000	0.401719
427.000000	0.401924
428.000000	0.402429
429.000000	0.402929
430.000000	0.403260
431.000000	0.403343
432.000000	0.403652
433.000000	0.403982
434.000000	0.404016
435.000000	0.404198
436.000000	0.404449
437.000000	0.404616
438.000000	0.404917
439.000000	0.405062
440.000000	0.405160
441.000000	0.405598
442.000000	0.406001
443.000000	0.406162
444.000000	0.406251
445.000000	0.406472
446.000000	0.406901
447.000000	0.407255
448.000000	0.407646
449.000000	0.408007
450.000000	0.408288
451.000000	0.408424
452.000000	0.408615
453.000000	0.408844
454.000000	0.409235
455.000000	0.409617
456.000000	0.410052
457.000000	0.410390
458.000000	0.410648
459.000000	0.410937
460.000000	0.411365
461.000000	0.411468
462.000000	0.411748
463.000000	0.412118
464.000000	0.412242
465.000000	0.412555
466.000000	0.412925
467.000000	0.413092
468.000000	0.413332
469.000000	0.413531
470.000000	0.413775
471.000000	0.413995
472.000000	0.414186
473.000000	0.414416
474.000000	0.414780
475.000000	0.414901
476.000000	0.415008
477.000000	0.415423
478.000000	0.415594
479.000000	0.415828
480.000000	0.416167
481.000000	0.416432
482.000000	0.416762
483.000000	0.416955
484.000000	0.417267
485.000000	0.417466
486.000000	0.417717
487.000000	0.417938
488.000000	0.418117
489.000000	0.418343
490.000000	0.418741
491.000000	0.419033
492.000000	0.419354
493.000000	0.419681
494.000000	0.419895
495.000000	0.420173
496.000000	0.420552
497.000000	0.420939
498.000000	0.421227
499.000000	0.421510
500.000000	0.421814
501.000000	0.422069
502.000000	0.422363
503.000000	0.422694
504.000000	0.422946
505.000000	0.423184
506.000000	0.423486
507.000000	0.423725
508.000000	0.424050
509.000000	0.424452
510.000000	0.424814
511.000000	0.425115
512.000000	0.425421
513.000000	0.425776
514.000000	0.426098
515.000000	0.426429
516.000000	0.426739
517.000000	0.427024
518.000000	0.427383
519.000000	0.427735
520.000000	0.428070
521.000000	0.428359
522.000000	0.428630
523.000000	0.428975
524.000000	0.429304
525.000000	0.429589
526.000000	0.429910
527.000000	0.430227
528.000000	0.430516
529.000000	0.430838
530.000000	0.431090
531.000000	0.431426
532.000000	0.431774
533.000000	0.432034
534.000000	0.432323
535.000000	0.432648
536.000000	0.432977
537.000000	0.433274
538.000000	0.433553
539.000000	0.433826
540.000000	0.434095
541.000000	0.434361
542.000000	0.434669
543.000000	0.434930
544.000000	0.435240
545.000000	0.435537
546.000000	0.435843
547.000000	0.436190
548.000000	0.436588
549.000000	0.436877
550.000000	0.437209
551.000000	0.437581
552.000000	0.437872
553.000000	0.438205
554.000000	0.438544
555.000000	0.438872
556.000000	0.439265
557.000000	0.439600
558.000000	0.440011
559.000000	0.440353
560.000000	0.440651
561.000000	0.441020
562.000000	0.441378
563.000000	0.441668
564.000000	0.441995
565.000000	0.442303
566.000000	0.442661
567.000000	0.443024
568.000000	0.443333
569.000000	0.443645
570.000000	0.443941
571.000000	0.444229
572.000000	0.444578
573.000000	0.444937
574.000000	0.445273
575.000000	0.445650
576.000000	0.446039
577.000000	0.446353
578.000000	0.446648
579.000000	0.447022
580.000000	0.447367
581.000000	0.447645
582.000000	0.447936
583.000000	0.448256
584.000000	0.448597
585.000000	0.448939
586.000000	0.449250
587.000000	0.449548
588.000000	0.449875
589.000000	0.450282
590.000000	0.450694
591.000000	0.451060
592.000000	0.451395
593.000000	0.451714
594.000000	0.452018
595.000000	0.452299
596.000000	0.452509
597.000000	0.452726
598.000000	0.452911
599.000000	0.453045
600.000000	0.453251
601.000000	0.453486
602.000000	0.453666
603.000000	0.453854
604.000000	0.454092
605.000000	0.454349
606.000000	0.454509
607.000000	0.454604
608.000000	0.454765
609.000000	0.454971
610.000000	0.455204
611.000000	0.455435
612.000000	0.455608
613.000000	0.455759
614.000000	0.455953
615.000000	0.456080
616.000000	0.456141
617.000000	0.456157
618.000000	0.456344
619.000000	0.456549
620.000000	0.456708
621.000000	0.456883
622.000000	0.457074
623.000000	0.457286
624.000000	0.457520
625.000000	0.457772
626.000000	0.458029
627.000000	0.458312
628.000000	0.458703
629.000000	0.459151
630.000000	0.459452
631.000000	0.459767
632.000000	0.460051
633.000000	0.460335
634.000000	0.460616
635.000000	0.460824
636.000000	0.460982
637.000000	0.461090
638.000000	0.461183
639.000000	0.461273
640.000000	0.461428
641.000000	0.461510
642.000000	0.461616
643.000000	0.461767
644.000000	0.461955
645.000000	0.462099
646.000000	0.462236
647.000000	0.462363
648.000000	0.462503
649.000000	0.462660
650.000000	0.462816
651.000000	0.463023
652.000000	0.463176
653.000000	0.463338
654.000000	0.463509
655.000000	0.463723
656.000000	0.463957
657.000000	0.464116
658.000000	0.464347
659.000000	0.464587
660.000000	0.464781
661.000000	0.464988
662.000000	0.465166
663.000000	0.465370
664.000000	0.465543
665.000000	0.465738
666.000000	0.465936
667.000000	0.466069
668.000000	0.466259
669.000000	0.466476
670.000000	0.466691
671.000000	0.466859
672.000000	0.467032
673.000000	0.467217
674.000000	0.467423
675.000000	0.467610
676.000000	0.467791
677.000000	0.468007
678.000000	0.468170
679.000000	0.468312
680.000000	0.468473
681.000000	0.468611
682.000000	0.468806
683.000000	0.468963
684.000000	0.469161
685.000000	0.469334
686.000000	0.469525
687.000000	0.469716
688.000000	0.469916
689.000000	0.470096
690.000000	0.470292
691.000000	0.470523
692.000000	0.470707
693.000000	0.470915
694.000000	0.471111
695.000000	0.471329
696.000000	0.471537
697.000000	0.471688
698.000000	0.471854
699.000000	0.472051
700.000000	0.472280
701.000000	0.472455
702.000000	0.472639
703.000000	0.472812
704.000000	0.472920
705.000000	0.473081
706.000000	0.473235
707.000000	0.473396
708.000000	0.473539
709.000000	0.473673
710.000000	0.473839
711.000000	0.474011
712.000000	0.474173
713.000000	0.474347
714.000000	0.474510
715.000000	0.474677
716.000000	0.474861
717.000000	0.475036
718.000000	0.475245
719.000000	0.475444
720.000000	0.475615
721.000000	0.475783
722.000000	0.475915
723.000000	0.476084
724.000000	0.476209
725.000000	0.476263
726.000000	0.476401
727.000000	0.476581
728.000000	0.476707
729.000000	0.476821
730.000000	0.476903
731.000000	0.477091
732.000000	0.477270
733.000000	0.477443
734.000000	0.477568
735.000000	0.477648
736.000000	0.477841
737.000000	0.477955
738.000000	0.478015
739.000000	0.478151
740.000000	0.478186
741.000000	0.478216
742.000000	0.478339
743.000000	0.478504
744.000000	0.478635
745.000000	0.478721
746.000000	0.478841
747.000000	0.478945
748.000000	0.479115
749.000000	0.479312
750.000000	0.479447
751.000000	0.479561
752.000000	0.479649
753.000000	0.479754
754.000000	0.479917
755.000000	0.480004
756.000000	0.480087
757.000000	0.480202
758.000000	0.480337
759.000000	0.480491
760.000000	0.480573
761.000000	0.480741
762.000000	0.480880
763.000000	0.480955
764.000000	0.481104
765.000000	0.481173
766.000000	0.481231
767.000000	0.481345
768.000000	0.481444
769.000000	0.481517
770.000000	0.481588
771.000000	0.481703
772.000000	0.481864
773.000000	0.481949
774.000000	0.482014
775.000000	0.482093
776.000000	0.482178
777.000000	0.482234
778.000000	0.482293
779.000000	0.482354
780.000000	0.482421
781.000000	0.482466
782.000000	0.482497
783.000000	0.482617
784.000000	0.482661
785.000000	0.482755
786.000000	0.482820
787.000000	0.482825
788.000000	0.482871
789.000000	0.482949
790.000000	0.483018
791.000000	0.483094
792.000000	0.483150
793.000000	0.483187
794.000000	0.483235
795.000000	0.483365
796.000000	0.483488
797.000000	0.483552
798.000000	0.483566
799.000000	0.483622
800.000000	0.483713
801.000000	0.483807
802.000000	0.483895
803.000000	0.483993
804.000000	0.484127
805.000000	0.484109
806.000000	0.484014
807.000000	0.483995
808.000000	0.484003
809.000000	0.484094
810.000000	0.484222
811.000000	0.484319
812.000000	0.484388
813.000000	0.484455
814.000000	0.484518
815.000000	0.484586
816.000000	0.484553
817.000000	0.484532
818.000000	0.484517
819.000000	0.484534
820.000000	0.484618
821.000000	0.484693
822.000000	0.484770
823.000000	0.484812
824.000000	0.484759
825.000000	0.484747
826.000000	0.484746
827.000000	0.484701
828.000000	0.484661
829.000000	0.484642
830.000000	0.484636
831.000000	0.484711
832.000000	0.484699
833.000000	0.484701
834.000000	0.484721
835.000000	0.484782
836.000000	0.484763
837.000000	0.484705
838.000000	0.484651
839.000000	0.484574
840.000000	0.484455
841.000000	0.484378
842.000000	0.484343
843.000000	0.484287
844.000000	0.484292
845.000000	0.484327
846.000000	0.484360
847.000000	0.484337
848.000000	0.484244
849.000000	0.484154
850.000000	0.484142
851.000000	0.484118
852.000000	0.484113
853.000000	0.484153
854.000000	0.484087
855.000000	0.484090
856.000000	0.484095
857.000000	0.483959
858.000000	0.483915
859.000000	0.483911
860.000000	0.483778
861.000000	0.483748
862.000000	0.483784
863.000000	0.483651
864.000000	0.483564
865.000000	0.483549
866.000000	0.483608
867.000000	0.483607
868.000000	0.483527
869.000000	0.483319
870.000000	0.483124
871.000000	0.482950
872.000000	0.482801
873.000000	0.482623
874.000000	0.482632
875.000000	0.482555
876.000000	0.482405
877.000000	0.482212
878.000000	0.482008
879.000000	0.481885
880.000000	0.481663
881.000000	0.481429
882.000000	0.481335
883.000000	0.481322
884.000000	0.481146
885.000000	0.480950
886.000000	0.480735
887.000000	0.480548
888.000000	0.480405
889.000000	0.480274
890.000000	0.480045
891.000000	0.479940
892.000000	0.479835
893.000000	0.479707
894.000000	0.479689
895.000000	0.479507
896.000000	0.479326
897.000000	0.479166
898.000000	0.478989
899.000000	0.478688
900.000000	0.478449
901.000000	0.478295
902.000000	0.478213
903.000000	0.478114
904.000000	0.478034
905.000000	0.477875
906.000000	0.477801
907.000000	0.477642
908.000000	0.477462
909.000000	0.477300
910.000000	0.477175
911.000000	0.477015
912.000000	0.476800
913.000000	0.476615
914.000000	0.476431
915.000000	0.476293
916.000000	0.476029
917.000000	0.475718
918.000000	0.475515
919.000000	0.475467
920.000000	0.475471
921.000000	0.475319
922.000000	0.475047
923.000000	0.474773
924.000000	0.474477
925.000000	0.474221
926.000000	0.474073
927.000000	0.473924
928.000000	0.473721
929.000000	0.473448
930.000000	0.473150
931.000000	0.473027
932.000000	0.472906
933.000000	0.472712
934.000000	0.472339
935.000000	0.472017
936.000000	0.471826
937.000000	0.471595
938.000000	0.471243
939.000000	0.471043
940.000000	0.470886
941.000000	0.470696
942.000000	0.470407
943.000000	0.470208
944.000000	0.470008
945.000000	0.469849
946.000000	0.469626
947.000000	0.469454
948.000000	0.469325
949.000000	0.468926
950.000000	0.468566
951.000000	0.468248
952.000000	0.467870
953.000000	0.467682
954.000000	0.467535
955.000000	0.467215
956.000000	0.466990
957.000000	0.466823
958.000000	0.466607
959.000000	0.466412
960.000000	0.466228
961.000000	0.466082
962.000000	0.465900
963.000000	0.465603
964.000000	0.465289
965.000000	0.465012
966.000000	0.464651
967.000000	0.464478
968.000000	0.464202
969.000000	0.463805
970.000000	0.463583
971.000000	0.463310
972.000000	0.463070
973.000000	0.462826
974.000000	0.462678
975.000000	0.462403
976.000000	0.462075
977.000000	0.461807
978.000000	0.461678
979.000000	0.461660
980.000000	0.461392
981.000000	0.461177
982.000000	0.460966
983.000000	0.460697
984.000000	0.460485
985.000000	0.460378
986.000000	0.460270
987.000000	0.460264
988.000000	0.460168
989.000000	0.459711
990.000000	0.459476
991.000000	0.459421
992.000000	0.459379
993.000000	0.459404
994.000000	0.459233
995.000000	0.459079
996.000000	0.458882
997.000000	0.458909
998.000000	0.458949
999.000000	0.458953
1000.000000	0.458806
1001.000000	0.459422
1002.000000	0.458780
1003.000000	0.458506
1004.000000	0.458351
1005.000000	0.458294
1006.000000	0.458095
1007.000000	0.458103
1008.000000	0.458142
1009.000000	0.457756
1010.000000	0.457551
1011.000000	0.457926
1012.000000	0.458014
1013.000000	0.457776
1014.000000	0.457794
1015.000000	0.457559
1016.000000	0.457494
1017.000000	0.457692
1018.000000	0.457928
1019.000000	0.458047
1020.000000	0.458387
1021.000000	0.457944
1022.000000	0.457247
1023.000000	0.457280
1024.000000	0.457026
1025.000000	0.457246
1026.000000	0.457860
1027.000000	0.457886
1028.000000	0.457856
1029.000000	0.457899
1030.000000	0.457730
1031.000000	0.457642
1032.000000	0.457734
1033.000000	0.457725
1034.000000	0.457792
1035.000000	0.458093
1036.000000	0.458270
1037.000000	0.458323
1038.000000	0.458315
1039.000000	0.458464
1040.000000	0.458618
1041.000000	0.458632
1042.000000	0.458777
1043.000000	0.458984
1044.000000	0.459208
1045.000000	0.459247
1046.000000	0.459155
1047.000000	0.459347
1048.000000	0.459564
1049.000000	0.459695
1050.000000	0.460074
1051.000000	0.460184
1052.000000	0.459901
1053.000000	0.459780
1054.000000	0.459902
1055.000000	0.460119
1056.000000	0.460507
1057.000000	0.460848
1058.000000	0.461096
1059.000000	0.461125
1060.000000	0.461289
1061.000000	0.461595
1062.000000	0.461817
1063.000000	0.461993
1064.000000	0.462226
1065.000000	0.462289
1066.000000	0.462506
1067.000000	0.462923
1068.000000	0.463062
1069.000000	0.462841
1070.000000	0.462927
1071.000000	0.463192
1072.000000	0.463327
1073.000000	0.463506
1074.000000	0.464058
1075.000000	0.464247
1076.000000	0.464335
1077.000000	0.464511
1078.000000	0.464667
1079.000000	0.464787
1080.000000	0.464856
1081.000000	0.464988
1082.000000	0.465250
1083.000000	0.465521
1084.000000	0.465940
1085.000000	0.466266
1086.000000	0.466586
1087.000000	0.466831
1088.000000	0.466734
1089.000000	0.466872
1090.000000	0.467137
1091.000000	0.467211
1092.000000	0.467400
1093.000000	0.467835
1094.000000	0.468016
1095.000000	0.467926
1096.000000	0.468126
1097.000000	0.468394
1098.000000	0.468648
1099.000000	0.468965
1100.000000	0.469247
1101.000000	0.469440
1102.000000	0.469576
1103.000000	0.469590
1104.000000	0.469747
1105.000000	0.469899
1106.000000	0.470059
1107.000000	0.470250
1108.000000	0.470383
1109.000000	0.470506
1110.000000	0.470672
1111.000000	0.470873
1112.000000	0.471121
1113.000000	0.471375
1114.000000	0.471756
1115.000000	0.471917
1116.000000	0.472014
1117.000000	0.472077
1118.000000	0.471963
1119.000000	0.471868
1120.000000	0.471748
1121.000000	0.471689
1122.000000	0.471725
1123.000000	0.472040
1124.000000	0.472214
1125.000000	0.472415
1126.000000	0.472663
1127.000000	0.472728
1128.000000	0.472701
1129.000000	0.472593
1130.000000	0.472641
1131.000000	0.472709
1132.000000	0.472647
1133.000000	0.472656
1134.000000	0.472750
1135.000000	0.472688
1136.000000	0.472684
1137.000000	0.472889
1138.000000	0.472858
1139.000000	0.472754
1140.000000	0.472801
1141.000000	0.472805
1142.000000	0.472803
1143.000000	0.472763
1144.000000	0.472833
1145.000000	0.472678
1146.000000	0.472412
1147.000000	0.472245
1148.000000	0.471901
1149.000000	0.471764
1150.000000	0.471811
1151.000000	0.471709
1152.000000	0.471552
1153.000000	0.471397
1154.000000	0.471067
1155.000000	0.470837
1156.000000	0.470675
1157.000000	0.470497
1158.000000	0.470310
1159.000000	0.470060
1160.000000	0.469695
1161.000000	0.469422
1162.000000	0.469233
1163.000000	0.469220
1164.000000	0.468982
1165.000000	0.468808
1166.000000	0.468689
1167.000000	0.468459
1168.000000	0.468230
1169.000000	0.468147
1170.000000	0.467999
1171.000000	0.467795
1172.000000	0.467691
1173.000000	0.467605
1174.000000	0.467516
1175.000000	0.467407
1176.000000	0.467243
1177.000000	0.467187
1178.000000	0.467095
1179.000000	0.466934
1180.000000	0.466737
1181.000000	0.466627
1182.000000	0.466551
1183.000000	0.466500
1184.000000	0.466519
1185.000000	0.466455
1186.000000	0.466385
1187.000000	0.466261
1188.000000	0.466078
1189.000000	0.465883
1190.000000	0.465741
1191.000000	0.465573
1192.000000	0.465494
1193.000000	0.465534
1194.000000	0.465476
1195.000000	0.465383
1196.000000	0.465197
1197.000000	0.465078
1198.000000	0.464984
1199.000000	0.464890
1200.000000	0.464829
1201.000000	0.464767
1202.000000	0.464647
1203.000000	0.464538
1204.000000	0.464448
1205.000000	0.464413
1206.000000	0.464297
1207.000000	0.464298
1208.000000	0.464176
1209.000000	0.464071
1210.000000	0.463982
1211.000000	0.463853
1212.000000	0.463747
1213.000000	0.463737
1214.000000	0.463705
1215.000000	0.463649
1216.000000	0.463588
1217.000000	0.463476
1218.000000	0.463358
1219.000000	0.463263
1220.000000	0.463200
1221.000000	0.463127
1222.000000	0.463048
1223.000000	0.462984
1224.000000	0.462935
1225.000000	0.462888
1226.000000	0.462848
1227.000000	0.462745
1228.000000	0.462722
1229.000000	0.462606
1230.000000	0.462396
1231.000000	0.462211
1232.000000	0.462169
1233.000000	0.462212
1234.000000	0.462305
1235.000000	0.462295
1236.000000	0.462133
1237.000000	0.462108
1238.000000	0.462004
1239.000000	0.461936
1240.000000	0.461943
1241.000000	0.461952
1242.000000	0.461905
1243.000000	0.461877
1244.000000	0.461873
1245.000000	0.461966
1246.000000	0.462048
1247.000000	0.462191
1248.000000	0.462322
1249.000000	0.462356
1250.000000	0.462315
1251.000000	0.462267
1252.000000	0.462232
1253.000000	0.462252
1254.000000	0.462239
1255.000000	0.462218
1256.000000	0.462162
1257.000000	0.462084
1258.000000	0.462089
1259.000000	0.462002
1260.000000	0.462058
1261.000000	0.462140
1262.000000	0.462184
1263.000000	0.462292
1264.000000	0.462352
1265.000000	0.462408
1266.000000	0.462386
1267.000000	0.462377
1268.000000	0.462410
1269.000000	0.462306
1270.000000	0.462310
1271.000000	0.462304
1272.000000	0.462294
1273.000000	0.462398
1274.000000	0.462485
1275.000000	0.462521
1276.000000	0.462601
1277.000000	0.462680
1278.000000	0.462588
1279.000000	0.462524
1280.000000	0.462342
1281.000000	0.462169
1282.000000	0.462050
1283.000000	0.462064
1284.000000	0.462047
1285.000000	0.462043
1286.000000	0.462073
1287.000000	0.462052
1288.000000	0.462070
1289.000000	0.462041
1290.000000	0.461912
1291.000000	0.461774
1292.000000	0.461642
1293.000000	0.461548
1294.000000	0.461531
1295.000000	0.461565
1296.000000	0.461552
1297.000000	0.461520
1298.000000	0.461494
1299.000000	0.461461
1300.000000	0.461499
1301.000000	0.461442
1302.000000	0.461263
1303.000000	0.461155
1304.000000	0.460970
1305.000000	0.460793
1306.000000	0.460631
1307.000000	0.460546
1308.000000	0.460495
1309.000000	0.460468
1310.000000	0.460358
1311.000000	0.460293
1312.000000	0.460125
1313.000000	0.459912
1314.000000	0.459740
1315.000000	0.459586
1316.000000	0.459511
1317.000000	0.459414
1318.000000	0.459223
1319.000000	0.458894
1320.000000	0.458586
1321.000000	0.458218
1322.000000	0.457821
1323.000000	0.457591
1324.000000	0.457386
1325.000000	0.457048
1326.000000	0.456711
1327.000000	0.456339
1328.000000	0.456022
1329.000000	0.455600
1330.000000	0.455159
1331.000000	0.454763
1332.000000	0.454435
1333.000000	0.454018
1334.000000	0.453721
1335.000000	0.453374
1336.000000	0.452874
1337.000000	0.452422
1338.000000	0.451926
1339.000000	0.451437
1340.000000	0.450918
1341.000000	0.450467
1342.000000	0.449981
1343.000000	0.449450
1344.000000	0.448935
1345.000000	0.448377
1346.000000	0.447929
1347.000000	0.447308
1348.000000	0.446682
1349.000000	0.446020
1350.000000	0.445357
1351.000000	0.444699
1352.000000	0.444001
1353.000000	0.443334
1354.000000	0.442737
1355.000000	0.442070
1356.000000	0.441495
1357.000000	0.440868
1358.000000	0.440223
1359.000000	0.439642
1360.000000	0.439064
1361.000000	0.438576
1362.000000	0.438080
1363.000000	0.437503
1364.000000	0.437065
1365.000000	0.436720
1366.000000	0.436330
1367.000000	0.435945
1368.000000	0.435583
1369.000000	0.435334
1370.000000	0.434889
1371.000000	0.434439
1372.000000	0.433998
1373.000000	0.433498
1374.000000	0.433048
1375.000000	0.432572
1376.000000	0.432190
1377.000000	0.431763
1378.000000	0.431202
1379.000000	0.430556
1380.000000	0.429907
1381.000000	0.429212
1382.000000	0.428501
1383.000000	0.427876
1384.000000	0.427119
1385.000000	0.426293
1386.000000	0.425508
1387.000000	0.424643
1388.000000	0.423707
1389.000000	0.422781
1390.000000	0.421906
1391.000000	0.420939
1392.000000	0.419959
1393.000000	0.418859
1394.000000	0.417701
1395.000000	0.416527
1396.000000	0.415340
1397.000000	0.413950
1398.000000	0.412430
1399.000000	0.410873
1400.000000	0.409149
1401.000000	0.407402
1402.000000	0.405722
1403.000000	0.403861
1404.000000	0.401995
1405.000000	0.399976
1406.000000	0.397819
1407.000000	0.395725
1408.000000	0.393480
1409.000000	0.391246
1410.000000	0.389073
1411.000000	0.386717
1412.000000	0.384286
1413.000000	0.381884
1414.000000	0.379351
1415.000000	0.376833
1416.000000	0.374318
1417.000000	0.371727
1418.000000	0.369136
1419.000000	0.366568
1420.000000	0.363915
1421.000000	0.361383
1422.000000	0.358832
1423.000000	0.356365
1424.000000	0.353844
1425.000000	0.351265
1426.000000	0.348696
1427.000000	0.346153
1428.000000	0.343675
1429.000000	0.341272
1430.000000	0.338911
1431.000000	0.336634
1432.000000	0.334345
1433.000000	0.332086
1434.000000	0.329871
1435.000000	0.327749
1436.000000	0.325675
1437.000000	0.323680
1438.000000	0.321649
1439.000000	0.319672
1440.000000	0.317761
1441.000000	0.315859
1442.000000	0.314048
1443.000000	0.312267
1444.000000	0.310506
1445.000000	0.308828
1446.000000	0.307212
1447.000000	0.305629
1448.000000	0.304178
1449.000000	0.302763
1450.000000	0.301425
1451.000000	0.300267
1452.000000	0.299095
1453.000000	0.297985
1454.000000	0.296958
1455.000000	0.295947
1456.000000	0.295097
1457.000000	0.294334
1458.000000	0.293567
1459.000000	0.292871
1460.000000	0.292210
1461.000000	0.291531
1462.000000	0.290886
1463.000000	0.290258
1464.000000	0.289676
1465.000000	0.289143
1466.000000	0.288615
1467.000000	0.288155
1468.000000	0.287724
1469.000000	0.287377
1470.000000	0.287037
1471.000000	0.286732
1472.000000	0.286460
1473.000000	0.286252
1474.000000	0.286058
1475.000000	0.285934
1476.000000	0.285835
1477.000000	0.285795
1478.000000	0.285838
1479.000000	0.285888
1480.000000	0.285998
1481.000000	0.286133
1482.000000	0.286347
1483.000000	0.286588
1484.000000	0.286879
1485.000000	0.287165
1486.000000	0.287443
1487.000000	0.287773
1488.000000	0.288153
1489.000000	0.288576
1490.000000	0.288931
1491.000000	0.289368
1492.000000	0.289815
1493.000000	0.290315
1494.000000	0.290846
1495.000000	0.291367
1496.000000	0.291900
1497.000000	0.292452
1498.000000	0.293027
1499.000000	0.293611
1500.000000	0.294232
1501.000000	0.294859
1502.000000	0.295452
1503.000000	0.296068
1504.000000	0.296705
1505.000000	0.297290
1506.000000	0.297889
1507.000000	0.298500
1508.000000	0.299123
1509.000000	0.299760
1510.000000	0.300331
1511.000000	0.300904
1512.000000	0.301476
1513.000000	0.302028
1514.000000	0.302639
1515.000000	0.303218
1516.000000	0.303826
1517.000000	0.304425
1518.000000	0.304983
1519.000000	0.305523
1520.000000	0.306063
1521.000000	0.306555
1522.000000	0.307131
1523.000000	0.307775
1524.000000	0.308321
1525.000000	0.308883
1526.000000	0.309392
1527.000000	0.309838
1528.000000	0.310342
1529.000000	0.310793
1530.000000	0.311136
1531.000000	0.311572
1532.000000	0.312022
1533.000000	0.312413
1534.000000	0.312830
1535.000000	0.313218
1536.000000	0.313527
1537.000000	0.313911
1538.000000	0.314283
1539.000000	0.314570
1540.000000	0.314860
1541.000000	0.315142
1542.000000	0.315403
1543.000000	0.315651
1544.000000	0.315869
1545.000000	0.316106
1546.000000	0.316329
1547.000000	0.316537
1548.000000	0.316743
1549.000000	0.316871
1550.000000	0.316965
1551.000000	0.317102
1552.000000	0.317281
1553.000000	0.317452
1554.000000	0.317589
1555.000000	0.317717
1556.000000	0.317819
1557.000000	0.317898
1558.000000	0.318019
1559.000000	0.318123
1560.000000	0.318197
1561.000000	0.318319
1562.000000	0.318365
1563.000000	0.318383
1564.000000	0.318450
1565.000000	0.318528
1566.000000	0.318504
1567.000000	0.318580
1568.000000	0.318582
1569.000000	0.318544
1570.000000	0.318513
1571.000000	0.318452
1572.000000	0.318404
1573.000000	0.318378
1574.000000	0.318329
1575.000000	0.318310
1576.000000	0.318248
1577.000000	0.318117
1578.000000	0.317997
1579.000000	0.317931
1580.000000	0.317834
1581.000000	0.317802
1582.000000	0.317706
1583.000000	0.317554
1584.000000	0.317377
1585.000000	0.317234
1586.000000	0.317121
1587.000000	0.317034
1588.000000	0.316902
1589.000000	0.316759
1590.000000	0.316643
1591.000000	0.316532
1592.000000	0.316424
1593.000000	0.316391
1594.000000	0.316284
1595.000000	0.316172
1596.000000	0.316058
1597.000000	0.315968
1598.000000	0.315837
1599.000000	0.315698
1600.000000	0.315527
1601.000000	0.315387
1602.000000	0.315261
1603.000000	0.315167
1604.000000	0.315067
1605.000000	0.315016
1606.000000	0.314926
1607.000000	0.314872
1608.000000	0.314795
1609.000000	0.314728
1610.000000	0.314658
1611.000000	0.314610
1612.000000	0.314558
1613.000000	0.314613
1614.000000	0.314613
1615.000000	0.314644
1616.000000	0.314697
1617.000000	0.314704
1618.000000	0.314723
1619.000000	0.314732
1620.000000	0.314771
1621.000000	0.314813
1622.000000	0.314985
1623.000000	0.315206
1624.000000	0.315402
1625.000000	0.315549
1626.000000	0.315670
1627.000000	0.315775
1628.000000	0.315960
1629.000000	0.316154
1630.000000	0.316376
1631.000000	0.316566
1632.000000	0.316753
1633.000000	0.316967
1634.000000	0.317201
1635.000000	0.317476
1636.000000	0.317755
1637.000000	0.318092
1638.000000	0.318355
1639.000000	0.318654
1640.000000	0.318925
1641.000000	0.319200
1642.000000	0.319508
1643.000000	0.319889
1644.000000	0.320195
1645.000000	0.320467
1646.000000	0.320731
1647.000000	0.320992
1648.000000	0.321231
1649.000000	0.321558
1650.000000	0.321893
1651.000000	0.322257
1652.000000	0.322620
1653.000000	0.322954
1654.000000	0.323331
1655.000000	0.323644
1656.000000	0.323922
1657.000000	0.324313
1658.000000	0.324614
1659.000000	0.324933
1660.000000	0.325321
1661.000000	0.325648
1662.000000	0.325995
1663.000000	0.326359
1664.000000	0.326688
1665.000000	0.326978
1666.000000	0.327363
1667.000000	0.327686
1668.000000	0.328055
1669.000000	0.328461
1670.000000	0.328759
1671.000000	0.329135
1672.000000	0.329520
1673.000000	0.329830
1674.000000	0.330157
1675.000000	0.330567
1676.000000	0.330925
1677.000000	0.331222
1678.000000	0.331526
1679.000000	0.331845
1680.000000	0.332126
1681.000000	0.332422
1682.000000	0.332762
1683.000000	0.333109
1684.000000	0.333418
1685.000000	0.333746
1686.000000	0.334052
1687.000000	0.334317
1688.000000	0.334490
1689.000000	0.334687
1690.000000	0.334810
1691.000000	0.334983
1692.000000	0.335231
1693.000000	0.335494
1694.000000	0.335789
1695.000000	0.336126
1696.000000	0.336366
1697.000000	0.336596
1698.000000	0.336858
1699.000000	0.337174
1700.000000	0.337542
1701.000000	0.337966
1702.000000	0.338263
1703.000000	0.338533
1704.000000	0.338887
1705.000000	0.339203
1706.000000	0.339520
1707.000000	0.339866
1708.000000	0.340239
1709.000000	0.340452
1710.000000	0.340693
1711.000000	0.340941
1712.000000	0.341077
1713.000000	0.341296
1714.000000	0.341633
1715.000000	0.341964
1716.000000	0.342339
1717.000000	0.342682
1718.000000	0.342985
1719.000000	0.343311
1720.000000	0.343712
1721.000000	0.344053
1722.000000	0.344399
1723.000000	0.344728
1724.000000	0.345002
1725.000000	0.345371
1726.000000	0.345713
1727.000000	0.346054
1728.000000	0.346389
1729.000000	0.346604
1730.000000	0.346856
1731.000000	0.347176
1732.000000	0.347492
1733.000000	0.347900
1734.000000	0.348265
1735.000000	0.348646
1736.000000	0.349021
1737.000000	0.349348
1738.000000	0.349677
1739.000000	0.350044
1740.000000	0.350358
1741.000000	0.350710
1742.000000	0.351139
1743.000000	0.351585
1744.000000	0.352017
1745.000000	0.352376
1746.000000	0.352736
1747.000000	0.353040
1748.000000	0.353310
1749.000000	0.353625
1750.000000	0.353894
1751.000000	0.354259
1752.000000	0.354682
1753.000000	0.354937
1754.000000	0.355268
1755.000000	0.355613
1756.000000	0.355901
1757.000000	0.356185
1758.000000	0.356506
1759.000000	0.356765
1760.000000	0.357060
1761.000000	0.357374
1762.000000	0.357676
1763.000000	0.358013
1764.000000	0.358312
1765.000000	0.358523
1766.000000	0.358839
1767.000000	0.359101
1768.000000	0.359339
1769.000000	0.359743
1770.000000	0.360128
1771.000000	0.360435
1772.000000	0.360719
1773.000000	0.360932
1774.000000	0.361224
1775.000000	0.361576
1776.000000	0.361890
1777.000000	0.362210
1778.000000	0.362530
1779.000000	0.362743
1780.000000	0.363131
1781.000000	0.363612
1782.000000	0.364025
1783.000000	0.364523
1784.000000	0.364981
1785.000000	0.365336
1786.000000	0.365786
1787.000000	0.366396
1788.000000	0.366962
1789.000000	0.367420
1790.000000	0.367789
1791.000000	0.368138
1792.000000	0.368526
1793.000000	0.368951
1794.000000	0.369441
1795.000000	0.369927
1796.000000	0.370437
1797.000000	0.370889
1798.000000	0.371320
1799.000000	0.371694
1800.000000	0.372023
1801.000000	0.371302
1802.000000	0.371766
1803.000000	0.371969
1804.000000	0.372566
1805.000000	0.373443
1806.000000	0.373970
1807.000000	0.374634
1808.000000	0.375077
1809.000000	0.375149
1810.000000	0.375096
1811.000000	0.375367
1812.000000	0.375842
1813.000000	0.376195
1814.000000	0.376668
1815.000000	0.377056
1816.000000	0.377366
1817.000000	0.377541
1818.000000	0.377731
1819.000000	0.378180
1820.000000	0.378115
1821.000000	0.377977
1822.000000	0.377933
1823.000000	0.377549
1824.000000	0.377428
1825.000000	0.377341
1826.000000	0.377554
1827.000000	0.377896
1828.000000	0.378205
1829.000000	0.378433
1830.000000	0.378567
1831.000000	0.378543
1832.000000	0.378110
1833.000000	0.377838
1834.000000	0.377660
1835.000000	0.377408
1836.000000	0.376722
1837.000000	0.376543
1838.000000	0.376700
1839.000000	0.376382
1840.000000	0.376269
1841.000000	0.376373
1842.000000	0.376100
1843.000000	0.375347
1844.000000	0.375064
1845.000000	0.374700
1846.000000	0.374448
1847.000000	0.374293
1848.000000	0.374125
1849.000000	0.373702
1850.000000	0.372955
1851.000000	0.372319
1852.000000	0.371468
1853.000000	0.370779
1854.000000	0.370077
1855.000000	0.369064
1856.000000	0.367838
1857.000000	0.366461
1858.000000	0.365114
1859.000000	0.363631
1860.000000	0.361998
1861.000000	0.360307
1862.000000	0.358476
1863.000000	0.356350
1864.000000	0.354529
1865.000000	0.353050
1866.000000	0.351099
1867.000000	0.349066
1868.000000	0.346617
1869.000000	0.343945
1870.000000	0.341206
1871.000000	0.338583
1872.000000	0.336085
1873.000000	0.333511
1874.000000	0.331075
1875.000000	0.328369
1876.000000	0.325401
1877.000000	0.321888
1878.000000	0.318330
1879.000000	0.314511
1880.000000	0.310812
1881.000000	0.307342
1882.000000	0.303648
1883.000000	0.299838
1884.000000	0.295982
1885.000000	0.291778
1886.000000	0.287401
1887.000000	0.282962
1888.000000	0.278110
1889.000000	0.273031
1890.000000	0.268165
1891.000000	0.263455
1892.000000	0.258829
1893.000000	0.254129
1894.000000	0.249360
1895.000000	0.244468
1896.000000	0.239569
1897.000000	0.234664
1898.000000	0.229746
1899.000000	0.225113
1900.000000	0.220449
1901.000000	0.215619
1902.000000	0.210856
1903.000000	0.205873
1904.000000	0.200838
1905.000000	0.195934
1906.000000	0.191113
1907.000000	0.186342
1908.000000	0.181788
1909.000000	0.177611
1910.000000	0.173492
1911.000000	0.169297
1912.000000	0.165338
1913.000000	0.161526
1914.000000	0.157806
1915.000000	0.154367
1916.000000	0.150981
1917.000000	0.147597
1918.000000	0.144149
1919.000000	0.141155
1920.000000	0.138233
1921.000000	0.135589
1922.000000	0.133475
1923.000000	0.131197
1924.000000	0.129174
1925.000000	0.127527
1926.000000	0.125811
1927.000000	0.124375
1928.000000	0.122996
1929.000000	0.121810
1930.000000	0.120447
1931.000000	0.119358
1932.000000	0.118470
1933.000000	0.117577
1934.000000	0.116844
1935.000000	0.116070
1936.000000	0.115276
1937.000000	0.114452
1938.000000	0.113685
1939.000000	0.113041
1940.000000	0.112528
1941.000000	0.111963
1942.000000	0.111564
1943.000000	0.111158
1944.000000	0.110754
1945.000000	0.110437
1946.000000	0.109910
1947.000000	0.109365
1948.000000	0.108755
1949.000000	0.108227
1950.000000	0.107870
1951.000000	0.107414
1952.000000	0.106992
1953.000000	0.106638
1954.000000	0.106378
1955.000000	0.106176
1956.000000	0.105967
1957.000000	0.105952
1958.000000	0.105815
1959.000000	0.105427
1960.000000	0.105313
1961.000000	0.105115
1962.000000	0.104991
1963.000000	0.104870
1964.000000	0.105032
1965.000000	0.105113
1966.000000	0.105249
1967.000000	0.105387
1968.000000	0.105420
1969.000000	0.105531
1970.000000	0.105654
1971.000000	0.105740
1972.000000	0.105909
1973.000000	0.105872
1974.000000	0.105572
1975.000000	0.105562
1976.000000	0.105597
1977.000000	0.105681
1978.000000	0.105874
1979.000000	0.106236
1980.000000	0.106716
1981.000000	0.107081
1982.000000	0.107552
1983.000000	0.108307
1984.000000	0.108729
1985.000000	0.108921
1986.000000	0.109245
1987.000000	0.109545
1988.000000	0.109720
1989.000000	0.110305
1990.000000	0.111029
1991.000000	0.111599
1992.000000	0.112168
1993.000000	0.112598
1994.000000	0.112907
1995.000000	0.113292
1996.000000	0.113803
1997.000000	0.114406
1998.000000	0.115201
1999.000000	0.115924
2000.000000	0.116756
2001.000000	0.117445
2002.000000	0.118124
2003.000000	0.118835
2004.000000	0.119422
2005.000000	0.120016
2006.000000	0.120900
2007.000000	0.121631
2008.000000	0.122436
2009.000000	0.123364
2010.000000	0.124383
2011.000000	0.125353
2012.000000	0.126358
2013.000000	0.127458
2014.000000	0.128591
2015.000000	0.129532
2016.000000	0.130418
2017.000000	0.131567
2018.000000	0.132511
2019.000000	0.133333
2020.000000	0.134327
2021.000000	0.135277
2022.000000	0.135978
2023.000000	0.137054
2024.000000	0.138555
2025.000000	0.139679
2026.000000	0.140744
2027.000000	0.141659
2028.000000	0.142374
2029.000000	0.143286
2030.000000	0.144353
2031.000000	0.145339
2032.000000	0.146459
2033.000000	0.147523
2034.000000	0.148472
2035.000000	0.149439
2036.000000	0.150348
2037.000000	0.151111
2038.000000	0.152064
2039.000000	0.153145
2040.000000	0.154181
2041.000000	0.155453
2042.000000	0.156481
2043.000000	0.157331
2044.000000	0.158343
2045.000000	0.159056
2046.000000	0.159851
2047.000000	0.160707
2048.000000	0.161592
2049.000000	0.162559
2050.000000	0.163361
2051.000000	0.164209
2052.000000	0.165070
2053.000000	0.165800
2054.000000	0.166533
2055.000000	0.167550
2056.000000	0.168396
2057.000000	0.169305
2058.000000	0.170247
2059.000000	0.171254
2060.000000	0.172073
2061.000000	0.172806
2062.000000	0.173496
2063.000000	0.173903
2064.000000	0.174635
2065.000000	0.175658
2066.000000	0.176605
2067.000000	0.177851
2068.000000	0.179150
2069.000000	0.180273
2070.000000	0.181582
2071.000000	0.182615
2072.000000	0.183505
2073.000000	0.184429
2074.000000	0.185271
2075.000000	0.186303
2076.000000	0.187605
2077.000000	0.188684
2078.000000	0.189673
2079.000000	0.190744
2080.000000	0.191734
2081.000000	0.192906
2082.000000	0.194312
2083.000000	0.195573
2084.000000	0.196907
2085.000000	0.198183
2086.000000	0.199314
2087.000000	0.200696
2088.000000	0.201876
2089.000000	0.202931
2090.000000	0.204040
2091.000000	0.205012
2092.000000	0.206165
2093.000000	0.207522
2094.000000	0.208780
2095.000000	0.210158
2096.000000	0.211418
2097.000000	0.212548
2098.000000	0.213555
2099.000000	0.214690
2100.000000	0.216000
2101.000000	0.217358
2102.000000	0.218533
2103.000000	0.219692
2104.000000	0.220684
2105.000000	0.221610
2106.000000	0.222408
2107.000000	0.223371
2108.000000	0.224152
2109.000000	0.225223
2110.000000	0.226386
2111.000000	0.227506
2112.000000	0.228743
2113.000000	0.229800
2114.000000	0.230590
2115.000000	0.231580
2116.000000	0.232124
2117.000000	0.232529
2118.000000	0.233365
2119.000000	0.234046
2120.000000	0.234977
2121.000000	0.236361
2122.000000	0.237333
2123.000000	0.238229
2124.000000	0.239050
2125.000000	0.239665
2126.000000	0.240292
2127.000000	0.240812
2128.000000	0.241541
2129.000000	0.242251
2130.000000	0.243067
2131.000000	0.243677
2132.000000	0.244238
2133.000000	0.244885
2134.000000	0.245531
2135.000000	0.246143
2136.000000	0.246899
2137.000000	0.247667
2138.000000	0.248348
2139.000000	0.249075
2140.000000	0.250162
2141.000000	0.250761
2142.000000	0.251015
2143.000000	0.251208
2144.000000	0.251169
2145.000000	0.251429
2146.000000	0.251841
2147.000000	0.252597
2148.000000	0.252903
2149.000000	0.253292
2150.000000	0.253812
2151.000000	0.254264
2152.000000	0.254873
2153.000000	0.255652
2154.000000	0.256126
2155.000000	0.256289
2156.000000	0.256642
2157.000000	0.256965
2158.000000	0.257362
2159.000000	0.257967
2160.000000	0.258457
2161.000000	0.258959
2162.000000	0.259451
2163.000000	0.259721
2164.000000	0.260056
2165.000000	0.260493
2166.000000	0.260751
2167.000000	0.260955
2168.000000	0.261022
2169.000000	0.260893
2170.000000	0.260957
2171.000000	0.261154
2172.000000	0.261512
2173.000000	0.261822
2174.000000	0.262246
2175.000000	0.262615
2176.000000	0.263150
2177.000000	0.263421
2178.000000	0.263582
2179.000000	0.263810
2180.000000	0.263621
2181.000000	0.263962
2182.000000	0.264049
2183.000000	0.264449
2184.000000	0.264935
2185.000000	0.265195
2186.000000	0.265084
2187.000000	0.264855
2188.000000	0.264770
2189.000000	0.264734
2190.000000	0.264841
2191.000000	0.265193
2192.000000	0.265242
2193.000000	0.264793
2194.000000	0.264938
2195.000000	0.265545
2196.000000	0.265940
2197.000000	0.266412
2198.000000	0.266964
2199.000000	0.267507
2200.000000	0.268109
2201.000000	0.269136
2202.000000	0.269910
2203.000000	0.270565
2204.000000	0.270474
2205.000000	0.270138
2206.000000	0.270370
2207.000000	0.270052
2208.000000	0.270436
2209.000000	0.271445
2210.000000	0.272513
2211.000000	0.273389
2212.000000	0.273535
2213.000000	0.273823
2214.000000	0.273347
2215.000000	0.273530
2216.000000	0.274523
2217.000000	0.275027
2218.000000	0.275220
2219.000000	0.275561
2220.000000	0.275564
2221.000000	0.275711
2222.000000	0.276436
2223.000000	0.276672
2224.000000	0.276799
2225.000000	0.276685
2226.000000	0.275684
2227.000000	0.274469
2228.000000	0.274869
2229.000000	0.275243
2230.000000	0.275806
2231.000000	0.276983
2232.000000	0.277359
2233.000000	0.277078
2234.000000	0.276635
2235.000000	0.276416
2236.000000	0.275743
2237.000000	0.274132
2238.000000	0.273593
2239.000000	0.273126
2240.000000	0.273193
2241.000000	0.274111
2242.000000	0.274359
2243.000000	0.274555
2244.000000	0.275149
2245.000000	0.275483
2246.000000	0.276085
2247.000000	0.277665
2248.000000	0.278312
2249.000000	0.278612
2250.000000	0.278713
2251.000000	0.278224
2252.000000	0.277350
2253.000000	0.276238
2254.000000	0.275442
2255.000000	0.274873
2256.000000	0.274052
2257.000000	0.274190
2258.000000	0.274797
2259.000000	0.274612
2260.000000	0.274922
2261.000000	0.274892
2262.000000	0.274652
2263.000000	0.273851
2264.000000	0.272450
2265.000000	0.272083
2266.000000	0.271629
2267.000000	0.271110
2268.000000	0.271744
2269.000000	0.271488
2270.000000	0.270040
2271.000000	0.269593
2272.000000	0.269639
2273.000000	0.269475
2274.000000	0.269665
2275.000000	0.269321
2276.000000	0.269008
2277.000000	0.267904
2278.000000	0.265645
2279.000000	0.263658
2280.000000	0.262360
2281.000000	0.261790
2282.000000	0.261607
2283.000000	0.262117
2284.000000	0.262141
2285.000000	0.260743
2286.000000	0.260572
2287.000000	0.260518
2288.000000	0.259348
2289.000000	0.257978
2290.000000	0.255856
2291.000000	0.253553
2292.000000	0.251511
2293.000000	0.250028
2294.000000	0.249014
2295.000000	0.248710
2296.000000	0.247901
2297.000000	0.247457
2298.000000	0.246487
2299.000000	0.244952
2300.000000	0.243754
2301.000000	0.242529
2302.000000	0.241518
2303.000000	0.240406
2304.000000	0.239560
2305.000000	0.239306
2306.000000	0.238458
2307.000000	0.237392
2308.000000	0.236564
2309.000000	0.235423
2310.000000	0.233723
2311.000000	0.232030
2312.000000	0.230744
2313.000000	0.228705
2314.000000	0.226062
2315.000000	0.223652
2316.000000	0.221561
2317.000000	0.219763
2318.000000	0.219462
2319.000000	0.219613
2320.000000	0.218712
2321.000000	0.218430
2322.000000	0.217573
2323.000000	0.216277
2324.000000	0.214393
2325.000000	0.211621
2326.000000	0.209697
2327.000000	0.208134
2328.000000	0.207849
2329.000000	0.207919
2330.000000	0.206458
2331.000000	0.204762
2332.000000	0.203218
2333.000000	0.201746
2334.000000	0.200542
2335.000000	0.199250
2336.000000	0.197277
2337.000000	0.195591
2338.000000	0.194437
2339.000000	0.192470
2340.000000	0.190132
2341.000000	0.188312
2342.000000	0.185276
2343.000000	0.183922
2344.000000	0.184369
2345.000000	0.183507
2346.000000	0.183496
2347.000000	0.182099
2348.000000	0.179269
2349.000000	0.177062
2350.000000	0.174385
2351.000000	0.171908
2352.000000	0.170464
2353.000000	0.168924
2354.000000	0.167063
2355.000000	0.166471
2356.000000	0.165397
2357.000000	0.163490
2358.000000	0.162581
2359.000000	0.160480
2360.000000	0.158138
2361.000000	0.156361
2362.000000	0.154771
2363.000000	0.153905
2364.000000	0.152814
2365.000000	0.153552
2366.000000	0.154048
2367.000000	0.152563
2368.000000	0.151557
2369.000000	0.148983
2370.000000	0.145252
2371.000000	0.144262
2372.000000	0.145226
2373.000000	0.145320
2374.000000	0.144418
2375.000000	0.143080
2376.000000	0.141206
2377.000000	0.139534
2378.000000	0.139635
2379.000000	0.140037
2380.000000	0.138258
2381.000000	0.136220
2382.000000	0.135412
2383.000000	0.134008
2384.000000	0.132440
2385.000000	0.132632
2386.000000	0.131282
2387.000000	0.128992
2388.000000	0.128734
2389.000000	0.126996
2390.000000	0.124857
2391.000000	0.123800
2392.000000	0.122279
2393.000000	0.120765
2394.000000	0.119799
2395.000000	0.120083
2396.000000	0.120208
2397.000000	0.121335
2398.000000	0.122318
2399.000000	0.122315
2400.000000	0.123500
2401.000000	0.122511
2402.000000	0.122191
2403.000000	0.121618
2404.000000	0.117100
2405.000000	0.115264
2406.000000	0.114593
2407.000000	0.113304
2408.000000	0.114383
2409.000000	0.114285
2410.000000	0.113257
2411.000000	0.113173
2412.000000	0.112707
2413.000000	0.110838
2414.000000	0.108962
2415.000000	0.105993
2416.000000	0.102146
2417.000000	0.101451
2418.000000	0.102190
2419.000000	0.104811
2420.000000	0.107572
2421.000000	0.108477
2422.000000	0.109206
2423.000000	0.106864
2424.000000	0.105818
2425.000000	0.104842
2426.000000	0.101492
2427.000000	0.103273
2428.000000	0.104641
2429.000000	0.106351
2430.000000	0.109303
2431.000000	0.109327
2432.000000	0.109451
2433.000000	0.108165
2434.000000	0.110196
2435.000000	0.111212
2436.000000	0.108568
2437.000000	0.109071
2438.000000	0.108063
2439.000000	0.104805
2440.000000	0.103709
2441.000000	0.103460
2442.000000	0.098568
2443.000000	0.094954
2444.000000	0.096247
2445.000000	0.095498
2446.000000	0.096817
2447.000000	0.100499
2448.000000	0.102551
2449.000000	0.101783
2450.000000	0.100789
2451.000000	0.100054
2452.000000	0.099887
2453.000000	0.101437
2454.000000	0.102388
2455.000000	0.102288
2456.000000	0.098391
2457.000000	0.094746
2458.000000	0.091231
2459.000000	0.089482
2460.000000	0.090259
2461.000000	0.090602
2462.000000	0.095462
2463.000000	0.099691
2464.000000	0.101003
2465.000000	0.104883
2466.000000	0.107986
2467.000000	0.104211
2468.000000	0.098542
2469.000000	0.098270
2470.000000	0.098883
2471.000000	0.102975
2472.000000	0.114804
2473.000000	0.118747
2474.000000	0.107332
2475.000000	0.095132
2476.000000	0.081826
2477.000000	0.070841
2478.000000	0.070830
2479.000000	0.072852
2480.000000	0.077714
2481.000000	0.076900
2482.000000	0.070493
2483.000000	0.072790
2484.000000	0.071720
2485.000000	0.071775
2486.000000	0.082585
2487.000000	0.095650
2488.000000	0.100995
2489.000000	0.094709
2490.000000	0.086955
2491.000000	0.069017
2492.000000	0.059786
2493.000000	0.070788
2494.000000	0.071033
2495.000000	0.062564
2496.000000	0.055801
2497.000000	0.043733
2498.000000	0.033219
2499.000000	0.019412
2500.000000	0.016949
