# Wavelength	hexa30_00000.asd.rts.txt
350.000000	0.200708
351.000000	0.206157
352.000000	0.208757
353.000000	0.208248
354.000000	0.207454
355.000000	0.205792
356.000000	0.206806
357.000000	0.210352
358.000000	0.210249
359.000000	0.207422
360.000000	0.204979
361.000000	0.205539
362.000000	0.207547
363.000000	0.209921
364.000000	0.211291
365.000000	0.211210
366.000000	0.210085
367.000000	0.208842
368.000000	0.209611
369.000000	0.209256
370.000000	0.209197
371.000000	0.211597
372.000000	0.213027
373.000000	0.214113
374.000000	0.215721
375.000000	0.216380
376.000000	0.216002
377.000000	0.215159
378.000000	0.215359
379.000000	0.216474
380.000000	0.217407
381.000000	0.217656
382.000000	0.217899
383.000000	0.217795
384.000000	0.217519
385.000000	0.218030
386.000000	0.219505
387.000000	0.221290
388.000000	0.221379
389.000000	0.221358
390.000000	0.221574
391.000000	0.221732
392.000000	0.222326
393.000000	0.222714
394.000000	0.222564
395.000000	0.223083
396.000000	0.223163
397.000000	0.222923
398.000000	0.224429
399.000000	0.225479
400.000000	0.225777
401.000000	0.225695
402.000000	0.226210
403.000000	0.226872
404.000000	0.227230
405.000000	0.227186
406.000000	0.227521
407.000000	0.228419
408.000000	0.229007
409.000000	0.229197
410.000000	0.229201
411.000000	0.229408
412.000000	0.229550
413.000000	0.229859
414.000000	0.230538
415.000000	0.230876
416.000000	0.231073
417.000000	0.231358
418.000000	0.231934
419.000000	0.232193
420.000000	0.232288
421.000000	0.233046
422.000000	0.233435
423.000000	0.233453
424.000000	0.233529
425.000000	0.233995
426.000000	0.234415
427.000000	0.234500
428.000000	0.234789
429.000000	0.235058
430.000000	0.235284
431.000000	0.235722
432.000000	0.236052
433.000000	0.236226
434.000000	0.236422
435.000000	0.236640
436.000000	0.236831
437.000000	0.236941
438.000000	0.237060
439.000000	0.237267
440.000000	0.237584
441.000000	0.237566
442.000000	0.237593
443.000000	0.237780
444.000000	0.238243
445.000000	0.238324
446.000000	0.238412
447.000000	0.238891
448.000000	0.239185
449.000000	0.239399
450.000000	0.239687
451.000000	0.240131
452.000000	0.240419
453.000000	0.240490
454.000000	0.240799
455.000000	0.241026
456.000000	0.241260
457.000000	0.241545
458.000000	0.241770
459.000000	0.242028
460.000000	0.242408
461.000000	0.242547
462.000000	0.242803
463.000000	0.243162
464.000000	0.243455
465.000000	0.243626
466.000000	0.243759
467.000000	0.244182
468.000000	0.244354
469.000000	0.244390
470.000000	0.244679
471.000000	0.244844
472.000000	0.244966
473.000000	0.245159
474.000000	0.245422
475.000000	0.245652
476.000000	0.245904
477.000000	0.246056
478.000000	0.246120
479.000000	0.246377
480.000000	0.246828
481.000000	0.246965
482.000000	0.247134
483.000000	0.247462
484.000000	0.247790
485.000000	0.248024
486.000000	0.248258
487.000000	0.248291
488.000000	0.248474
489.000000	0.248807
490.000000	0.249032
491.000000	0.249271
492.000000	0.249594
493.000000	0.249903
494.000000	0.250099
495.000000	0.250356
496.000000	0.250720
497.000000	0.250985
498.000000	0.251279
499.000000	0.251656
500.000000	0.251887
501.000000	0.252111
502.000000	0.252385
503.000000	0.252641
504.000000	0.252865
505.000000	0.253078
506.000000	0.253310
507.000000	0.253565
508.000000	0.253904
509.000000	0.254280
510.000000	0.254572
511.000000	0.254843
512.000000	0.255144
513.000000	0.255466
514.000000	0.255766
515.000000	0.256096
516.000000	0.256457
517.000000	0.256701
518.000000	0.256956
519.000000	0.257250
520.000000	0.257548
521.000000	0.257880
522.000000	0.258234
523.000000	0.258496
524.000000	0.258790
525.000000	0.259103
526.000000	0.259398
527.000000	0.259691
528.000000	0.259954
529.000000	0.260215
530.000000	0.260500
531.000000	0.260816
532.000000	0.261077
533.000000	0.261314
534.000000	0.261581
535.000000	0.261864
536.000000	0.262117
537.000000	0.262380
538.000000	0.262663
539.000000	0.262953
540.000000	0.263264
541.000000	0.263545
542.000000	0.263802
543.000000	0.264097
544.000000	0.264408
545.000000	0.264666
546.000000	0.264943
547.000000	0.265276
548.000000	0.265642
549.000000	0.265872
550.000000	0.266193
551.000000	0.266589
552.000000	0.266925
553.000000	0.267217
554.000000	0.267507
555.000000	0.267834
556.000000	0.268217
557.000000	0.268539
558.000000	0.268887
559.000000	0.269253
560.000000	0.269529
561.000000	0.269822
562.000000	0.270192
563.000000	0.270503
564.000000	0.270826
565.000000	0.271154
566.000000	0.271525
567.000000	0.271894
568.000000	0.272217
569.000000	0.272533
570.000000	0.272870
571.000000	0.273212
572.000000	0.273534
573.000000	0.273850
574.000000	0.274138
575.000000	0.274424
576.000000	0.274762
577.000000	0.275075
578.000000	0.275373
579.000000	0.275731
580.000000	0.276074
581.000000	0.276378
582.000000	0.276719
583.000000	0.277024
584.000000	0.277308
585.000000	0.277636
586.000000	0.277959
587.000000	0.278291
588.000000	0.278649
589.000000	0.279016
590.000000	0.279354
591.000000	0.279654
592.000000	0.279974
593.000000	0.280245
594.000000	0.280468
595.000000	0.280719
596.000000	0.280960
597.000000	0.281196
598.000000	0.281354
599.000000	0.281499
600.000000	0.281717
601.000000	0.281971
602.000000	0.282151
603.000000	0.282321
604.000000	0.282519
605.000000	0.282697
606.000000	0.282850
607.000000	0.283013
608.000000	0.283247
609.000000	0.283494
610.000000	0.283753
611.000000	0.284021
612.000000	0.284225
613.000000	0.284367
614.000000	0.284499
615.000000	0.284638
616.000000	0.284721
617.000000	0.284747
618.000000	0.284882
619.000000	0.285006
620.000000	0.285079
621.000000	0.285156
622.000000	0.285295
623.000000	0.285473
624.000000	0.285653
625.000000	0.285804
626.000000	0.285992
627.000000	0.286253
628.000000	0.286592
629.000000	0.286979
630.000000	0.287295
631.000000	0.287656
632.000000	0.287956
633.000000	0.288218
634.000000	0.288462
635.000000	0.288651
636.000000	0.288771
637.000000	0.288832
638.000000	0.288939
639.000000	0.289076
640.000000	0.289258
641.000000	0.289359
642.000000	0.289453
643.000000	0.289560
644.000000	0.289686
645.000000	0.289806
646.000000	0.289942
647.000000	0.290079
648.000000	0.290196
649.000000	0.290360
650.000000	0.290568
651.000000	0.290790
652.000000	0.290957
653.000000	0.291121
654.000000	0.291303
655.000000	0.291485
656.000000	0.291661
657.000000	0.291792
658.000000	0.292011
659.000000	0.292243
660.000000	0.292425
661.000000	0.292582
662.000000	0.292697
663.000000	0.292843
664.000000	0.293036
665.000000	0.293203
666.000000	0.293379
667.000000	0.293578
668.000000	0.293782
669.000000	0.293970
670.000000	0.294143
671.000000	0.294320
672.000000	0.294526
673.000000	0.294734
674.000000	0.294886
675.000000	0.295044
676.000000	0.295212
677.000000	0.295393
678.000000	0.295573
679.000000	0.295763
680.000000	0.295964
681.000000	0.296105
682.000000	0.296290
683.000000	0.296464
684.000000	0.296639
685.000000	0.296781
686.000000	0.296925
687.000000	0.297073
688.000000	0.297210
689.000000	0.297378
690.000000	0.297623
691.000000	0.297857
692.000000	0.298080
693.000000	0.298339
694.000000	0.298557
695.000000	0.298756
696.000000	0.298930
697.000000	0.299075
698.000000	0.299241
699.000000	0.299436
700.000000	0.299653
701.000000	0.299823
702.000000	0.300026
703.000000	0.300243
704.000000	0.300369
705.000000	0.300515
706.000000	0.300662
707.000000	0.300833
708.000000	0.301017
709.000000	0.301179
710.000000	0.301317
711.000000	0.301448
712.000000	0.301569
713.000000	0.301714
714.000000	0.301914
715.000000	0.302077
716.000000	0.302224
717.000000	0.302404
718.000000	0.302586
719.000000	0.302718
720.000000	0.302793
721.000000	0.302886
722.000000	0.303007
723.000000	0.303197
724.000000	0.303358
725.000000	0.303473
726.000000	0.303622
727.000000	0.303758
728.000000	0.303836
729.000000	0.303920
730.000000	0.304015
731.000000	0.304138
732.000000	0.304259
733.000000	0.304397
734.000000	0.304512
735.000000	0.304591
736.000000	0.304743
737.000000	0.304863
738.000000	0.304898
739.000000	0.304997
740.000000	0.305103
741.000000	0.305243
742.000000	0.305381
743.000000	0.305483
744.000000	0.305599
745.000000	0.305701
746.000000	0.305824
747.000000	0.305919
748.000000	0.306037
749.000000	0.306164
750.000000	0.306257
751.000000	0.306350
752.000000	0.306436
753.000000	0.306527
754.000000	0.306619
755.000000	0.306726
756.000000	0.306816
757.000000	0.306815
758.000000	0.306849
759.000000	0.306914
760.000000	0.306936
761.000000	0.307005
762.000000	0.307069
763.000000	0.307095
764.000000	0.307141
765.000000	0.307193
766.000000	0.307269
767.000000	0.307370
768.000000	0.307446
769.000000	0.307540
770.000000	0.307669
771.000000	0.307804
772.000000	0.307976
773.000000	0.308109
774.000000	0.308223
775.000000	0.308282
776.000000	0.308319
777.000000	0.308363
778.000000	0.308492
779.000000	0.308545
780.000000	0.308523
781.000000	0.308553
782.000000	0.308598
783.000000	0.308699
784.000000	0.308726
785.000000	0.308711
786.000000	0.308738
787.000000	0.308829
788.000000	0.308890
789.000000	0.308932
790.000000	0.308962
791.000000	0.309034
792.000000	0.309069
793.000000	0.309071
794.000000	0.309065
795.000000	0.309071
796.000000	0.309037
797.000000	0.308997
798.000000	0.309085
799.000000	0.309214
800.000000	0.309329
801.000000	0.309394
802.000000	0.309415
803.000000	0.309429
804.000000	0.309487
805.000000	0.309552
806.000000	0.309542
807.000000	0.309507
808.000000	0.309416
809.000000	0.309399
810.000000	0.309402
811.000000	0.309374
812.000000	0.309417
813.000000	0.309497
814.000000	0.309570
815.000000	0.309604
816.000000	0.309610
817.000000	0.309615
818.000000	0.309571
819.000000	0.309625
820.000000	0.309676
821.000000	0.309638
822.000000	0.309610
823.000000	0.309630
824.000000	0.309617
825.000000	0.309587
826.000000	0.309592
827.000000	0.309527
828.000000	0.309398
829.000000	0.309329
830.000000	0.309268
831.000000	0.309253
832.000000	0.309191
833.000000	0.309135
834.000000	0.309097
835.000000	0.309106
836.000000	0.309119
837.000000	0.309130
838.000000	0.309143
839.000000	0.309121
840.000000	0.309101
841.000000	0.309091
842.000000	0.309053
843.000000	0.309022
844.000000	0.309046
845.000000	0.309068
846.000000	0.308993
847.000000	0.308893
848.000000	0.308760
849.000000	0.308615
850.000000	0.308502
851.000000	0.308419
852.000000	0.308403
853.000000	0.308437
854.000000	0.308432
855.000000	0.308440
856.000000	0.308368
857.000000	0.308256
858.000000	0.308178
859.000000	0.308096
860.000000	0.308041
861.000000	0.307962
862.000000	0.307872
863.000000	0.307737
864.000000	0.307647
865.000000	0.307597
866.000000	0.307586
867.000000	0.307568
868.000000	0.307526
869.000000	0.307412
870.000000	0.307283
871.000000	0.307103
872.000000	0.306913
873.000000	0.306709
874.000000	0.306615
875.000000	0.306520
876.000000	0.306407
877.000000	0.306229
878.000000	0.306000
879.000000	0.305868
880.000000	0.305747
881.000000	0.305582
882.000000	0.305446
883.000000	0.305323
884.000000	0.305111
885.000000	0.304974
886.000000	0.304828
887.000000	0.304649
888.000000	0.304475
889.000000	0.304308
890.000000	0.304031
891.000000	0.303739
892.000000	0.303527
893.000000	0.303312
894.000000	0.303159
895.000000	0.302993
896.000000	0.302804
897.000000	0.302658
898.000000	0.302610
899.000000	0.302486
900.000000	0.302393
901.000000	0.302292
902.000000	0.302061
903.000000	0.301898
904.000000	0.301822
905.000000	0.301689
906.000000	0.301546
907.000000	0.301340
908.000000	0.301115
909.000000	0.300852
910.000000	0.300637
911.000000	0.300443
912.000000	0.300251
913.000000	0.300116
914.000000	0.299906
915.000000	0.299681
916.000000	0.299474
917.000000	0.299282
918.000000	0.299056
919.000000	0.298771
920.000000	0.298575
921.000000	0.298388
922.000000	0.298217
923.000000	0.298072
924.000000	0.297877
925.000000	0.297637
926.000000	0.297422
927.000000	0.297280
928.000000	0.296992
929.000000	0.296637
930.000000	0.296366
931.000000	0.296048
932.000000	0.295803
933.000000	0.295641
934.000000	0.295337
935.000000	0.294978
936.000000	0.294706
937.000000	0.294493
938.000000	0.294199
939.000000	0.293976
940.000000	0.293772
941.000000	0.293576
942.000000	0.293357
943.000000	0.293152
944.000000	0.292892
945.000000	0.292727
946.000000	0.292425
947.000000	0.292148
948.000000	0.292013
949.000000	0.291623
950.000000	0.291327
951.000000	0.291127
952.000000	0.290799
953.000000	0.290554
954.000000	0.290329
955.000000	0.289993
956.000000	0.289641
957.000000	0.289451
958.000000	0.289274
959.000000	0.289012
960.000000	0.289004
961.000000	0.288892
962.000000	0.288619
963.000000	0.288574
964.000000	0.288443
965.000000	0.288277
966.000000	0.288067
967.000000	0.287915
968.000000	0.287630
969.000000	0.287245
970.000000	0.286999
971.000000	0.286659
972.000000	0.286431
973.000000	0.286231
974.000000	0.285790
975.000000	0.285545
976.000000	0.285410
977.000000	0.285229
978.000000	0.285027
979.000000	0.284904
980.000000	0.284604
981.000000	0.284253
982.000000	0.284061
983.000000	0.283817
984.000000	0.283544
985.000000	0.283384
986.000000	0.283315
987.000000	0.283196
988.000000	0.282869
989.000000	0.282579
990.000000	0.282441
991.000000	0.282378
992.000000	0.282292
993.000000	0.282169
994.000000	0.281981
995.000000	0.281810
996.000000	0.281467
997.000000	0.281310
998.000000	0.281223
999.000000	0.281162
1000.000000	0.281026
1001.000000	0.281387
1002.000000	0.281120
1003.000000	0.280903
1004.000000	0.280722
1005.000000	0.280512
1006.000000	0.280212
1007.000000	0.279922
1008.000000	0.279759
1009.000000	0.279664
1010.000000	0.279273
1011.000000	0.279141
1012.000000	0.279316
1013.000000	0.279103
1014.000000	0.278904
1015.000000	0.279059
1016.000000	0.279168
1017.000000	0.279087
1018.000000	0.279299
1019.000000	0.279393
1020.000000	0.279565
1021.000000	0.279189
1022.000000	0.278646
1023.000000	0.278597
1024.000000	0.278350
1025.000000	0.278280
1026.000000	0.278595
1027.000000	0.278563
1028.000000	0.278382
1029.000000	0.278374
1030.000000	0.278225
1031.000000	0.278197
1032.000000	0.278353
1033.000000	0.278329
1034.000000	0.278308
1035.000000	0.278355
1036.000000	0.278431
1037.000000	0.278376
1038.000000	0.278346
1039.000000	0.278491
1040.000000	0.278767
1041.000000	0.278658
1042.000000	0.278665
1043.000000	0.278846
1044.000000	0.278918
1045.000000	0.279049
1046.000000	0.279131
1047.000000	0.279178
1048.000000	0.279017
1049.000000	0.278986
1050.000000	0.279042
1051.000000	0.279102
1052.000000	0.279100
1053.000000	0.279155
1054.000000	0.279443
1055.000000	0.279678
1056.000000	0.279996
1057.000000	0.280247
1058.000000	0.280419
1059.000000	0.280285
1060.000000	0.280350
1061.000000	0.280662
1062.000000	0.280821
1063.000000	0.281054
1064.000000	0.281281
1065.000000	0.281373
1066.000000	0.281522
1067.000000	0.281794
1068.000000	0.281901
1069.000000	0.281732
1070.000000	0.281803
1071.000000	0.282030
1072.000000	0.282183
1073.000000	0.282417
1074.000000	0.282727
1075.000000	0.283002
1076.000000	0.283255
1077.000000	0.283393
1078.000000	0.283584
1079.000000	0.283762
1080.000000	0.283825
1081.000000	0.284055
1082.000000	0.284574
1083.000000	0.284823
1084.000000	0.284972
1085.000000	0.285265
1086.000000	0.285543
1087.000000	0.285788
1088.000000	0.286045
1089.000000	0.286259
1090.000000	0.286318
1091.000000	0.286419
1092.000000	0.286608
1093.000000	0.286886
1094.000000	0.286970
1095.000000	0.286777
1096.000000	0.287019
1097.000000	0.287449
1098.000000	0.287655
1099.000000	0.287943
1100.000000	0.288239
1101.000000	0.288235
1102.000000	0.288428
1103.000000	0.288890
1104.000000	0.289194
1105.000000	0.289427
1106.000000	0.289629
1107.000000	0.289696
1108.000000	0.289826
1109.000000	0.290002
1110.000000	0.290159
1111.000000	0.290327
1112.000000	0.290534
1113.000000	0.290781
1114.000000	0.291058
1115.000000	0.291270
1116.000000	0.291572
1117.000000	0.291730
1118.000000	0.291696
1119.000000	0.291753
1120.000000	0.291824
1121.000000	0.291882
1122.000000	0.292076
1123.000000	0.292321
1124.000000	0.292278
1125.000000	0.292404
1126.000000	0.292575
1127.000000	0.292662
1128.000000	0.292740
1129.000000	0.292872
1130.000000	0.293049
1131.000000	0.293242
1132.000000	0.293330
1133.000000	0.293470
1134.000000	0.293643
1135.000000	0.293681
1136.000000	0.293775
1137.000000	0.294009
1138.000000	0.294097
1139.000000	0.294133
1140.000000	0.294266
1141.000000	0.294380
1142.000000	0.294486
1143.000000	0.294541
1144.000000	0.294705
1145.000000	0.294735
1146.000000	0.294719
1147.000000	0.294789
1148.000000	0.294811
1149.000000	0.294885
1150.000000	0.295008
1151.000000	0.295160
1152.000000	0.295341
1153.000000	0.295429
1154.000000	0.295495
1155.000000	0.295496
1156.000000	0.295342
1157.000000	0.295317
1158.000000	0.295293
1159.000000	0.295278
1160.000000	0.295298
1161.000000	0.295305
1162.000000	0.295325
1163.000000	0.295526
1164.000000	0.295533
1165.000000	0.295546
1166.000000	0.295579
1167.000000	0.295538
1168.000000	0.295453
1169.000000	0.295389
1170.000000	0.295368
1171.000000	0.295313
1172.000000	0.295362
1173.000000	0.295518
1174.000000	0.295574
1175.000000	0.295590
1176.000000	0.295560
1177.000000	0.295544
1178.000000	0.295524
1179.000000	0.295475
1180.000000	0.295394
1181.000000	0.295379
1182.000000	0.295315
1183.000000	0.295368
1184.000000	0.295465
1185.000000	0.295473
1186.000000	0.295496
1187.000000	0.295470
1188.000000	0.295340
1189.000000	0.295261
1190.000000	0.295251
1191.000000	0.295233
1192.000000	0.295294
1193.000000	0.295409
1194.000000	0.295458
1195.000000	0.295504
1196.000000	0.295535
1197.000000	0.295531
1198.000000	0.295484
1199.000000	0.295488
1200.000000	0.295502
1201.000000	0.295470
1202.000000	0.295461
1203.000000	0.295544
1204.000000	0.295601
1205.000000	0.295640
1206.000000	0.295614
1207.000000	0.295647
1208.000000	0.295610
1209.000000	0.295563
1210.000000	0.295524
1211.000000	0.295467
1212.000000	0.295424
1213.000000	0.295403
1214.000000	0.295416
1215.000000	0.295458
1216.000000	0.295485
1217.000000	0.295503
1218.000000	0.295478
1219.000000	0.295433
1220.000000	0.295450
1221.000000	0.295451
1222.000000	0.295410
1223.000000	0.295430
1224.000000	0.295465
1225.000000	0.295455
1226.000000	0.295466
1227.000000	0.295381
1228.000000	0.295345
1229.000000	0.295281
1230.000000	0.295160
1231.000000	0.295071
1232.000000	0.295111
1233.000000	0.295184
1234.000000	0.295294
1235.000000	0.295332
1236.000000	0.295295
1237.000000	0.295293
1238.000000	0.295169
1239.000000	0.295134
1240.000000	0.295163
1241.000000	0.295169
1242.000000	0.295189
1243.000000	0.295213
1244.000000	0.295188
1245.000000	0.295231
1246.000000	0.295243
1247.000000	0.295292
1248.000000	0.295366
1249.000000	0.295386
1250.000000	0.295417
1251.000000	0.295439
1252.000000	0.295421
1253.000000	0.295388
1254.000000	0.295385
1255.000000	0.295378
1256.000000	0.295350
1257.000000	0.295344
1258.000000	0.295357
1259.000000	0.295268
1260.000000	0.295301
1261.000000	0.295389
1262.000000	0.295403
1263.000000	0.295445
1264.000000	0.295439
1265.000000	0.295428
1266.000000	0.295388
1267.000000	0.295376
1268.000000	0.295337
1269.000000	0.295190
1270.000000	0.295171
1271.000000	0.295137
1272.000000	0.295088
1273.000000	0.295152
1274.000000	0.295150
1275.000000	0.295099
1276.000000	0.295054
1277.000000	0.295057
1278.000000	0.294924
1279.000000	0.294860
1280.000000	0.294794
1281.000000	0.294719
1282.000000	0.294682
1283.000000	0.294712
1284.000000	0.294759
1285.000000	0.294746
1286.000000	0.294696
1287.000000	0.294643
1288.000000	0.294584
1289.000000	0.294533
1290.000000	0.294475
1291.000000	0.294421
1292.000000	0.294406
1293.000000	0.294338
1294.000000	0.294234
1295.000000	0.294174
1296.000000	0.294117
1297.000000	0.294094
1298.000000	0.294159
1299.000000	0.294180
1300.000000	0.294171
1301.000000	0.294161
1302.000000	0.294110
1303.000000	0.294127
1304.000000	0.294130
1305.000000	0.294223
1306.000000	0.294244
1307.000000	0.294324
1308.000000	0.294374
1309.000000	0.294340
1310.000000	0.294345
1311.000000	0.294415
1312.000000	0.294366
1313.000000	0.294315
1314.000000	0.294315
1315.000000	0.294226
1316.000000	0.294208
1317.000000	0.294251
1318.000000	0.294232
1319.000000	0.294178
1320.000000	0.294116
1321.000000	0.294007
1322.000000	0.293918
1323.000000	0.293850
1324.000000	0.293814
1325.000000	0.293768
1326.000000	0.293682
1327.000000	0.293611
1328.000000	0.293629
1329.000000	0.293528
1330.000000	0.293358
1331.000000	0.293268
1332.000000	0.293200
1333.000000	0.293115
1334.000000	0.293161
1335.000000	0.293161
1336.000000	0.293110
1337.000000	0.293065
1338.000000	0.292994
1339.000000	0.292841
1340.000000	0.292709
1341.000000	0.292589
1342.000000	0.292440
1343.000000	0.292336
1344.000000	0.292288
1345.000000	0.292179
1346.000000	0.292160
1347.000000	0.292084
1348.000000	0.291965
1349.000000	0.291913
1350.000000	0.291942
1351.000000	0.291934
1352.000000	0.291917
1353.000000	0.291910
1354.000000	0.291889
1355.000000	0.291826
1356.000000	0.291860
1357.000000	0.291823
1358.000000	0.291759
1359.000000	0.291728
1360.000000	0.291679
1361.000000	0.291663
1362.000000	0.291617
1363.000000	0.291537
1364.000000	0.291483
1365.000000	0.291386
1366.000000	0.291301
1367.000000	0.291238
1368.000000	0.291105
1369.000000	0.291047
1370.000000	0.290999
1371.000000	0.290896
1372.000000	0.290796
1373.000000	0.290731
1374.000000	0.290678
1375.000000	0.290611
1376.000000	0.290682
1377.000000	0.290767
1378.000000	0.290764
1379.000000	0.290719
1380.000000	0.290670
1381.000000	0.290571
1382.000000	0.290459
1383.000000	0.290403
1384.000000	0.290268
1385.000000	0.290099
1386.000000	0.290058
1387.000000	0.290034
1388.000000	0.289958
1389.000000	0.289922
1390.000000	0.289833
1391.000000	0.289628
1392.000000	0.289485
1393.000000	0.289351
1394.000000	0.289259
1395.000000	0.289172
1396.000000	0.289121
1397.000000	0.288992
1398.000000	0.288786
1399.000000	0.288619
1400.000000	0.288444
1401.000000	0.288261
1402.000000	0.288138
1403.000000	0.287918
1404.000000	0.287786
1405.000000	0.287576
1406.000000	0.287322
1407.000000	0.287121
1408.000000	0.286812
1409.000000	0.286596
1410.000000	0.286452
1411.000000	0.286254
1412.000000	0.286017
1413.000000	0.285728
1414.000000	0.285451
1415.000000	0.285189
1416.000000	0.284905
1417.000000	0.284653
1418.000000	0.284334
1419.000000	0.284021
1420.000000	0.283698
1421.000000	0.283453
1422.000000	0.283186
1423.000000	0.282935
1424.000000	0.282623
1425.000000	0.282262
1426.000000	0.281860
1427.000000	0.281475
1428.000000	0.281113
1429.000000	0.280799
1430.000000	0.280531
1431.000000	0.280248
1432.000000	0.279951
1433.000000	0.279688
1434.000000	0.279393
1435.000000	0.279150
1436.000000	0.278893
1437.000000	0.278630
1438.000000	0.278323
1439.000000	0.278023
1440.000000	0.277727
1441.000000	0.277404
1442.000000	0.277136
1443.000000	0.276832
1444.000000	0.276583
1445.000000	0.276352
1446.000000	0.276134
1447.000000	0.275955
1448.000000	0.275744
1449.000000	0.275538
1450.000000	0.275380
1451.000000	0.275199
1452.000000	0.274950
1453.000000	0.274736
1454.000000	0.274534
1455.000000	0.274383
1456.000000	0.274342
1457.000000	0.274277
1458.000000	0.274181
1459.000000	0.274057
1460.000000	0.273899
1461.000000	0.273755
1462.000000	0.273611
1463.000000	0.273409
1464.000000	0.273244
1465.000000	0.273168
1466.000000	0.273072
1467.000000	0.273005
1468.000000	0.272942
1469.000000	0.272895
1470.000000	0.272812
1471.000000	0.272781
1472.000000	0.272786
1473.000000	0.272797
1474.000000	0.272792
1475.000000	0.272804
1476.000000	0.272814
1477.000000	0.272873
1478.000000	0.272940
1479.000000	0.272958
1480.000000	0.272982
1481.000000	0.272966
1482.000000	0.272929
1483.000000	0.272933
1484.000000	0.272951
1485.000000	0.272947
1486.000000	0.272944
1487.000000	0.272939
1488.000000	0.272902
1489.000000	0.272929
1490.000000	0.272890
1491.000000	0.272910
1492.000000	0.272939
1493.000000	0.272994
1494.000000	0.273030
1495.000000	0.273063
1496.000000	0.273115
1497.000000	0.273182
1498.000000	0.273280
1499.000000	0.273329
1500.000000	0.273391
1501.000000	0.273402
1502.000000	0.273343
1503.000000	0.273355
1504.000000	0.273413
1505.000000	0.273472
1506.000000	0.273570
1507.000000	0.273657
1508.000000	0.273778
1509.000000	0.273845
1510.000000	0.273876
1511.000000	0.273967
1512.000000	0.273983
1513.000000	0.274037
1514.000000	0.274194
1515.000000	0.274269
1516.000000	0.274361
1517.000000	0.274438
1518.000000	0.274448
1519.000000	0.274420
1520.000000	0.274456
1521.000000	0.274460
1522.000000	0.274484
1523.000000	0.274596
1524.000000	0.274653
1525.000000	0.274726
1526.000000	0.274786
1527.000000	0.274825
1528.000000	0.274915
1529.000000	0.274992
1530.000000	0.275010
1531.000000	0.275118
1532.000000	0.275226
1533.000000	0.275261
1534.000000	0.275371
1535.000000	0.275478
1536.000000	0.275497
1537.000000	0.275619
1538.000000	0.275735
1539.000000	0.275719
1540.000000	0.275740
1541.000000	0.275818
1542.000000	0.275833
1543.000000	0.275860
1544.000000	0.275912
1545.000000	0.275947
1546.000000	0.276015
1547.000000	0.276114
1548.000000	0.276210
1549.000000	0.276279
1550.000000	0.276298
1551.000000	0.276332
1552.000000	0.276410
1553.000000	0.276459
1554.000000	0.276512
1555.000000	0.276592
1556.000000	0.276641
1557.000000	0.276652
1558.000000	0.276663
1559.000000	0.276612
1560.000000	0.276562
1561.000000	0.276530
1562.000000	0.276447
1563.000000	0.276368
1564.000000	0.276297
1565.000000	0.276179
1566.000000	0.276051
1567.000000	0.276022
1568.000000	0.275969
1569.000000	0.275974
1570.000000	0.275942
1571.000000	0.275870
1572.000000	0.275829
1573.000000	0.275788
1574.000000	0.275766
1575.000000	0.275812
1576.000000	0.275834
1577.000000	0.275831
1578.000000	0.275801
1579.000000	0.275803
1580.000000	0.275797
1581.000000	0.275837
1582.000000	0.275827
1583.000000	0.275795
1584.000000	0.275743
1585.000000	0.275721
1586.000000	0.275725
1587.000000	0.275732
1588.000000	0.275731
1589.000000	0.275752
1590.000000	0.275741
1591.000000	0.275739
1592.000000	0.275745
1593.000000	0.275768
1594.000000	0.275751
1595.000000	0.275773
1596.000000	0.275771
1597.000000	0.275753
1598.000000	0.275720
1599.000000	0.275709
1600.000000	0.275652
1601.000000	0.275610
1602.000000	0.275574
1603.000000	0.275568
1604.000000	0.275524
1605.000000	0.275498
1606.000000	0.275444
1607.000000	0.275415
1608.000000	0.275342
1609.000000	0.275261
1610.000000	0.275190
1611.000000	0.275111
1612.000000	0.275052
1613.000000	0.275112
1614.000000	0.275098
1615.000000	0.275117
1616.000000	0.275142
1617.000000	0.275102
1618.000000	0.275095
1619.000000	0.275080
1620.000000	0.275086
1621.000000	0.275116
1622.000000	0.275217
1623.000000	0.275369
1624.000000	0.275451
1625.000000	0.275399
1626.000000	0.275424
1627.000000	0.275462
1628.000000	0.275525
1629.000000	0.275664
1630.000000	0.275740
1631.000000	0.275685
1632.000000	0.275699
1633.000000	0.275764
1634.000000	0.275797
1635.000000	0.275904
1636.000000	0.275896
1637.000000	0.275797
1638.000000	0.275756
1639.000000	0.275734
1640.000000	0.275700
1641.000000	0.275760
1642.000000	0.275780
1643.000000	0.275803
1644.000000	0.275811
1645.000000	0.275815
1646.000000	0.275782
1647.000000	0.275741
1648.000000	0.275671
1649.000000	0.275640
1650.000000	0.275656
1651.000000	0.275710
1652.000000	0.275776
1653.000000	0.275860
1654.000000	0.275923
1655.000000	0.275919
1656.000000	0.275857
1657.000000	0.275814
1658.000000	0.275819
1659.000000	0.275895
1660.000000	0.275993
1661.000000	0.276079
1662.000000	0.276176
1663.000000	0.276263
1664.000000	0.276318
1665.000000	0.276379
1666.000000	0.276490
1667.000000	0.276503
1668.000000	0.276566
1669.000000	0.276674
1670.000000	0.276690
1671.000000	0.276746
1672.000000	0.276839
1673.000000	0.276890
1674.000000	0.277025
1675.000000	0.277157
1676.000000	0.277238
1677.000000	0.277302
1678.000000	0.277300
1679.000000	0.277310
1680.000000	0.277310
1681.000000	0.277309
1682.000000	0.277360
1683.000000	0.277419
1684.000000	0.277451
1685.000000	0.277486
1686.000000	0.277437
1687.000000	0.277357
1688.000000	0.277265
1689.000000	0.277220
1690.000000	0.277196
1691.000000	0.277237
1692.000000	0.277227
1693.000000	0.277205
1694.000000	0.277201
1695.000000	0.277229
1696.000000	0.277305
1697.000000	0.277312
1698.000000	0.277313
1699.000000	0.277361
1700.000000	0.277409
1701.000000	0.277523
1702.000000	0.277547
1703.000000	0.277547
1704.000000	0.277572
1705.000000	0.277650
1706.000000	0.277813
1707.000000	0.277943
1708.000000	0.278114
1709.000000	0.278166
1710.000000	0.278186
1711.000000	0.278256
1712.000000	0.278316
1713.000000	0.278392
1714.000000	0.278587
1715.000000	0.278679
1716.000000	0.278724
1717.000000	0.278765
1718.000000	0.278703
1719.000000	0.278705
1720.000000	0.278813
1721.000000	0.278841
1722.000000	0.278848
1723.000000	0.278864
1724.000000	0.278854
1725.000000	0.278894
1726.000000	0.278892
1727.000000	0.278926
1728.000000	0.278960
1729.000000	0.278887
1730.000000	0.278882
1731.000000	0.278878
1732.000000	0.278815
1733.000000	0.278862
1734.000000	0.278901
1735.000000	0.278874
1736.000000	0.278786
1737.000000	0.278742
1738.000000	0.278678
1739.000000	0.278680
1740.000000	0.278725
1741.000000	0.278747
1742.000000	0.278773
1743.000000	0.278915
1744.000000	0.279118
1745.000000	0.279182
1746.000000	0.279255
1747.000000	0.279212
1748.000000	0.279199
1749.000000	0.279289
1750.000000	0.279334
1751.000000	0.279478
1752.000000	0.279665
1753.000000	0.279739
1754.000000	0.279842
1755.000000	0.279895
1756.000000	0.279987
1757.000000	0.280147
1758.000000	0.280264
1759.000000	0.280379
1760.000000	0.280461
1761.000000	0.280451
1762.000000	0.280454
1763.000000	0.280464
1764.000000	0.280475
1765.000000	0.280429
1766.000000	0.280443
1767.000000	0.280429
1768.000000	0.280389
1769.000000	0.280466
1770.000000	0.280496
1771.000000	0.280426
1772.000000	0.280410
1773.000000	0.280330
1774.000000	0.280346
1775.000000	0.280496
1776.000000	0.280577
1777.000000	0.280646
1778.000000	0.280705
1779.000000	0.280723
1780.000000	0.280773
1781.000000	0.280797
1782.000000	0.280883
1783.000000	0.281052
1784.000000	0.281172
1785.000000	0.281214
1786.000000	0.281279
1787.000000	0.281412
1788.000000	0.281537
1789.000000	0.281599
1790.000000	0.281592
1791.000000	0.281538
1792.000000	0.281501
1793.000000	0.281510
1794.000000	0.281555
1795.000000	0.281589
1796.000000	0.281634
1797.000000	0.281682
1798.000000	0.281699
1799.000000	0.281710
1800.000000	0.281769
1801.000000	0.281784
1802.000000	0.281842
1803.000000	0.281552
1804.000000	0.281537
1805.000000	0.281654
1806.000000	0.281656
1807.000000	0.281579
1808.000000	0.281621
1809.000000	0.281770
1810.000000	0.281573
1811.000000	0.281709
1812.000000	0.282179
1813.000000	0.282242
1814.000000	0.282157
1815.000000	0.282255
1816.000000	0.282281
1817.000000	0.282161
1818.000000	0.282057
1819.000000	0.282371
1820.000000	0.282045
1821.000000	0.281569
1822.000000	0.281457
1823.000000	0.281399
1824.000000	0.281248
1825.000000	0.281167
1826.000000	0.281253
1827.000000	0.281367
1828.000000	0.281178
1829.000000	0.281471
1830.000000	0.281780
1831.000000	0.281585
1832.000000	0.280877
1833.000000	0.280725
1834.000000	0.280500
1835.000000	0.280346
1836.000000	0.280405
1837.000000	0.280538
1838.000000	0.280591
1839.000000	0.280531
1840.000000	0.280583
1841.000000	0.280730
1842.000000	0.280809
1843.000000	0.280693
1844.000000	0.280690
1845.000000	0.280707
1846.000000	0.280752
1847.000000	0.280682
1848.000000	0.280475
1849.000000	0.280545
1850.000000	0.280495
1851.000000	0.280505
1852.000000	0.280584
1853.000000	0.280601
1854.000000	0.280487
1855.000000	0.280294
1856.000000	0.280034
1857.000000	0.279497
1858.000000	0.279021
1859.000000	0.278303
1860.000000	0.277771
1861.000000	0.277618
1862.000000	0.277361
1863.000000	0.277310
1864.000000	0.277304
1865.000000	0.277495
1866.000000	0.277343
1867.000000	0.277093
1868.000000	0.276791
1869.000000	0.276163
1870.000000	0.275543
1871.000000	0.275451
1872.000000	0.275284
1873.000000	0.275053
1874.000000	0.274939
1875.000000	0.274752
1876.000000	0.274274
1877.000000	0.273526
1878.000000	0.272871
1879.000000	0.272082
1880.000000	0.271182
1881.000000	0.270398
1882.000000	0.269627
1883.000000	0.268966
1884.000000	0.268414
1885.000000	0.267726
1886.000000	0.267094
1887.000000	0.266691
1888.000000	0.265978
1889.000000	0.264968
1890.000000	0.264141
1891.000000	0.263345
1892.000000	0.262451
1893.000000	0.261487
1894.000000	0.260688
1895.000000	0.259662
1896.000000	0.258598
1897.000000	0.257453
1898.000000	0.256383
1899.000000	0.255436
1900.000000	0.254568
1901.000000	0.253624
1902.000000	0.252673
1903.000000	0.251618
1904.000000	0.250455
1905.000000	0.249193
1906.000000	0.247879
1907.000000	0.246557
1908.000000	0.245186
1909.000000	0.243792
1910.000000	0.242664
1911.000000	0.241567
1912.000000	0.240393
1913.000000	0.239434
1914.000000	0.238588
1915.000000	0.237403
1916.000000	0.236332
1917.000000	0.235399
1918.000000	0.234650
1919.000000	0.233806
1920.000000	0.233092
1921.000000	0.232635
1922.000000	0.232052
1923.000000	0.231404
1924.000000	0.230741
1925.000000	0.229806
1926.000000	0.229075
1927.000000	0.228422
1928.000000	0.227762
1929.000000	0.227216
1930.000000	0.226957
1931.000000	0.226458
1932.000000	0.226088
1933.000000	0.225865
1934.000000	0.225584
1935.000000	0.225516
1936.000000	0.225402
1937.000000	0.225063
1938.000000	0.224677
1939.000000	0.224339
1940.000000	0.223897
1941.000000	0.223479
1942.000000	0.223481
1943.000000	0.223633
1944.000000	0.223782
1945.000000	0.223944
1946.000000	0.223910
1947.000000	0.223702
1948.000000	0.223405
1949.000000	0.223217
1950.000000	0.222972
1951.000000	0.222722
1952.000000	0.222531
1953.000000	0.222438
1954.000000	0.222363
1955.000000	0.222448
1956.000000	0.222483
1957.000000	0.222422
1958.000000	0.222177
1959.000000	0.221951
1960.000000	0.221805
1961.000000	0.221743
1962.000000	0.221786
1963.000000	0.222117
1964.000000	0.222301
1965.000000	0.222360
1966.000000	0.222281
1967.000000	0.221939
1968.000000	0.221706
1969.000000	0.221524
1970.000000	0.221382
1971.000000	0.221306
1972.000000	0.221329
1973.000000	0.221241
1974.000000	0.221143
1975.000000	0.221226
1976.000000	0.221486
1977.000000	0.221620
1978.000000	0.221594
1979.000000	0.221712
1980.000000	0.221850
1981.000000	0.221961
1982.000000	0.222251
1983.000000	0.222727
1984.000000	0.222976
1985.000000	0.223158
1986.000000	0.223173
1987.000000	0.223114
1988.000000	0.223027
1989.000000	0.222955
1990.000000	0.223090
1991.000000	0.223274
1992.000000	0.223531
1993.000000	0.223671
1994.000000	0.223888
1995.000000	0.224345
1996.000000	0.224636
1997.000000	0.224902
1998.000000	0.225258
1999.000000	0.225579
2000.000000	0.225772
2001.000000	0.226098
2002.000000	0.226464
2003.000000	0.226473
2004.000000	0.226491
2005.000000	0.226421
2006.000000	0.226542
2007.000000	0.226905
2008.000000	0.227280
2009.000000	0.227913
2010.000000	0.228312
2011.000000	0.228529
2012.000000	0.228768
2013.000000	0.228863
2014.000000	0.228850
2015.000000	0.229226
2016.000000	0.229500
2017.000000	0.229708
2018.000000	0.230014
2019.000000	0.230298
2020.000000	0.230695
2021.000000	0.231143
2022.000000	0.231875
2023.000000	0.232313
2024.000000	0.232644
2025.000000	0.232968
2026.000000	0.233119
2027.000000	0.233139
2028.000000	0.233306
2029.000000	0.233604
2030.000000	0.233854
2031.000000	0.234196
2032.000000	0.234463
2033.000000	0.234799
2034.000000	0.235091
2035.000000	0.235491
2036.000000	0.235715
2037.000000	0.235940
2038.000000	0.236172
2039.000000	0.236401
2040.000000	0.236715
2041.000000	0.236939
2042.000000	0.237362
2043.000000	0.237477
2044.000000	0.237531
2045.000000	0.237798
2046.000000	0.237899
2047.000000	0.238115
2048.000000	0.238478
2049.000000	0.238822
2050.000000	0.238826
2051.000000	0.238929
2052.000000	0.238974
2053.000000	0.239041
2054.000000	0.239253
2055.000000	0.239628
2056.000000	0.240040
2057.000000	0.240343
2058.000000	0.240504
2059.000000	0.240556
2060.000000	0.240611
2061.000000	0.240534
2062.000000	0.240620
2063.000000	0.240792
2064.000000	0.240877
2065.000000	0.241157
2066.000000	0.241343
2067.000000	0.241736
2068.000000	0.242140
2069.000000	0.242341
2070.000000	0.242781
2071.000000	0.242970
2072.000000	0.243175
2073.000000	0.243508
2074.000000	0.243713
2075.000000	0.243973
2076.000000	0.244285
2077.000000	0.244445
2078.000000	0.244514
2079.000000	0.244628
2080.000000	0.244649
2081.000000	0.244780
2082.000000	0.245054
2083.000000	0.245244
2084.000000	0.245464
2085.000000	0.245775
2086.000000	0.246011
2087.000000	0.246356
2088.000000	0.246581
2089.000000	0.246764
2090.000000	0.246965
2091.000000	0.247114
2092.000000	0.247425
2093.000000	0.247854
2094.000000	0.248247
2095.000000	0.248889
2096.000000	0.249320
2097.000000	0.249617
2098.000000	0.249726
2099.000000	0.249855
2100.000000	0.250002
2101.000000	0.250273
2102.000000	0.250463
2103.000000	0.250785
2104.000000	0.251079
2105.000000	0.251175
2106.000000	0.251073
2107.000000	0.251249
2108.000000	0.251344
2109.000000	0.251514
2110.000000	0.251854
2111.000000	0.251935
2112.000000	0.251701
2113.000000	0.251461
2114.000000	0.251502
2115.000000	0.251521
2116.000000	0.251926
2117.000000	0.252264
2118.000000	0.252356
2119.000000	0.252584
2120.000000	0.252756
2121.000000	0.252759
2122.000000	0.252947
2123.000000	0.253181
2124.000000	0.253538
2125.000000	0.254122
2126.000000	0.254518
2127.000000	0.255137
2128.000000	0.255479
2129.000000	0.255444
2130.000000	0.255435
2131.000000	0.255467
2132.000000	0.255452
2133.000000	0.255812
2134.000000	0.256196
2135.000000	0.256377
2136.000000	0.256659
2137.000000	0.256763
2138.000000	0.256772
2139.000000	0.256743
2140.000000	0.256435
2141.000000	0.256415
2142.000000	0.256551
2143.000000	0.256357
2144.000000	0.256461
2145.000000	0.256406
2146.000000	0.256012
2147.000000	0.256004
2148.000000	0.256248
2149.000000	0.256637
2150.000000	0.256894
2151.000000	0.257025
2152.000000	0.257165
2153.000000	0.256717
2154.000000	0.256434
2155.000000	0.256203
2156.000000	0.256017
2157.000000	0.255682
2158.000000	0.255601
2159.000000	0.255734
2160.000000	0.255884
2161.000000	0.256101
2162.000000	0.256429
2163.000000	0.256959
2164.000000	0.257225
2165.000000	0.257363
2166.000000	0.257480
2167.000000	0.257629
2168.000000	0.257797
2169.000000	0.258320
2170.000000	0.258474
2171.000000	0.258589
2172.000000	0.258624
2173.000000	0.258614
2174.000000	0.258470
2175.000000	0.258416
2176.000000	0.258321
2177.000000	0.258245
2178.000000	0.258282
2179.000000	0.258253
2180.000000	0.257912
2181.000000	0.258125
2182.000000	0.258146
2183.000000	0.258121
2184.000000	0.258609
2185.000000	0.259123
2186.000000	0.258752
2187.000000	0.258841
2188.000000	0.258648
2189.000000	0.257925
2190.000000	0.258109
2191.000000	0.258380
2192.000000	0.258230
2193.000000	0.258060
2194.000000	0.257666
2195.000000	0.256685
2196.000000	0.256164
2197.000000	0.255364
2198.000000	0.255347
2199.000000	0.256493
2200.000000	0.256826
2201.000000	0.257136
2202.000000	0.257567
2203.000000	0.257585
2204.000000	0.257172
2205.000000	0.257058
2206.000000	0.257908
2207.000000	0.258064
2208.000000	0.258605
2209.000000	0.259283
2210.000000	0.258960
2211.000000	0.258234
2212.000000	0.257945
2213.000000	0.257653
2214.000000	0.257415
2215.000000	0.257354
2216.000000	0.257134
2217.000000	0.257582
2218.000000	0.258585
2219.000000	0.259313
2220.000000	0.260803
2221.000000	0.261316
2222.000000	0.261182
2223.000000	0.261032
2224.000000	0.260270
2225.000000	0.260173
2226.000000	0.259207
2227.000000	0.258326
2228.000000	0.258952
2229.000000	0.258450
2230.000000	0.259104
2231.000000	0.259737
2232.000000	0.258817
2233.000000	0.259679
2234.000000	0.260116
2235.000000	0.260979
2236.000000	0.261407
2237.000000	0.261646
2238.000000	0.261730
2239.000000	0.261402
2240.000000	0.261442
2241.000000	0.261949
2242.000000	0.262035
2243.000000	0.261963
2244.000000	0.261852
2245.000000	0.261337
2246.000000	0.261046
2247.000000	0.260624
2248.000000	0.260578
2249.000000	0.261022
2250.000000	0.261219
2251.000000	0.260519
2252.000000	0.260189
2253.000000	0.259860
2254.000000	0.259365
2255.000000	0.260309
2256.000000	0.261160
2257.000000	0.260989
2258.000000	0.261102
2259.000000	0.260815
2260.000000	0.260050
2261.000000	0.259324
2262.000000	0.258340
2263.000000	0.257564
2264.000000	0.256815
2265.000000	0.256292
2266.000000	0.255819
2267.000000	0.255692
2268.000000	0.255720
2269.000000	0.256018
2270.000000	0.256971
2271.000000	0.257369
2272.000000	0.257522
2273.000000	0.257828
2274.000000	0.257945
2275.000000	0.258142
2276.000000	0.258778
2277.000000	0.258910
2278.000000	0.258458
2279.000000	0.257577
2280.000000	0.255920
2281.000000	0.255134
2282.000000	0.255181
2283.000000	0.255682
2284.000000	0.256926
2285.000000	0.257858
2286.000000	0.258107
2287.000000	0.257652
2288.000000	0.257303
2289.000000	0.256575
2290.000000	0.254955
2291.000000	0.254153
2292.000000	0.253579
2293.000000	0.253083
2294.000000	0.253247
2295.000000	0.254700
2296.000000	0.255010
2297.000000	0.255221
2298.000000	0.254964
2299.000000	0.254103
2300.000000	0.253552
2301.000000	0.252472
2302.000000	0.252112
2303.000000	0.252216
2304.000000	0.252210
2305.000000	0.253042
2306.000000	0.253043
2307.000000	0.252567
2308.000000	0.251844
2309.000000	0.251238
2310.000000	0.250178
2311.000000	0.249645
2312.000000	0.249174
2313.000000	0.249118
2314.000000	0.248889
2315.000000	0.248689
2316.000000	0.249133
2317.000000	0.248285
2318.000000	0.247766
2319.000000	0.248621
2320.000000	0.248528
2321.000000	0.248135
2322.000000	0.248193
2323.000000	0.247552
2324.000000	0.246776
2325.000000	0.246677
2326.000000	0.246449
2327.000000	0.245704
2328.000000	0.245087
2329.000000	0.244913
2330.000000	0.244638
2331.000000	0.244843
2332.000000	0.245577
2333.000000	0.246696
2334.000000	0.247948
2335.000000	0.247861
2336.000000	0.246295
2337.000000	0.244830
2338.000000	0.241240
2339.000000	0.239933
2340.000000	0.239928
2341.000000	0.239908
2342.000000	0.241023
2343.000000	0.241534
2344.000000	0.242498
2345.000000	0.242310
2346.000000	0.241710
2347.000000	0.240826
2348.000000	0.239139
2349.000000	0.236505
2350.000000	0.235565
2351.000000	0.235416
2352.000000	0.235790
2353.000000	0.237427
2354.000000	0.238296
2355.000000	0.238748
2356.000000	0.238889
2357.000000	0.237606
2358.000000	0.236088
2359.000000	0.234310
2360.000000	0.232226
2361.000000	0.232167
2362.000000	0.231937
2363.000000	0.231046
2364.000000	0.230833
2365.000000	0.230691
2366.000000	0.231305
2367.000000	0.232773
2368.000000	0.234562
2369.000000	0.234401
2370.000000	0.233366
2371.000000	0.232671
2372.000000	0.231215
2373.000000	0.231439
2374.000000	0.230311
2375.000000	0.228226
2376.000000	0.229118
2377.000000	0.229599
2378.000000	0.230231
2379.000000	0.231543
2380.000000	0.229891
2381.000000	0.226496
2382.000000	0.223820
2383.000000	0.223039
2384.000000	0.222444
2385.000000	0.221675
2386.000000	0.222511
2387.000000	0.221524
2388.000000	0.220672
2389.000000	0.219854
2390.000000	0.216860
2391.000000	0.215253
2392.000000	0.213853
2393.000000	0.214680
2394.000000	0.217564
2395.000000	0.218401
2396.000000	0.219569
2397.000000	0.220254
2398.000000	0.218692
2399.000000	0.217906
2400.000000	0.218240
2401.000000	0.219355
2402.000000	0.220882
2403.000000	0.223024
2404.000000	0.223400
2405.000000	0.219065
2406.000000	0.216847
2407.000000	0.215884
2408.000000	0.215284
2409.000000	0.215722
2410.000000	0.214271
2411.000000	0.212815
2412.000000	0.209781
2413.000000	0.211644
2414.000000	0.216450
2415.000000	0.218164
2416.000000	0.220896
2417.000000	0.219408
2418.000000	0.215824
2419.000000	0.212139
2420.000000	0.210524
2421.000000	0.212744
2422.000000	0.212957
2423.000000	0.216619
2424.000000	0.219944
2425.000000	0.218428
2426.000000	0.217810
2427.000000	0.216777
2428.000000	0.214060
2429.000000	0.211425
2430.000000	0.207271
2431.000000	0.205038
2432.000000	0.204974
2433.000000	0.204969
2434.000000	0.210314
2435.000000	0.211409
2436.000000	0.208662
2437.000000	0.212433
2438.000000	0.214938
2439.000000	0.213580
2440.000000	0.213301
2441.000000	0.209334
2442.000000	0.203147
2443.000000	0.203870
2444.000000	0.204903
2445.000000	0.203627
2446.000000	0.204223
2447.000000	0.201611
2448.000000	0.201276
2449.000000	0.205867
2450.000000	0.204931
2451.000000	0.203968
2452.000000	0.207838
2453.000000	0.208508
2454.000000	0.207360
2455.000000	0.205296
2456.000000	0.198191
2457.000000	0.196750
2458.000000	0.201996
2459.000000	0.200453
2460.000000	0.201502
2461.000000	0.195951
2462.000000	0.183354
2463.000000	0.186881
2464.000000	0.194038
2465.000000	0.200612
2466.000000	0.210266
2467.000000	0.218281
2468.000000	0.218798
2469.000000	0.217149
2470.000000	0.216235
2471.000000	0.202372
2472.000000	0.195689
2473.000000	0.190791
2474.000000	0.181384
2475.000000	0.185491
2476.000000	0.185243
2477.000000	0.183369
2478.000000	0.183631
2479.000000	0.182911
2480.000000	0.182152
2481.000000	0.181145
2482.000000	0.189166
2483.000000	0.192036
2484.000000	0.201248
2485.000000	0.219228
2486.000000	0.225480
2487.000000	0.231831
2488.000000	0.233673
2489.000000	0.217357
2490.000000	0.194479
2491.000000	0.196798
2492.000000	0.185018
2493.000000	0.179895
2494.000000	0.183118
2495.000000	0.170943
2496.000000	0.161297
2497.000000	0.161310
2498.000000	0.161219
2499.000000	0.169823
2500.000000	0.174994
