# Wavelength	hexa20_00001.asd.rts.txt
350.000000	0.198787
351.000000	0.203329
352.000000	0.204316
353.000000	0.205158
354.000000	0.208276
355.000000	0.205299
356.000000	0.205784
357.000000	0.209993
358.000000	0.208552
359.000000	0.205731
360.000000	0.204214
361.000000	0.205265
362.000000	0.205854
363.000000	0.207300
364.000000	0.209403
365.000000	0.209311
366.000000	0.208920
367.000000	0.209304
368.000000	0.211696
369.000000	0.211420
370.000000	0.209686
371.000000	0.209331
372.000000	0.210110
373.000000	0.211045
374.000000	0.211756
375.000000	0.211587
376.000000	0.212497
377.000000	0.214057
378.000000	0.213728
379.000000	0.214268
380.000000	0.215351
381.000000	0.216453
382.000000	0.217145
383.000000	0.216849
384.000000	0.215987
385.000000	0.216736
386.000000	0.218055
387.000000	0.219042
388.000000	0.218375
389.000000	0.218526
390.000000	0.219686
391.000000	0.220897
392.000000	0.221319
393.000000	0.221378
394.000000	0.221551
395.000000	0.221872
396.000000	0.221855
397.000000	0.221678
398.000000	0.222633
399.000000	0.223383
400.000000	0.223960
401.000000	0.224772
402.000000	0.225212
403.000000	0.225508
404.000000	0.225974
405.000000	0.225845
406.000000	0.226018
407.000000	0.226776
408.000000	0.227217
409.000000	0.227613
410.000000	0.227980
411.000000	0.228179
412.000000	0.228325
413.000000	0.228551
414.000000	0.228970
415.000000	0.229498
416.000000	0.229872
417.000000	0.230098
418.000000	0.230844
419.000000	0.231278
420.000000	0.231407
421.000000	0.231940
422.000000	0.232131
423.000000	0.232070
424.000000	0.232197
425.000000	0.232890
426.000000	0.233383
427.000000	0.233257
428.000000	0.233660
429.000000	0.233903
430.000000	0.233907
431.000000	0.234416
432.000000	0.234746
433.000000	0.234875
434.000000	0.235163
435.000000	0.235545
436.000000	0.235810
437.000000	0.235823
438.000000	0.236057
439.000000	0.236197
440.000000	0.236211
441.000000	0.236341
442.000000	0.236572
443.000000	0.236784
444.000000	0.236921
445.000000	0.237060
446.000000	0.237346
447.000000	0.237727
448.000000	0.238068
449.000000	0.238277
450.000000	0.238392
451.000000	0.238742
452.000000	0.239067
453.000000	0.239277
454.000000	0.239694
455.000000	0.239988
456.000000	0.240214
457.000000	0.240399
458.000000	0.240572
459.000000	0.240766
460.000000	0.241040
461.000000	0.241307
462.000000	0.241625
463.000000	0.241894
464.000000	0.242268
465.000000	0.242419
466.000000	0.242444
467.000000	0.242857
468.000000	0.243090
469.000000	0.243150
470.000000	0.243339
471.000000	0.243598
472.000000	0.243809
473.000000	0.243956
474.000000	0.244182
475.000000	0.244468
476.000000	0.244825
477.000000	0.244919
478.000000	0.244990
479.000000	0.245274
480.000000	0.245637
481.000000	0.245713
482.000000	0.245839
483.000000	0.246123
484.000000	0.246433
485.000000	0.246654
486.000000	0.246880
487.000000	0.246957
488.000000	0.247201
489.000000	0.247580
490.000000	0.247803
491.000000	0.248056
492.000000	0.248369
493.000000	0.248605
494.000000	0.248815
495.000000	0.249068
496.000000	0.249366
497.000000	0.249714
498.000000	0.250051
499.000000	0.250379
500.000000	0.250573
501.000000	0.250835
502.000000	0.251154
503.000000	0.251346
504.000000	0.251573
505.000000	0.251826
506.000000	0.252074
507.000000	0.252275
508.000000	0.252575
509.000000	0.252966
510.000000	0.253240
511.000000	0.253527
512.000000	0.253856
513.000000	0.254131
514.000000	0.254449
515.000000	0.254828
516.000000	0.255187
517.000000	0.255453
518.000000	0.255706
519.000000	0.255941
520.000000	0.256185
521.000000	0.256484
522.000000	0.256824
523.000000	0.257066
524.000000	0.257328
525.000000	0.257605
526.000000	0.257877
527.000000	0.258170
528.000000	0.258427
529.000000	0.258651
530.000000	0.258924
531.000000	0.259282
532.000000	0.259630
533.000000	0.259899
534.000000	0.260159
535.000000	0.260415
536.000000	0.260643
537.000000	0.260931
538.000000	0.261250
539.000000	0.261513
540.000000	0.261789
541.000000	0.262045
542.000000	0.262293
543.000000	0.262591
544.000000	0.262936
545.000000	0.263237
546.000000	0.263466
547.000000	0.263763
548.000000	0.264121
549.000000	0.264331
550.000000	0.264663
551.000000	0.265064
552.000000	0.265358
553.000000	0.265636
554.000000	0.265944
555.000000	0.266304
556.000000	0.266669
557.000000	0.266972
558.000000	0.267315
559.000000	0.267670
560.000000	0.267961
561.000000	0.268263
562.000000	0.268578
563.000000	0.268862
564.000000	0.269176
565.000000	0.269484
566.000000	0.269830
567.000000	0.270160
568.000000	0.270440
569.000000	0.270761
570.000000	0.271081
571.000000	0.271389
572.000000	0.271733
573.000000	0.272079
574.000000	0.272381
575.000000	0.272656
576.000000	0.273010
577.000000	0.273321
578.000000	0.273573
579.000000	0.273940
580.000000	0.274306
581.000000	0.274612
582.000000	0.274907
583.000000	0.275188
584.000000	0.275461
585.000000	0.275734
586.000000	0.276057
587.000000	0.276404
588.000000	0.276740
589.000000	0.277113
590.000000	0.277450
591.000000	0.277723
592.000000	0.278043
593.000000	0.278350
594.000000	0.278626
595.000000	0.278903
596.000000	0.279124
597.000000	0.279317
598.000000	0.279446
599.000000	0.279568
600.000000	0.279767
601.000000	0.280007
602.000000	0.280208
603.000000	0.280383
604.000000	0.280569
605.000000	0.280816
606.000000	0.281018
607.000000	0.281182
608.000000	0.281379
609.000000	0.281610
610.000000	0.281851
611.000000	0.282061
612.000000	0.282226
613.000000	0.282341
614.000000	0.282448
615.000000	0.282548
616.000000	0.282614
617.000000	0.282648
618.000000	0.282791
619.000000	0.282965
620.000000	0.283115
621.000000	0.283257
622.000000	0.283406
623.000000	0.283592
624.000000	0.283816
625.000000	0.283981
626.000000	0.284172
627.000000	0.284426
628.000000	0.284706
629.000000	0.285018
630.000000	0.285254
631.000000	0.285529
632.000000	0.285771
633.000000	0.286003
634.000000	0.286240
635.000000	0.286453
636.000000	0.286596
637.000000	0.286654
638.000000	0.286737
639.000000	0.286851
640.000000	0.287032
641.000000	0.287175
642.000000	0.287294
643.000000	0.287423
644.000000	0.287601
645.000000	0.287760
646.000000	0.287931
647.000000	0.288104
648.000000	0.288225
649.000000	0.288364
650.000000	0.288533
651.000000	0.288740
652.000000	0.288887
653.000000	0.289014
654.000000	0.289143
655.000000	0.289309
656.000000	0.289518
657.000000	0.289704
658.000000	0.289841
659.000000	0.290008
660.000000	0.290210
661.000000	0.290364
662.000000	0.290501
663.000000	0.290661
664.000000	0.290796
665.000000	0.290935
666.000000	0.291117
667.000000	0.291327
668.000000	0.291507
669.000000	0.291687
670.000000	0.291882
671.000000	0.292043
672.000000	0.292209
673.000000	0.292368
674.000000	0.292486
675.000000	0.292624
676.000000	0.292801
677.000000	0.293029
678.000000	0.293214
679.000000	0.293407
680.000000	0.293632
681.000000	0.293764
682.000000	0.293929
683.000000	0.294094
684.000000	0.294293
685.000000	0.294473
686.000000	0.294647
687.000000	0.294798
688.000000	0.294946
689.000000	0.295079
690.000000	0.295226
691.000000	0.295394
692.000000	0.295557
693.000000	0.295764
694.000000	0.295974
695.000000	0.296197
696.000000	0.296405
697.000000	0.296565
698.000000	0.296710
699.000000	0.296873
700.000000	0.297071
701.000000	0.297210
702.000000	0.297384
703.000000	0.297590
704.000000	0.297742
705.000000	0.297914
706.000000	0.298079
707.000000	0.298266
708.000000	0.298459
709.000000	0.298621
710.000000	0.298748
711.000000	0.298860
712.000000	0.298949
713.000000	0.299060
714.000000	0.299255
715.000000	0.299452
716.000000	0.299657
717.000000	0.299881
718.000000	0.300068
719.000000	0.300187
720.000000	0.300256
721.000000	0.300373
722.000000	0.300511
723.000000	0.300697
724.000000	0.300853
725.000000	0.300971
726.000000	0.301127
727.000000	0.301268
728.000000	0.301387
729.000000	0.301518
730.000000	0.301638
731.000000	0.301792
732.000000	0.301952
733.000000	0.302113
734.000000	0.302183
735.000000	0.302209
736.000000	0.302301
737.000000	0.302341
738.000000	0.302321
739.000000	0.302389
740.000000	0.302482
741.000000	0.302609
742.000000	0.302745
743.000000	0.302859
744.000000	0.302999
745.000000	0.303106
746.000000	0.303227
747.000000	0.303339
748.000000	0.303423
749.000000	0.303532
750.000000	0.303653
751.000000	0.303734
752.000000	0.303811
753.000000	0.303892
754.000000	0.303936
755.000000	0.304005
756.000000	0.304090
757.000000	0.304127
758.000000	0.304184
759.000000	0.304284
760.000000	0.304370
761.000000	0.304508
762.000000	0.304615
763.000000	0.304677
764.000000	0.304796
765.000000	0.304864
766.000000	0.304903
767.000000	0.304941
768.000000	0.304930
769.000000	0.304943
770.000000	0.305013
771.000000	0.305102
772.000000	0.305244
773.000000	0.305346
774.000000	0.305411
775.000000	0.305511
776.000000	0.305612
777.000000	0.305669
778.000000	0.305730
779.000000	0.305688
780.000000	0.305573
781.000000	0.305521
782.000000	0.305532
783.000000	0.305655
784.000000	0.305753
785.000000	0.305831
786.000000	0.305937
787.000000	0.306067
788.000000	0.306132
789.000000	0.306156
790.000000	0.306167
791.000000	0.306244
792.000000	0.306291
793.000000	0.306303
794.000000	0.306300
795.000000	0.306296
796.000000	0.306269
797.000000	0.306240
798.000000	0.306287
799.000000	0.306345
800.000000	0.306402
801.000000	0.306465
802.000000	0.306511
803.000000	0.306497
804.000000	0.306455
805.000000	0.306427
806.000000	0.306374
807.000000	0.306360
808.000000	0.306342
809.000000	0.306379
810.000000	0.306424
811.000000	0.306438
812.000000	0.306523
813.000000	0.306643
814.000000	0.306743
815.000000	0.306772
816.000000	0.306768
817.000000	0.306742
818.000000	0.306624
819.000000	0.306560
820.000000	0.306546
821.000000	0.306518
822.000000	0.306497
823.000000	0.306516
824.000000	0.306535
825.000000	0.306614
826.000000	0.306732
827.000000	0.306781
828.000000	0.306754
829.000000	0.306704
830.000000	0.306573
831.000000	0.306448
832.000000	0.306326
833.000000	0.306263
834.000000	0.306252
835.000000	0.306290
836.000000	0.306272
837.000000	0.306257
838.000000	0.306271
839.000000	0.306268
840.000000	0.306220
841.000000	0.306154
842.000000	0.306069
843.000000	0.306036
844.000000	0.306071
845.000000	0.306118
846.000000	0.306122
847.000000	0.306042
848.000000	0.305897
849.000000	0.305759
850.000000	0.305641
851.000000	0.305540
852.000000	0.305480
853.000000	0.305405
854.000000	0.305353
855.000000	0.305361
856.000000	0.305273
857.000000	0.305079
858.000000	0.304947
859.000000	0.304876
860.000000	0.304829
861.000000	0.304834
862.000000	0.304867
863.000000	0.304799
864.000000	0.304610
865.000000	0.304410
866.000000	0.304294
867.000000	0.304233
868.000000	0.304199
869.000000	0.304134
870.000000	0.304081
871.000000	0.303924
872.000000	0.303712
873.000000	0.303453
874.000000	0.303266
875.000000	0.303122
876.000000	0.303028
877.000000	0.302926
878.000000	0.302735
879.000000	0.302616
880.000000	0.302481
881.000000	0.302221
882.000000	0.301985
883.000000	0.301847
884.000000	0.301782
885.000000	0.301856
886.000000	0.301877
887.000000	0.301764
888.000000	0.301601
889.000000	0.301446
890.000000	0.301178
891.000000	0.300863
892.000000	0.300640
893.000000	0.300441
894.000000	0.300321
895.000000	0.300179
896.000000	0.299998
897.000000	0.299818
898.000000	0.299673
899.000000	0.299371
900.000000	0.299100
901.000000	0.298889
902.000000	0.298648
903.000000	0.298418
904.000000	0.298292
905.000000	0.298223
906.000000	0.298092
907.000000	0.297865
908.000000	0.297628
909.000000	0.297416
910.000000	0.297219
911.000000	0.296995
912.000000	0.296764
913.000000	0.296710
914.000000	0.296604
915.000000	0.296429
916.000000	0.296170
917.000000	0.295887
918.000000	0.295614
919.000000	0.295359
920.000000	0.295164
921.000000	0.294991
922.000000	0.294831
923.000000	0.294653
924.000000	0.294385
925.000000	0.294095
926.000000	0.293843
927.000000	0.293531
928.000000	0.293229
929.000000	0.292975
930.000000	0.292777
931.000000	0.292499
932.000000	0.292209
933.000000	0.291964
934.000000	0.291692
935.000000	0.291407
936.000000	0.291195
937.000000	0.290990
938.000000	0.290657
939.000000	0.290393
940.000000	0.290160
941.000000	0.289935
942.000000	0.289653
943.000000	0.289407
944.000000	0.289155
945.000000	0.289003
946.000000	0.288732
947.000000	0.288474
948.000000	0.288327
949.000000	0.288000
950.000000	0.287726
951.000000	0.287513
952.000000	0.287258
953.000000	0.286997
954.000000	0.286730
955.000000	0.286375
956.000000	0.285919
957.000000	0.285631
958.000000	0.285434
959.000000	0.285250
960.000000	0.285216
961.000000	0.285083
962.000000	0.284839
963.000000	0.284819
964.000000	0.284621
965.000000	0.284415
966.000000	0.284261
967.000000	0.284036
968.000000	0.283813
969.000000	0.283554
970.000000	0.283302
971.000000	0.283043
972.000000	0.282840
973.000000	0.282592
974.000000	0.282199
975.000000	0.281911
976.000000	0.281731
977.000000	0.281579
978.000000	0.281363
979.000000	0.281212
980.000000	0.280914
981.000000	0.280616
982.000000	0.280445
983.000000	0.280228
984.000000	0.280050
985.000000	0.280104
986.000000	0.279802
987.000000	0.279577
988.000000	0.279567
989.000000	0.279212
990.000000	0.278956
991.000000	0.278792
992.000000	0.278633
993.000000	0.278573
994.000000	0.278385
995.000000	0.278178
996.000000	0.277941
997.000000	0.277847
998.000000	0.277725
999.000000	0.277598
1000.000000	0.277584
1001.000000	0.277800
1002.000000	0.277686
1003.000000	0.277421
1004.000000	0.277147
1005.000000	0.276587
1006.000000	0.276279
1007.000000	0.276171
1008.000000	0.276058
1009.000000	0.275816
1010.000000	0.275782
1011.000000	0.275752
1012.000000	0.275626
1013.000000	0.275452
1014.000000	0.275362
1015.000000	0.275301
1016.000000	0.275185
1017.000000	0.275076
1018.000000	0.275059
1019.000000	0.275034
1020.000000	0.275230
1021.000000	0.274926
1022.000000	0.274528
1023.000000	0.274485
1024.000000	0.274222
1025.000000	0.274161
1026.000000	0.274491
1027.000000	0.274441
1028.000000	0.274243
1029.000000	0.274384
1030.000000	0.274344
1031.000000	0.274388
1032.000000	0.274658
1033.000000	0.274545
1034.000000	0.274483
1035.000000	0.274280
1036.000000	0.274321
1037.000000	0.274497
1038.000000	0.274504
1039.000000	0.274621
1040.000000	0.274822
1041.000000	0.274912
1042.000000	0.274965
1043.000000	0.275088
1044.000000	0.275253
1045.000000	0.275397
1046.000000	0.275370
1047.000000	0.275396
1048.000000	0.275454
1049.000000	0.275487
1050.000000	0.275363
1051.000000	0.275413
1052.000000	0.275609
1053.000000	0.275633
1054.000000	0.275740
1055.000000	0.275968
1056.000000	0.276304
1057.000000	0.276521
1058.000000	0.276596
1059.000000	0.276527
1060.000000	0.276562
1061.000000	0.276650
1062.000000	0.276946
1063.000000	0.277458
1064.000000	0.277753
1065.000000	0.277847
1066.000000	0.278091
1067.000000	0.278350
1068.000000	0.278546
1069.000000	0.278761
1070.000000	0.278925
1071.000000	0.278956
1072.000000	0.279128
1073.000000	0.279379
1074.000000	0.279761
1075.000000	0.280086
1076.000000	0.280362
1077.000000	0.280381
1078.000000	0.280294
1079.000000	0.280344
1080.000000	0.280370
1081.000000	0.280468
1082.000000	0.280782
1083.000000	0.280987
1084.000000	0.281117
1085.000000	0.281415
1086.000000	0.281822
1087.000000	0.282148
1088.000000	0.282527
1089.000000	0.282768
1090.000000	0.282844
1091.000000	0.282863
1092.000000	0.283045
1093.000000	0.283309
1094.000000	0.283515
1095.000000	0.283698
1096.000000	0.284006
1097.000000	0.284341
1098.000000	0.284656
1099.000000	0.285089
1100.000000	0.285393
1101.000000	0.285532
1102.000000	0.285692
1103.000000	0.285807
1104.000000	0.285958
1105.000000	0.286051
1106.000000	0.286203
1107.000000	0.286318
1108.000000	0.286476
1109.000000	0.286758
1110.000000	0.287051
1111.000000	0.287189
1112.000000	0.287273
1113.000000	0.287442
1114.000000	0.287528
1115.000000	0.287672
1116.000000	0.287972
1117.000000	0.288124
1118.000000	0.288101
1119.000000	0.288200
1120.000000	0.288439
1121.000000	0.288484
1122.000000	0.288465
1123.000000	0.288723
1124.000000	0.288750
1125.000000	0.288896
1126.000000	0.289242
1127.000000	0.289451
1128.000000	0.289602
1129.000000	0.289708
1130.000000	0.289830
1131.000000	0.289956
1132.000000	0.289987
1133.000000	0.289923
1134.000000	0.290081
1135.000000	0.290287
1136.000000	0.290400
1137.000000	0.290615
1138.000000	0.290722
1139.000000	0.290727
1140.000000	0.290863
1141.000000	0.291057
1142.000000	0.291202
1143.000000	0.291256
1144.000000	0.291432
1145.000000	0.291515
1146.000000	0.291500
1147.000000	0.291555
1148.000000	0.291536
1149.000000	0.291602
1150.000000	0.291725
1151.000000	0.291832
1152.000000	0.291936
1153.000000	0.292022
1154.000000	0.292073
1155.000000	0.292083
1156.000000	0.292052
1157.000000	0.292058
1158.000000	0.291986
1159.000000	0.291963
1160.000000	0.291965
1161.000000	0.291974
1162.000000	0.292038
1163.000000	0.292236
1164.000000	0.292265
1165.000000	0.292259
1166.000000	0.292330
1167.000000	0.292328
1168.000000	0.292357
1169.000000	0.292506
1170.000000	0.292586
1171.000000	0.292664
1172.000000	0.292736
1173.000000	0.292794
1174.000000	0.292802
1175.000000	0.292691
1176.000000	0.292641
1177.000000	0.292675
1178.000000	0.292685
1179.000000	0.292737
1180.000000	0.292703
1181.000000	0.292678
1182.000000	0.292630
1183.000000	0.292696
1184.000000	0.292808
1185.000000	0.292868
1186.000000	0.292974
1187.000000	0.293012
1188.000000	0.292980
1189.000000	0.292959
1190.000000	0.292995
1191.000000	0.292987
1192.000000	0.292997
1193.000000	0.293129
1194.000000	0.293242
1195.000000	0.293284
1196.000000	0.293258
1197.000000	0.293283
1198.000000	0.293330
1199.000000	0.293313
1200.000000	0.293279
1201.000000	0.293274
1202.000000	0.293203
1203.000000	0.293120
1204.000000	0.293071
1205.000000	0.293050
1206.000000	0.292970
1207.000000	0.292917
1208.000000	0.292833
1209.000000	0.292764
1210.000000	0.292756
1211.000000	0.292769
1212.000000	0.292760
1213.000000	0.292852
1214.000000	0.292887
1215.000000	0.292811
1216.000000	0.292815
1217.000000	0.292836
1218.000000	0.292843
1219.000000	0.292866
1220.000000	0.292984
1221.000000	0.293082
1222.000000	0.293087
1223.000000	0.293124
1224.000000	0.293139
1225.000000	0.293092
1226.000000	0.293084
1227.000000	0.293046
1228.000000	0.293027
1229.000000	0.292977
1230.000000	0.292903
1231.000000	0.292798
1232.000000	0.292790
1233.000000	0.292790
1234.000000	0.292737
1235.000000	0.292704
1236.000000	0.292588
1237.000000	0.292573
1238.000000	0.292602
1239.000000	0.292567
1240.000000	0.292521
1241.000000	0.292500
1242.000000	0.292468
1243.000000	0.292434
1244.000000	0.292478
1245.000000	0.292609
1246.000000	0.292667
1247.000000	0.292759
1248.000000	0.292882
1249.000000	0.292947
1250.000000	0.292950
1251.000000	0.292953
1252.000000	0.292926
1253.000000	0.292861
1254.000000	0.292804
1255.000000	0.292762
1256.000000	0.292671
1257.000000	0.292556
1258.000000	0.292494
1259.000000	0.292335
1260.000000	0.292305
1261.000000	0.292314
1262.000000	0.292270
1263.000000	0.292280
1264.000000	0.292254
1265.000000	0.292172
1266.000000	0.292115
1267.000000	0.292034
1268.000000	0.291987
1269.000000	0.291926
1270.000000	0.291905
1271.000000	0.291941
1272.000000	0.291985
1273.000000	0.292015
1274.000000	0.291994
1275.000000	0.291949
1276.000000	0.291871
1277.000000	0.291872
1278.000000	0.291803
1279.000000	0.291767
1280.000000	0.291711
1281.000000	0.291622
1282.000000	0.291572
1283.000000	0.291592
1284.000000	0.291579
1285.000000	0.291569
1286.000000	0.291576
1287.000000	0.291525
1288.000000	0.291538
1289.000000	0.291492
1290.000000	0.291441
1291.000000	0.291433
1292.000000	0.291407
1293.000000	0.291452
1294.000000	0.291487
1295.000000	0.291508
1296.000000	0.291488
1297.000000	0.291428
1298.000000	0.291444
1299.000000	0.291468
1300.000000	0.291522
1301.000000	0.291574
1302.000000	0.291540
1303.000000	0.291546
1304.000000	0.291513
1305.000000	0.291514
1306.000000	0.291467
1307.000000	0.291451
1308.000000	0.291450
1309.000000	0.291394
1310.000000	0.291389
1311.000000	0.291473
1312.000000	0.291468
1313.000000	0.291420
1314.000000	0.291378
1315.000000	0.291305
1316.000000	0.291281
1317.000000	0.291334
1318.000000	0.291412
1319.000000	0.291374
1320.000000	0.291319
1321.000000	0.291249
1322.000000	0.291170
1323.000000	0.291200
1324.000000	0.291261
1325.000000	0.291220
1326.000000	0.291144
1327.000000	0.291074
1328.000000	0.291041
1329.000000	0.290951
1330.000000	0.290875
1331.000000	0.290816
1332.000000	0.290799
1333.000000	0.290718
1334.000000	0.290670
1335.000000	0.290647
1336.000000	0.290565
1337.000000	0.290517
1338.000000	0.290454
1339.000000	0.290450
1340.000000	0.290415
1341.000000	0.290332
1342.000000	0.290294
1343.000000	0.290243
1344.000000	0.290180
1345.000000	0.290143
1346.000000	0.290150
1347.000000	0.290064
1348.000000	0.289998
1349.000000	0.289902
1350.000000	0.289853
1351.000000	0.289819
1352.000000	0.289773
1353.000000	0.289729
1354.000000	0.289686
1355.000000	0.289593
1356.000000	0.289556
1357.000000	0.289486
1358.000000	0.289398
1359.000000	0.289383
1360.000000	0.289385
1361.000000	0.289446
1362.000000	0.289485
1363.000000	0.289550
1364.000000	0.289582
1365.000000	0.289566
1366.000000	0.289550
1367.000000	0.289517
1368.000000	0.289471
1369.000000	0.289516
1370.000000	0.289474
1371.000000	0.289394
1372.000000	0.289300
1373.000000	0.289210
1374.000000	0.289187
1375.000000	0.289184
1376.000000	0.289344
1377.000000	0.289492
1378.000000	0.289521
1379.000000	0.289535
1380.000000	0.289569
1381.000000	0.289521
1382.000000	0.289428
1383.000000	0.289456
1384.000000	0.289350
1385.000000	0.289116
1386.000000	0.289053
1387.000000	0.289027
1388.000000	0.288927
1389.000000	0.288871
1390.000000	0.288838
1391.000000	0.288696
1392.000000	0.288592
1393.000000	0.288530
1394.000000	0.288588
1395.000000	0.288571
1396.000000	0.288565
1397.000000	0.288470
1398.000000	0.288268
1399.000000	0.288116
1400.000000	0.287906
1401.000000	0.287734
1402.000000	0.287619
1403.000000	0.287508
1404.000000	0.287475
1405.000000	0.287435
1406.000000	0.287383
1407.000000	0.287313
1408.000000	0.287155
1409.000000	0.287071
1410.000000	0.287044
1411.000000	0.287000
1412.000000	0.286941
1413.000000	0.286859
1414.000000	0.286772
1415.000000	0.286660
1416.000000	0.286523
1417.000000	0.286425
1418.000000	0.286256
1419.000000	0.286097
1420.000000	0.285917
1421.000000	0.285761
1422.000000	0.285596
1423.000000	0.285464
1424.000000	0.285220
1425.000000	0.284981
1426.000000	0.284775
1427.000000	0.284539
1428.000000	0.284301
1429.000000	0.284119
1430.000000	0.283956
1431.000000	0.283812
1432.000000	0.283656
1433.000000	0.283581
1434.000000	0.283460
1435.000000	0.283365
1436.000000	0.283264
1437.000000	0.283202
1438.000000	0.283042
1439.000000	0.282852
1440.000000	0.282706
1441.000000	0.282539
1442.000000	0.282432
1443.000000	0.282335
1444.000000	0.282187
1445.000000	0.282031
1446.000000	0.281876
1447.000000	0.281694
1448.000000	0.281532
1449.000000	0.281384
1450.000000	0.281241
1451.000000	0.281120
1452.000000	0.280968
1453.000000	0.280836
1454.000000	0.280687
1455.000000	0.280579
1456.000000	0.280585
1457.000000	0.280605
1458.000000	0.280645
1459.000000	0.280660
1460.000000	0.280592
1461.000000	0.280509
1462.000000	0.280476
1463.000000	0.280402
1464.000000	0.280341
1465.000000	0.280379
1466.000000	0.280366
1467.000000	0.280314
1468.000000	0.280317
1469.000000	0.280345
1470.000000	0.280240
1471.000000	0.280225
1472.000000	0.280233
1473.000000	0.280211
1474.000000	0.280207
1475.000000	0.280186
1476.000000	0.280137
1477.000000	0.280104
1478.000000	0.280086
1479.000000	0.280030
1480.000000	0.279964
1481.000000	0.279909
1482.000000	0.279867
1483.000000	0.279886
1484.000000	0.279980
1485.000000	0.280013
1486.000000	0.280047
1487.000000	0.280067
1488.000000	0.280028
1489.000000	0.280074
1490.000000	0.280071
1491.000000	0.280095
1492.000000	0.280121
1493.000000	0.280163
1494.000000	0.280169
1495.000000	0.280170
1496.000000	0.280175
1497.000000	0.280194
1498.000000	0.280225
1499.000000	0.280252
1500.000000	0.280315
1501.000000	0.280378
1502.000000	0.280420
1503.000000	0.280499
1504.000000	0.280564
1505.000000	0.280591
1506.000000	0.280664
1507.000000	0.280708
1508.000000	0.280765
1509.000000	0.280837
1510.000000	0.280846
1511.000000	0.280881
1512.000000	0.280891
1513.000000	0.280900
1514.000000	0.280953
1515.000000	0.280944
1516.000000	0.280960
1517.000000	0.280974
1518.000000	0.280942
1519.000000	0.280853
1520.000000	0.280815
1521.000000	0.280769
1522.000000	0.280778
1523.000000	0.280847
1524.000000	0.280812
1525.000000	0.280806
1526.000000	0.280823
1527.000000	0.280830
1528.000000	0.280908
1529.000000	0.280943
1530.000000	0.280862
1531.000000	0.280865
1532.000000	0.280885
1533.000000	0.280896
1534.000000	0.280992
1535.000000	0.281071
1536.000000	0.281064
1537.000000	0.281133
1538.000000	0.281186
1539.000000	0.281148
1540.000000	0.281152
1541.000000	0.281221
1542.000000	0.281257
1543.000000	0.281294
1544.000000	0.281347
1545.000000	0.281387
1546.000000	0.281427
1547.000000	0.281442
1548.000000	0.281482
1549.000000	0.281524
1550.000000	0.281479
1551.000000	0.281469
1552.000000	0.281511
1553.000000	0.281474
1554.000000	0.281441
1555.000000	0.281474
1556.000000	0.281451
1557.000000	0.281383
1558.000000	0.281373
1559.000000	0.281363
1560.000000	0.281300
1561.000000	0.281251
1562.000000	0.281196
1563.000000	0.281138
1564.000000	0.281122
1565.000000	0.281134
1566.000000	0.281086
1567.000000	0.281114
1568.000000	0.281122
1569.000000	0.281192
1570.000000	0.281219
1571.000000	0.281200
1572.000000	0.281196
1573.000000	0.281199
1574.000000	0.281168
1575.000000	0.281160
1576.000000	0.281156
1577.000000	0.281095
1578.000000	0.281042
1579.000000	0.281058
1580.000000	0.281036
1581.000000	0.281068
1582.000000	0.281032
1583.000000	0.280945
1584.000000	0.280862
1585.000000	0.280798
1586.000000	0.280770
1587.000000	0.280780
1588.000000	0.280753
1589.000000	0.280738
1590.000000	0.280702
1591.000000	0.280648
1592.000000	0.280649
1593.000000	0.280700
1594.000000	0.280700
1595.000000	0.280774
1596.000000	0.280787
1597.000000	0.280748
1598.000000	0.280728
1599.000000	0.280737
1600.000000	0.280695
1601.000000	0.280704
1602.000000	0.280701
1603.000000	0.280692
1604.000000	0.280677
1605.000000	0.280696
1606.000000	0.280673
1607.000000	0.280663
1608.000000	0.280648
1609.000000	0.280694
1610.000000	0.280637
1611.000000	0.280545
1612.000000	0.280460
1613.000000	0.280386
1614.000000	0.280312
1615.000000	0.280317
1616.000000	0.280329
1617.000000	0.280292
1618.000000	0.280254
1619.000000	0.280197
1620.000000	0.280176
1621.000000	0.280170
1622.000000	0.280253
1623.000000	0.280389
1624.000000	0.280500
1625.000000	0.280518
1626.000000	0.280550
1627.000000	0.280606
1628.000000	0.280688
1629.000000	0.280788
1630.000000	0.280868
1631.000000	0.280875
1632.000000	0.280891
1633.000000	0.280922
1634.000000	0.280931
1635.000000	0.280985
1636.000000	0.280971
1637.000000	0.280916
1638.000000	0.280856
1639.000000	0.280803
1640.000000	0.280750
1641.000000	0.280756
1642.000000	0.280733
1643.000000	0.280732
1644.000000	0.280718
1645.000000	0.280683
1646.000000	0.280620
1647.000000	0.280572
1648.000000	0.280499
1649.000000	0.280453
1650.000000	0.280490
1651.000000	0.280626
1652.000000	0.280688
1653.000000	0.280719
1654.000000	0.280780
1655.000000	0.280751
1656.000000	0.280672
1657.000000	0.280665
1658.000000	0.280657
1659.000000	0.280688
1660.000000	0.280726
1661.000000	0.280744
1662.000000	0.280748
1663.000000	0.280667
1664.000000	0.280667
1665.000000	0.280713
1666.000000	0.280830
1667.000000	0.280936
1668.000000	0.280989
1669.000000	0.281052
1670.000000	0.281048
1671.000000	0.281048
1672.000000	0.281118
1673.000000	0.281191
1674.000000	0.281212
1675.000000	0.281321
1676.000000	0.281384
1677.000000	0.281424
1678.000000	0.281466
1679.000000	0.281499
1680.000000	0.281484
1681.000000	0.281485
1682.000000	0.281534
1683.000000	0.281579
1684.000000	0.281611
1685.000000	0.281656
1686.000000	0.281647
1687.000000	0.281602
1688.000000	0.281529
1689.000000	0.281499
1690.000000	0.281439
1691.000000	0.281458
1692.000000	0.281482
1693.000000	0.281484
1694.000000	0.281483
1695.000000	0.281547
1696.000000	0.281596
1697.000000	0.281599
1698.000000	0.281664
1699.000000	0.281708
1700.000000	0.281710
1701.000000	0.281782
1702.000000	0.281732
1703.000000	0.281659
1704.000000	0.281649
1705.000000	0.281630
1706.000000	0.281642
1707.000000	0.281622
1708.000000	0.281562
1709.000000	0.281470
1710.000000	0.281419
1711.000000	0.281377
1712.000000	0.281364
1713.000000	0.281327
1714.000000	0.281298
1715.000000	0.281305
1716.000000	0.281338
1717.000000	0.281363
1718.000000	0.281384
1719.000000	0.281395
1720.000000	0.281448
1721.000000	0.281482
1722.000000	0.281518
1723.000000	0.281563
1724.000000	0.281640
1725.000000	0.281683
1726.000000	0.281629
1727.000000	0.281628
1728.000000	0.281581
1729.000000	0.281480
1730.000000	0.281496
1731.000000	0.281475
1732.000000	0.281393
1733.000000	0.281423
1734.000000	0.281411
1735.000000	0.281394
1736.000000	0.281351
1737.000000	0.281348
1738.000000	0.281357
1739.000000	0.281413
1740.000000	0.281523
1741.000000	0.281549
1742.000000	0.281573
1743.000000	0.281631
1744.000000	0.281647
1745.000000	0.281649
1746.000000	0.281666
1747.000000	0.281620
1748.000000	0.281586
1749.000000	0.281599
1750.000000	0.281596
1751.000000	0.281700
1752.000000	0.281886
1753.000000	0.282023
1754.000000	0.282136
1755.000000	0.282235
1756.000000	0.282298
1757.000000	0.282286
1758.000000	0.282342
1759.000000	0.282428
1760.000000	0.282478
1761.000000	0.282505
1762.000000	0.282520
1763.000000	0.282538
1764.000000	0.282519
1765.000000	0.282410
1766.000000	0.282402
1767.000000	0.282321
1768.000000	0.282280
1769.000000	0.282446
1770.000000	0.282519
1771.000000	0.282485
1772.000000	0.282520
1773.000000	0.282508
1774.000000	0.282549
1775.000000	0.282708
1776.000000	0.282805
1777.000000	0.282857
1778.000000	0.282913
1779.000000	0.282954
1780.000000	0.282995
1781.000000	0.282998
1782.000000	0.283011
1783.000000	0.283053
1784.000000	0.283134
1785.000000	0.283129
1786.000000	0.283172
1787.000000	0.283301
1788.000000	0.283354
1789.000000	0.283332
1790.000000	0.283246
1791.000000	0.283156
1792.000000	0.283110
1793.000000	0.283098
1794.000000	0.283159
1795.000000	0.283203
1796.000000	0.283240
1797.000000	0.283279
1798.000000	0.283315
1799.000000	0.283313
1800.000000	0.283330
1801.000000	0.283573
1802.000000	0.283496
1803.000000	0.282889
1804.000000	0.282886
1805.000000	0.283692
1806.000000	0.283944
1807.000000	0.283956
1808.000000	0.284057
1809.000000	0.284028
1810.000000	0.284229
1811.000000	0.284262
1812.000000	0.284215
1813.000000	0.284278
1814.000000	0.284429
1815.000000	0.284460
1816.000000	0.284649
1817.000000	0.284489
1818.000000	0.284041
1819.000000	0.283798
1820.000000	0.283669
1821.000000	0.283395
1822.000000	0.283234
1823.000000	0.283153
1824.000000	0.282980
1825.000000	0.282581
1826.000000	0.282554
1827.000000	0.282609
1828.000000	0.282760
1829.000000	0.282917
1830.000000	0.282738
1831.000000	0.282603
1832.000000	0.282074
1833.000000	0.282053
1834.000000	0.282383
1835.000000	0.282486
1836.000000	0.282806
1837.000000	0.282758
1838.000000	0.282213
1839.000000	0.281726
1840.000000	0.281434
1841.000000	0.281303
1842.000000	0.281314
1843.000000	0.281712
1844.000000	0.281910
1845.000000	0.281924
1846.000000	0.282105
1847.000000	0.282272
1848.000000	0.282407
1849.000000	0.282545
1850.000000	0.282676
1851.000000	0.282795
1852.000000	0.282808
1853.000000	0.282944
1854.000000	0.283060
1855.000000	0.282987
1856.000000	0.282816
1857.000000	0.282500
1858.000000	0.282177
1859.000000	0.281916
1860.000000	0.281788
1861.000000	0.281840
1862.000000	0.281690
1863.000000	0.281410
1864.000000	0.281342
1865.000000	0.281403
1866.000000	0.281311
1867.000000	0.281131
1868.000000	0.281240
1869.000000	0.281036
1870.000000	0.280843
1871.000000	0.280680
1872.000000	0.280361
1873.000000	0.280118
1874.000000	0.279668
1875.000000	0.279457
1876.000000	0.279242
1877.000000	0.278781
1878.000000	0.278204
1879.000000	0.277662
1880.000000	0.277191
1881.000000	0.276902
1882.000000	0.276604
1883.000000	0.276421
1884.000000	0.276337
1885.000000	0.276097
1886.000000	0.275801
1887.000000	0.275635
1888.000000	0.275316
1889.000000	0.274609
1890.000000	0.274161
1891.000000	0.273944
1892.000000	0.273461
1893.000000	0.272960
1894.000000	0.272336
1895.000000	0.271582
1896.000000	0.270682
1897.000000	0.269951
1898.000000	0.269418
1899.000000	0.269256
1900.000000	0.268912
1901.000000	0.268541
1902.000000	0.267979
1903.000000	0.267171
1904.000000	0.266705
1905.000000	0.266201
1906.000000	0.265601
1907.000000	0.265057
1908.000000	0.264524
1909.000000	0.263898
1910.000000	0.263434
1911.000000	0.262896
1912.000000	0.262247
1913.000000	0.261624
1914.000000	0.260931
1915.000000	0.260249
1916.000000	0.259974
1917.000000	0.259573
1918.000000	0.259396
1919.000000	0.259067
1920.000000	0.258602
1921.000000	0.258018
1922.000000	0.257547
1923.000000	0.257238
1924.000000	0.257079
1925.000000	0.256854
1926.000000	0.256440
1927.000000	0.256099
1928.000000	0.255710
1929.000000	0.255267
1930.000000	0.254965
1931.000000	0.254980
1932.000000	0.254980
1933.000000	0.255072
1934.000000	0.255305
1935.000000	0.255224
1936.000000	0.255012
1937.000000	0.254869
1938.000000	0.254555
1939.000000	0.254250
1940.000000	0.253925
1941.000000	0.253659
1942.000000	0.253343
1943.000000	0.253024
1944.000000	0.252832
1945.000000	0.252860
1946.000000	0.252913
1947.000000	0.252874
1948.000000	0.252894
1949.000000	0.252906
1950.000000	0.253006
1951.000000	0.253010
1952.000000	0.253163
1953.000000	0.253131
1954.000000	0.253286
1955.000000	0.253386
1956.000000	0.253214
1957.000000	0.253186
1958.000000	0.252946
1959.000000	0.252532
1960.000000	0.252573
1961.000000	0.252679
1962.000000	0.252619
1963.000000	0.252568
1964.000000	0.252668
1965.000000	0.252391
1966.000000	0.252161
1967.000000	0.252229
1968.000000	0.252169
1969.000000	0.252198
1970.000000	0.252190
1971.000000	0.252082
1972.000000	0.252028
1973.000000	0.251879
1974.000000	0.251842
1975.000000	0.251866
1976.000000	0.251893
1977.000000	0.251904
1978.000000	0.252094
1979.000000	0.252286
1980.000000	0.252605
1981.000000	0.253049
1982.000000	0.253161
1983.000000	0.253162
1984.000000	0.253065
1985.000000	0.252660
1986.000000	0.252405
1987.000000	0.252174
1988.000000	0.252152
1989.000000	0.252249
1990.000000	0.252392
1991.000000	0.252605
1992.000000	0.252805
1993.000000	0.252877
1994.000000	0.253052
1995.000000	0.253134
1996.000000	0.253302
1997.000000	0.253476
1998.000000	0.253744
1999.000000	0.253889
2000.000000	0.254112
2001.000000	0.254113
2002.000000	0.253901
2003.000000	0.253941
2004.000000	0.253838
2005.000000	0.253565
2006.000000	0.253571
2007.000000	0.253679
2008.000000	0.253927
2009.000000	0.254430
2010.000000	0.254814
2011.000000	0.255270
2012.000000	0.255401
2013.000000	0.255233
2014.000000	0.255047
2015.000000	0.254946
2016.000000	0.255010
2017.000000	0.255249
2018.000000	0.255593
2019.000000	0.255943
2020.000000	0.256167
2021.000000	0.256432
2022.000000	0.256767
2023.000000	0.256904
2024.000000	0.256981
2025.000000	0.257029
2026.000000	0.256795
2027.000000	0.256602
2028.000000	0.256495
2029.000000	0.256460
2030.000000	0.256593
2031.000000	0.256798
2032.000000	0.257142
2033.000000	0.257525
2034.000000	0.257795
2035.000000	0.258204
2036.000000	0.258324
2037.000000	0.258410
2038.000000	0.258466
2039.000000	0.258465
2040.000000	0.258396
2041.000000	0.258416
2042.000000	0.258527
2043.000000	0.258673
2044.000000	0.258865
2045.000000	0.259070
2046.000000	0.259315
2047.000000	0.259542
2048.000000	0.259786
2049.000000	0.260092
2050.000000	0.260066
2051.000000	0.260103
2052.000000	0.260077
2053.000000	0.260029
2054.000000	0.260183
2055.000000	0.260278
2056.000000	0.260476
2057.000000	0.260694
2058.000000	0.260792
2059.000000	0.261027
2060.000000	0.261116
2061.000000	0.261131
2062.000000	0.261110
2063.000000	0.261043
2064.000000	0.260928
2065.000000	0.260940
2066.000000	0.260903
2067.000000	0.261072
2068.000000	0.261291
2069.000000	0.261345
2070.000000	0.261618
2071.000000	0.262013
2072.000000	0.262265
2073.000000	0.262529
2074.000000	0.262691
2075.000000	0.262872
2076.000000	0.262902
2077.000000	0.262974
2078.000000	0.263162
2079.000000	0.263163
2080.000000	0.262998
2081.000000	0.262988
2082.000000	0.262958
2083.000000	0.263083
2084.000000	0.263130
2085.000000	0.262937
2086.000000	0.262967
2087.000000	0.262971
2088.000000	0.263100
2089.000000	0.263388
2090.000000	0.263587
2091.000000	0.263758
2092.000000	0.263953
2093.000000	0.264314
2094.000000	0.264450
2095.000000	0.264464
2096.000000	0.264594
2097.000000	0.264565
2098.000000	0.264558
2099.000000	0.264807
2100.000000	0.264872
2101.000000	0.264925
2102.000000	0.264644
2103.000000	0.264419
2104.000000	0.264643
2105.000000	0.264715
2106.000000	0.264998
2107.000000	0.265168
2108.000000	0.265163
2109.000000	0.265187
2110.000000	0.265007
2111.000000	0.265003
2112.000000	0.265016
2113.000000	0.264841
2114.000000	0.264974
2115.000000	0.265181
2116.000000	0.264913
2117.000000	0.265021
2118.000000	0.265180
2119.000000	0.264876
2120.000000	0.265058
2121.000000	0.265623
2122.000000	0.265869
2123.000000	0.266280
2124.000000	0.266450
2125.000000	0.266312
2126.000000	0.266250
2127.000000	0.265951
2128.000000	0.266073
2129.000000	0.266316
2130.000000	0.266707
2131.000000	0.266931
2132.000000	0.267031
2133.000000	0.267086
2134.000000	0.267080
2135.000000	0.267333
2136.000000	0.267683
2137.000000	0.267714
2138.000000	0.267502
2139.000000	0.267418
2140.000000	0.267107
2141.000000	0.267087
2142.000000	0.267263
2143.000000	0.267252
2144.000000	0.267611
2145.000000	0.267689
2146.000000	0.267636
2147.000000	0.267856
2148.000000	0.267580
2149.000000	0.267444
2150.000000	0.267642
2151.000000	0.267656
2152.000000	0.267572
2153.000000	0.267384
2154.000000	0.267319
2155.000000	0.267019
2156.000000	0.267033
2157.000000	0.267611
2158.000000	0.267668
2159.000000	0.267538
2160.000000	0.267515
2161.000000	0.267196
2162.000000	0.267220
2163.000000	0.267286
2164.000000	0.267480
2165.000000	0.268040
2166.000000	0.268292
2167.000000	0.268598
2168.000000	0.268599
2169.000000	0.268151
2170.000000	0.267834
2171.000000	0.267790
2172.000000	0.267964
2173.000000	0.267862
2174.000000	0.267927
2175.000000	0.267770
2176.000000	0.267168
2177.000000	0.267060
2178.000000	0.267220
2179.000000	0.267425
2180.000000	0.267747
2181.000000	0.268255
2182.000000	0.268525
2183.000000	0.268677
2184.000000	0.268868
2185.000000	0.268648
2186.000000	0.267986
2187.000000	0.267929
2188.000000	0.267924
2189.000000	0.267603
2190.000000	0.267837
2191.000000	0.268181
2192.000000	0.268549
2193.000000	0.269473
2194.000000	0.269493
2195.000000	0.269084
2196.000000	0.268770
2197.000000	0.267572
2198.000000	0.267025
2199.000000	0.267033
2200.000000	0.267001
2201.000000	0.267037
2202.000000	0.267152
2203.000000	0.267434
2204.000000	0.267551
2205.000000	0.266944
2206.000000	0.266938
2207.000000	0.266573
2208.000000	0.266184
2209.000000	0.267035
2210.000000	0.267697
2211.000000	0.267761
2212.000000	0.268661
2213.000000	0.269158
2214.000000	0.269386
2215.000000	0.269256
2216.000000	0.268978
2217.000000	0.268869
2218.000000	0.267914
2219.000000	0.268151
2220.000000	0.269565
2221.000000	0.270213
2222.000000	0.271197
2223.000000	0.271596
2224.000000	0.271617
2225.000000	0.271318
2226.000000	0.270375
2227.000000	0.268962
2228.000000	0.268247
2229.000000	0.267607
2230.000000	0.267581
2231.000000	0.268454
2232.000000	0.268410
2233.000000	0.268753
2234.000000	0.269142
2235.000000	0.269161
2236.000000	0.269076
2237.000000	0.268794
2238.000000	0.268603
2239.000000	0.267698
2240.000000	0.268102
2241.000000	0.269645
2242.000000	0.270189
2243.000000	0.271448
2244.000000	0.271660
2245.000000	0.270071
2246.000000	0.269887
2247.000000	0.269795
2248.000000	0.269991
2249.000000	0.271468
2250.000000	0.272022
2251.000000	0.271369
2252.000000	0.271295
2253.000000	0.269648
2254.000000	0.268278
2255.000000	0.268522
2256.000000	0.268566
2257.000000	0.269584
2258.000000	0.270887
2259.000000	0.270776
2260.000000	0.271073
2261.000000	0.270735
2262.000000	0.269344
2263.000000	0.268971
2264.000000	0.268947
2265.000000	0.268573
2266.000000	0.268686
2267.000000	0.268452
2268.000000	0.267418
2269.000000	0.267199
2270.000000	0.267332
2271.000000	0.267546
2272.000000	0.268461
2273.000000	0.268928
2274.000000	0.269046
2275.000000	0.269120
2276.000000	0.269488
2277.000000	0.268798
2278.000000	0.267476
2279.000000	0.266900
2280.000000	0.265738
2281.000000	0.265145
2282.000000	0.265546
2283.000000	0.265908
2284.000000	0.266303
2285.000000	0.266402
2286.000000	0.266423
2287.000000	0.266581
2288.000000	0.266849
2289.000000	0.267082
2290.000000	0.266773
2291.000000	0.266765
2292.000000	0.266978
2293.000000	0.266168
2294.000000	0.265553
2295.000000	0.264513
2296.000000	0.264364
2297.000000	0.264480
2298.000000	0.264788
2299.000000	0.266596
2300.000000	0.266505
2301.000000	0.264929
2302.000000	0.264243
2303.000000	0.262608
2304.000000	0.262081
2305.000000	0.262988
2306.000000	0.263043
2307.000000	0.263004
2308.000000	0.262942
2309.000000	0.262809
2310.000000	0.263094
2311.000000	0.263703
2312.000000	0.264385
2313.000000	0.264360
2314.000000	0.263371
2315.000000	0.262596
2316.000000	0.262152
2317.000000	0.261286
2318.000000	0.261791
2319.000000	0.262506
2320.000000	0.262260
2321.000000	0.262841
2322.000000	0.263227
2323.000000	0.263459
2324.000000	0.263865
2325.000000	0.263991
2326.000000	0.263790
2327.000000	0.262904
2328.000000	0.262117
2329.000000	0.261553
2330.000000	0.260856
2331.000000	0.260589
2332.000000	0.260915
2333.000000	0.261141
2334.000000	0.260454
2335.000000	0.260395
2336.000000	0.259963
2337.000000	0.259275
2338.000000	0.258835
2339.000000	0.258264
2340.000000	0.256884
2341.000000	0.256291
2342.000000	0.255995
2343.000000	0.256222
2344.000000	0.257185
2345.000000	0.257260
2346.000000	0.257643
2347.000000	0.257267
2348.000000	0.255749
2349.000000	0.255381
2350.000000	0.254727
2351.000000	0.254173
2352.000000	0.254604
2353.000000	0.255210
2354.000000	0.255438
2355.000000	0.255899
2356.000000	0.255671
2357.000000	0.255612
2358.000000	0.256575
2359.000000	0.257121
2360.000000	0.257930
2361.000000	0.258493
2362.000000	0.257867
2363.000000	0.258386
2364.000000	0.258050
2365.000000	0.257644
2366.000000	0.258011
2367.000000	0.256560
2368.000000	0.255879
2369.000000	0.255513
2370.000000	0.253837
2371.000000	0.253483
2372.000000	0.254317
2373.000000	0.254921
2374.000000	0.255507
2375.000000	0.256618
2376.000000	0.257320
2377.000000	0.256418
2378.000000	0.255292
2379.000000	0.253922
2380.000000	0.251646
2381.000000	0.250639
2382.000000	0.249446
2383.000000	0.248330
2384.000000	0.249810
2385.000000	0.250318
2386.000000	0.250269
2387.000000	0.251649
2388.000000	0.252163
2389.000000	0.252797
2390.000000	0.253522
2391.000000	0.252343
2392.000000	0.251233
2393.000000	0.250649
2394.000000	0.251387
2395.000000	0.253661
2396.000000	0.253140
2397.000000	0.250842
2398.000000	0.248367
2399.000000	0.246582
2400.000000	0.245046
2401.000000	0.243310
2402.000000	0.244216
2403.000000	0.244084
2404.000000	0.243636
2405.000000	0.245412
2406.000000	0.244880
2407.000000	0.244313
2408.000000	0.243684
2409.000000	0.240230
2410.000000	0.238793
2411.000000	0.237977
2412.000000	0.237777
2413.000000	0.241007
2414.000000	0.243616
2415.000000	0.243878
2416.000000	0.245675
2417.000000	0.247484
2418.000000	0.247990
2419.000000	0.250051
2420.000000	0.251578
2421.000000	0.251873
2422.000000	0.248772
2423.000000	0.244940
2424.000000	0.241978
2425.000000	0.237498
2426.000000	0.236305
2427.000000	0.236399
2428.000000	0.239460
2429.000000	0.245320
2430.000000	0.248588
2431.000000	0.251138
2432.000000	0.249690
2433.000000	0.245395
2434.000000	0.242922
2435.000000	0.242811
2436.000000	0.241044
2437.000000	0.242149
2438.000000	0.246553
2439.000000	0.245548
2440.000000	0.244275
2441.000000	0.240863
2442.000000	0.239822
2443.000000	0.244212
2444.000000	0.248650
2445.000000	0.256231
2446.000000	0.255415
2447.000000	0.249125
2448.000000	0.245624
2449.000000	0.240909
2450.000000	0.239242
2451.000000	0.241931
2452.000000	0.247833
2453.000000	0.249412
2454.000000	0.248008
2455.000000	0.242945
2456.000000	0.234974
2457.000000	0.232442
2458.000000	0.234751
2459.000000	0.240744
2460.000000	0.247354
2461.000000	0.252006
2462.000000	0.252225
2463.000000	0.255373
2464.000000	0.256635
2465.000000	0.250476
2466.000000	0.249399
2467.000000	0.249741
2468.000000	0.244894
2469.000000	0.241401
2470.000000	0.240066
2471.000000	0.233783
2472.000000	0.234515
2473.000000	0.238353
2474.000000	0.236462
2475.000000	0.238036
2476.000000	0.232966
2477.000000	0.233589
2478.000000	0.245325
2479.000000	0.252079
2480.000000	0.254653
2481.000000	0.259029
2482.000000	0.262093
2483.000000	0.262129
2484.000000	0.260133
2485.000000	0.250895
2486.000000	0.244027
2487.000000	0.246990
2488.000000	0.252797
2489.000000	0.253100
2490.000000	0.243616
2491.000000	0.245225
2492.000000	0.239811
2493.000000	0.253557
2494.000000	0.263092
2495.000000	0.257514
2496.000000	0.236661
2497.000000	0.193139
2498.000000	0.178760
2499.000000	0.174512
2500.000000	0.174714
