# Wavelength	hexa20_00002.asd.rts.txt
350.000000	0.193974
351.000000	0.195800
352.000000	0.200342
353.000000	0.202856
354.000000	0.203066
355.000000	0.200222
356.000000	0.201505
357.000000	0.205862
358.000000	0.203031
359.000000	0.202817
360.000000	0.203973
361.000000	0.203143
362.000000	0.203973
363.000000	0.205428
364.000000	0.206110
365.000000	0.206739
366.000000	0.205594
367.000000	0.204084
368.000000	0.207178
369.000000	0.207292
370.000000	0.206184
371.000000	0.207728
372.000000	0.208379
373.000000	0.209920
374.000000	0.213008
375.000000	0.212037
376.000000	0.210775
377.000000	0.210844
378.000000	0.212290
379.000000	0.213480
380.000000	0.213659
381.000000	0.213329
382.000000	0.213275
383.000000	0.213343
384.000000	0.213755
385.000000	0.215485
386.000000	0.217231
387.000000	0.218139
388.000000	0.217225
389.000000	0.217215
390.000000	0.217905
391.000000	0.217905
392.000000	0.218587
393.000000	0.219164
394.000000	0.219156
395.000000	0.220125
396.000000	0.220487
397.000000	0.220128
398.000000	0.221096
399.000000	0.221827
400.000000	0.222264
401.000000	0.222776
402.000000	0.223102
403.000000	0.223471
404.000000	0.224112
405.000000	0.224190
406.000000	0.224367
407.000000	0.224940
408.000000	0.225450
409.000000	0.225861
410.000000	0.226180
411.000000	0.226415
412.000000	0.226429
413.000000	0.226653
414.000000	0.227440
415.000000	0.227907
416.000000	0.228185
417.000000	0.228476
418.000000	0.228984
419.000000	0.229283
420.000000	0.229454
421.000000	0.230018
422.000000	0.230212
423.000000	0.230242
424.000000	0.230638
425.000000	0.231085
426.000000	0.231349
427.000000	0.231401
428.000000	0.231895
429.000000	0.232256
430.000000	0.232410
431.000000	0.232957
432.000000	0.233162
433.000000	0.233146
434.000000	0.233496
435.000000	0.233783
436.000000	0.233899
437.000000	0.233861
438.000000	0.234076
439.000000	0.234280
440.000000	0.234410
441.000000	0.234474
442.000000	0.234703
443.000000	0.235000
444.000000	0.235191
445.000000	0.235333
446.000000	0.235581
447.000000	0.235910
448.000000	0.236209
449.000000	0.236457
450.000000	0.236687
451.000000	0.237023
452.000000	0.237251
453.000000	0.237366
454.000000	0.237867
455.000000	0.238119
456.000000	0.238242
457.000000	0.238469
458.000000	0.238723
459.000000	0.239037
460.000000	0.239436
461.000000	0.239599
462.000000	0.239810
463.000000	0.240074
464.000000	0.240391
465.000000	0.240611
466.000000	0.240732
467.000000	0.240987
468.000000	0.241292
469.000000	0.241491
470.000000	0.241614
471.000000	0.241778
472.000000	0.241968
473.000000	0.242177
474.000000	0.242341
475.000000	0.242520
476.000000	0.242823
477.000000	0.243084
478.000000	0.243123
479.000000	0.243268
480.000000	0.243667
481.000000	0.243770
482.000000	0.243903
483.000000	0.244186
484.000000	0.244446
485.000000	0.244620
486.000000	0.244834
487.000000	0.244944
488.000000	0.245155
489.000000	0.245493
490.000000	0.245836
491.000000	0.246074
492.000000	0.246325
493.000000	0.246615
494.000000	0.246883
495.000000	0.247159
496.000000	0.247431
497.000000	0.247729
498.000000	0.248068
499.000000	0.248467
500.000000	0.248754
501.000000	0.248970
502.000000	0.249195
503.000000	0.249445
504.000000	0.249695
505.000000	0.249934
506.000000	0.250173
507.000000	0.250449
508.000000	0.250793
509.000000	0.251145
510.000000	0.251390
511.000000	0.251650
512.000000	0.251951
513.000000	0.252188
514.000000	0.252471
515.000000	0.252830
516.000000	0.253194
517.000000	0.253502
518.000000	0.253804
519.000000	0.254073
520.000000	0.254364
521.000000	0.254671
522.000000	0.254967
523.000000	0.255162
524.000000	0.255456
525.000000	0.255804
526.000000	0.256071
527.000000	0.256380
528.000000	0.256677
529.000000	0.256940
530.000000	0.257191
531.000000	0.257502
532.000000	0.257809
533.000000	0.258061
534.000000	0.258327
535.000000	0.258609
536.000000	0.258886
537.000000	0.259148
538.000000	0.259418
539.000000	0.259712
540.000000	0.259958
541.000000	0.260163
542.000000	0.260383
543.000000	0.260610
544.000000	0.260903
545.000000	0.261206
546.000000	0.261470
547.000000	0.261795
548.000000	0.262169
549.000000	0.262412
550.000000	0.262733
551.000000	0.263100
552.000000	0.263376
553.000000	0.263683
554.000000	0.263977
555.000000	0.264253
556.000000	0.264653
557.000000	0.264978
558.000000	0.265292
559.000000	0.265650
560.000000	0.265950
561.000000	0.266261
562.000000	0.266584
563.000000	0.266869
564.000000	0.267168
565.000000	0.267446
566.000000	0.267797
567.000000	0.268166
568.000000	0.268502
569.000000	0.268846
570.000000	0.269189
571.000000	0.269516
572.000000	0.269840
573.000000	0.270164
574.000000	0.270440
575.000000	0.270671
576.000000	0.271008
577.000000	0.271312
578.000000	0.271548
579.000000	0.271902
580.000000	0.272247
581.000000	0.272537
582.000000	0.272884
583.000000	0.273189
584.000000	0.273464
585.000000	0.273782
586.000000	0.274078
587.000000	0.274360
588.000000	0.274651
589.000000	0.274990
590.000000	0.275312
591.000000	0.275584
592.000000	0.275875
593.000000	0.276139
594.000000	0.276374
595.000000	0.276627
596.000000	0.276848
597.000000	0.277064
598.000000	0.277232
599.000000	0.277387
600.000000	0.277616
601.000000	0.277884
602.000000	0.278072
603.000000	0.278260
604.000000	0.278484
605.000000	0.278672
606.000000	0.278781
607.000000	0.278855
608.000000	0.278999
609.000000	0.279221
610.000000	0.279469
611.000000	0.279680
612.000000	0.279856
613.000000	0.279980
614.000000	0.280093
615.000000	0.280250
616.000000	0.280362
617.000000	0.280411
618.000000	0.280547
619.000000	0.280672
620.000000	0.280754
621.000000	0.280845
622.000000	0.280960
623.000000	0.281136
624.000000	0.281376
625.000000	0.281561
626.000000	0.281773
627.000000	0.282062
628.000000	0.282438
629.000000	0.282800
630.000000	0.283059
631.000000	0.283410
632.000000	0.283726
633.000000	0.284028
634.000000	0.284334
635.000000	0.284559
636.000000	0.284727
637.000000	0.284845
638.000000	0.284947
639.000000	0.285021
640.000000	0.285118
641.000000	0.285179
642.000000	0.285229
643.000000	0.285306
644.000000	0.285447
645.000000	0.285564
646.000000	0.285716
647.000000	0.285915
648.000000	0.286099
649.000000	0.286280
650.000000	0.286452
651.000000	0.286661
652.000000	0.286799
653.000000	0.286920
654.000000	0.287066
655.000000	0.287251
656.000000	0.287452
657.000000	0.287600
658.000000	0.287782
659.000000	0.287979
660.000000	0.288160
661.000000	0.288326
662.000000	0.288466
663.000000	0.288624
664.000000	0.288766
665.000000	0.288881
666.000000	0.289025
667.000000	0.289215
668.000000	0.289356
669.000000	0.289501
670.000000	0.289687
671.000000	0.289872
672.000000	0.290092
673.000000	0.290316
674.000000	0.290486
675.000000	0.290659
676.000000	0.290834
677.000000	0.291010
678.000000	0.291157
679.000000	0.291316
680.000000	0.291515
681.000000	0.291671
682.000000	0.291890
683.000000	0.292107
684.000000	0.292301
685.000000	0.292453
686.000000	0.292594
687.000000	0.292726
688.000000	0.292886
689.000000	0.293040
690.000000	0.293197
691.000000	0.293395
692.000000	0.293561
693.000000	0.293742
694.000000	0.293954
695.000000	0.294191
696.000000	0.294406
697.000000	0.294542
698.000000	0.294693
699.000000	0.294859
700.000000	0.295029
701.000000	0.295158
702.000000	0.295328
703.000000	0.295527
704.000000	0.295666
705.000000	0.295813
706.000000	0.295955
707.000000	0.296137
708.000000	0.296330
709.000000	0.296486
710.000000	0.296603
711.000000	0.296755
712.000000	0.296900
713.000000	0.297043
714.000000	0.297196
715.000000	0.297314
716.000000	0.297442
717.000000	0.297635
718.000000	0.297807
719.000000	0.297951
720.000000	0.298088
721.000000	0.298213
722.000000	0.298343
723.000000	0.298530
724.000000	0.298686
725.000000	0.298820
726.000000	0.298984
727.000000	0.299092
728.000000	0.299172
729.000000	0.299273
730.000000	0.299380
731.000000	0.299505
732.000000	0.299622
733.000000	0.299750
734.000000	0.299858
735.000000	0.299941
736.000000	0.300104
737.000000	0.300232
738.000000	0.300311
739.000000	0.300441
740.000000	0.300529
741.000000	0.300632
742.000000	0.300736
743.000000	0.300830
744.000000	0.300995
745.000000	0.301126
746.000000	0.301266
747.000000	0.301403
748.000000	0.301519
749.000000	0.301623
750.000000	0.301692
751.000000	0.301752
752.000000	0.301838
753.000000	0.301939
754.000000	0.301977
755.000000	0.302041
756.000000	0.302113
757.000000	0.302115
758.000000	0.302150
759.000000	0.302242
760.000000	0.302335
761.000000	0.302524
762.000000	0.302664
763.000000	0.302736
764.000000	0.302873
765.000000	0.302956
766.000000	0.302999
767.000000	0.303026
768.000000	0.303036
769.000000	0.303037
770.000000	0.303054
771.000000	0.303122
772.000000	0.303250
773.000000	0.303344
774.000000	0.303412
775.000000	0.303475
776.000000	0.303530
777.000000	0.303570
778.000000	0.303667
779.000000	0.303706
780.000000	0.303696
781.000000	0.303747
782.000000	0.303812
783.000000	0.303944
784.000000	0.304028
785.000000	0.304081
786.000000	0.304179
787.000000	0.304316
788.000000	0.304342
789.000000	0.304312
790.000000	0.304269
791.000000	0.304297
792.000000	0.304313
793.000000	0.304298
794.000000	0.304270
795.000000	0.304296
796.000000	0.304309
797.000000	0.304313
798.000000	0.304397
799.000000	0.304513
800.000000	0.304627
801.000000	0.304707
802.000000	0.304728
803.000000	0.304696
804.000000	0.304661
805.000000	0.304617
806.000000	0.304556
807.000000	0.304534
808.000000	0.304488
809.000000	0.304525
810.000000	0.304597
811.000000	0.304644
812.000000	0.304709
813.000000	0.304788
814.000000	0.304849
815.000000	0.304858
816.000000	0.304832
817.000000	0.304807
818.000000	0.304740
819.000000	0.304735
820.000000	0.304768
821.000000	0.304769
822.000000	0.304758
823.000000	0.304828
824.000000	0.304890
825.000000	0.304918
826.000000	0.304915
827.000000	0.304845
828.000000	0.304751
829.000000	0.304677
830.000000	0.304587
831.000000	0.304558
832.000000	0.304548
833.000000	0.304563
834.000000	0.304570
835.000000	0.304572
836.000000	0.304544
837.000000	0.304541
838.000000	0.304565
839.000000	0.304533
840.000000	0.304431
841.000000	0.304329
842.000000	0.304256
843.000000	0.304195
844.000000	0.304187
845.000000	0.304205
846.000000	0.304229
847.000000	0.304218
848.000000	0.304126
849.000000	0.303966
850.000000	0.303809
851.000000	0.303693
852.000000	0.303665
853.000000	0.303683
854.000000	0.303591
855.000000	0.303504
856.000000	0.303420
857.000000	0.303347
858.000000	0.303308
859.000000	0.303220
860.000000	0.303075
861.000000	0.302921
862.000000	0.302824
863.000000	0.302760
864.000000	0.302677
865.000000	0.302593
866.000000	0.302542
867.000000	0.302499
868.000000	0.302467
869.000000	0.302388
870.000000	0.302289
871.000000	0.302085
872.000000	0.301877
873.000000	0.301686
874.000000	0.301563
875.000000	0.301473
876.000000	0.301424
877.000000	0.301362
878.000000	0.301201
879.000000	0.301077
880.000000	0.300923
881.000000	0.300741
882.000000	0.300622
883.000000	0.300533
884.000000	0.300338
885.000000	0.300224
886.000000	0.300076
887.000000	0.299874
888.000000	0.299733
889.000000	0.299668
890.000000	0.299472
891.000000	0.299134
892.000000	0.298914
893.000000	0.298677
894.000000	0.298446
895.000000	0.298167
896.000000	0.297873
897.000000	0.297659
898.000000	0.297599
899.000000	0.297515
900.000000	0.297461
901.000000	0.297398
902.000000	0.297265
903.000000	0.297140
904.000000	0.297046
905.000000	0.296882
906.000000	0.296704
907.000000	0.296500
908.000000	0.296295
909.000000	0.295980
910.000000	0.295603
911.000000	0.295255
912.000000	0.295042
913.000000	0.295022
914.000000	0.294904
915.000000	0.294712
916.000000	0.294547
917.000000	0.294308
918.000000	0.294008
919.000000	0.293666
920.000000	0.293354
921.000000	0.293090
922.000000	0.292877
923.000000	0.292672
924.000000	0.292465
925.000000	0.292189
926.000000	0.291873
927.000000	0.291600
928.000000	0.291338
929.000000	0.291067
930.000000	0.290781
931.000000	0.290506
932.000000	0.290307
933.000000	0.290174
934.000000	0.289910
935.000000	0.289672
936.000000	0.289448
937.000000	0.289118
938.000000	0.288774
939.000000	0.288593
940.000000	0.288461
941.000000	0.288253
942.000000	0.288008
943.000000	0.287839
944.000000	0.287680
945.000000	0.287548
946.000000	0.287223
947.000000	0.286908
948.000000	0.286768
949.000000	0.286395
950.000000	0.286105
951.000000	0.285887
952.000000	0.285523
953.000000	0.285279
954.000000	0.285045
955.000000	0.284676
956.000000	0.284367
957.000000	0.284232
958.000000	0.284111
959.000000	0.283885
960.000000	0.283704
961.000000	0.283492
962.000000	0.283245
963.000000	0.283107
964.000000	0.282901
965.000000	0.282616
966.000000	0.282228
967.000000	0.282082
968.000000	0.281801
969.000000	0.281436
970.000000	0.281321
971.000000	0.281109
972.000000	0.280924
973.000000	0.280732
974.000000	0.280461
975.000000	0.280230
976.000000	0.280050
977.000000	0.279884
978.000000	0.279648
979.000000	0.279538
980.000000	0.279257
981.000000	0.278848
982.000000	0.278665
983.000000	0.278458
984.000000	0.278232
985.000000	0.278133
986.000000	0.277916
987.000000	0.277772
988.000000	0.277700
989.000000	0.277516
990.000000	0.277230
991.000000	0.276958
992.000000	0.276844
993.000000	0.276698
994.000000	0.276523
995.000000	0.276374
996.000000	0.276006
997.000000	0.275926
998.000000	0.275904
999.000000	0.275852
1000.000000	0.275789
1001.000000	0.276019
1002.000000	0.275911
1003.000000	0.275615
1004.000000	0.275281
1005.000000	0.274669
1006.000000	0.274343
1007.000000	0.274037
1008.000000	0.274014
1009.000000	0.274257
1010.000000	0.274247
1011.000000	0.274270
1012.000000	0.274379
1013.000000	0.274220
1014.000000	0.274039
1015.000000	0.273739
1016.000000	0.273609
1017.000000	0.273641
1018.000000	0.273579
1019.000000	0.273579
1020.000000	0.273849
1021.000000	0.273669
1022.000000	0.273444
1023.000000	0.273511
1024.000000	0.273423
1025.000000	0.273519
1026.000000	0.273729
1027.000000	0.273593
1028.000000	0.273555
1029.000000	0.273563
1030.000000	0.273271
1031.000000	0.273111
1032.000000	0.273174
1033.000000	0.273117
1034.000000	0.273217
1035.000000	0.273747
1036.000000	0.273851
1037.000000	0.273769
1038.000000	0.273649
1039.000000	0.273432
1040.000000	0.273259
1041.000000	0.273262
1042.000000	0.273338
1043.000000	0.273346
1044.000000	0.273372
1045.000000	0.273330
1046.000000	0.273154
1047.000000	0.273265
1048.000000	0.273540
1049.000000	0.273706
1050.000000	0.274029
1051.000000	0.274183
1052.000000	0.274207
1053.000000	0.274151
1054.000000	0.274025
1055.000000	0.274149
1056.000000	0.274339
1057.000000	0.274654
1058.000000	0.274831
1059.000000	0.274990
1060.000000	0.275330
1061.000000	0.275530
1062.000000	0.275714
1063.000000	0.275988
1064.000000	0.276199
1065.000000	0.276098
1066.000000	0.276286
1067.000000	0.276727
1068.000000	0.276930
1069.000000	0.276954
1070.000000	0.277132
1071.000000	0.277449
1072.000000	0.277606
1073.000000	0.277802
1074.000000	0.278001
1075.000000	0.278083
1076.000000	0.278165
1077.000000	0.278340
1078.000000	0.278558
1079.000000	0.278783
1080.000000	0.279046
1081.000000	0.279269
1082.000000	0.279642
1083.000000	0.279864
1084.000000	0.279924
1085.000000	0.280188
1086.000000	0.280566
1087.000000	0.280829
1088.000000	0.281001
1089.000000	0.281237
1090.000000	0.281448
1091.000000	0.281484
1092.000000	0.281703
1093.000000	0.282267
1094.000000	0.282467
1095.000000	0.282419
1096.000000	0.282663
1097.000000	0.282914
1098.000000	0.283178
1099.000000	0.283633
1100.000000	0.283933
1101.000000	0.284045
1102.000000	0.284203
1103.000000	0.284315
1104.000000	0.284495
1105.000000	0.284662
1106.000000	0.284859
1107.000000	0.285105
1108.000000	0.285278
1109.000000	0.285517
1110.000000	0.285644
1111.000000	0.285771
1112.000000	0.285852
1113.000000	0.285982
1114.000000	0.286062
1115.000000	0.286257
1116.000000	0.286562
1117.000000	0.286764
1118.000000	0.287005
1119.000000	0.287114
1120.000000	0.287120
1121.000000	0.287137
1122.000000	0.287102
1123.000000	0.287338
1124.000000	0.287508
1125.000000	0.287681
1126.000000	0.287906
1127.000000	0.288062
1128.000000	0.288173
1129.000000	0.288220
1130.000000	0.288361
1131.000000	0.288546
1132.000000	0.288668
1133.000000	0.288843
1134.000000	0.289007
1135.000000	0.289108
1136.000000	0.289189
1137.000000	0.289247
1138.000000	0.289300
1139.000000	0.289378
1140.000000	0.289537
1141.000000	0.289728
1142.000000	0.289884
1143.000000	0.290023
1144.000000	0.290192
1145.000000	0.290169
1146.000000	0.290107
1147.000000	0.290144
1148.000000	0.290098
1149.000000	0.290127
1150.000000	0.290246
1151.000000	0.290364
1152.000000	0.290431
1153.000000	0.290535
1154.000000	0.290670
1155.000000	0.290761
1156.000000	0.290849
1157.000000	0.290911
1158.000000	0.290884
1159.000000	0.290916
1160.000000	0.290948
1161.000000	0.290962
1162.000000	0.291054
1163.000000	0.291232
1164.000000	0.291230
1165.000000	0.291246
1166.000000	0.291297
1167.000000	0.291312
1168.000000	0.291285
1169.000000	0.291271
1170.000000	0.291297
1171.000000	0.291351
1172.000000	0.291405
1173.000000	0.291484
1174.000000	0.291527
1175.000000	0.291482
1176.000000	0.291443
1177.000000	0.291494
1178.000000	0.291508
1179.000000	0.291501
1180.000000	0.291443
1181.000000	0.291424
1182.000000	0.291385
1183.000000	0.291424
1184.000000	0.291476
1185.000000	0.291479
1186.000000	0.291495
1187.000000	0.291461
1188.000000	0.291335
1189.000000	0.291290
1190.000000	0.291351
1191.000000	0.291340
1192.000000	0.291412
1193.000000	0.291506
1194.000000	0.291440
1195.000000	0.291444
1196.000000	0.291470
1197.000000	0.291465
1198.000000	0.291460
1199.000000	0.291474
1200.000000	0.291498
1201.000000	0.291462
1202.000000	0.291467
1203.000000	0.291499
1204.000000	0.291427
1205.000000	0.291383
1206.000000	0.291339
1207.000000	0.291364
1208.000000	0.291326
1209.000000	0.291360
1210.000000	0.291346
1211.000000	0.291256
1212.000000	0.291236
1213.000000	0.291296
1214.000000	0.291326
1215.000000	0.291336
1216.000000	0.291371
1217.000000	0.291395
1218.000000	0.291390
1219.000000	0.291427
1220.000000	0.291460
1221.000000	0.291418
1222.000000	0.291353
1223.000000	0.291303
1224.000000	0.291264
1225.000000	0.291252
1226.000000	0.291271
1227.000000	0.291264
1228.000000	0.291279
1229.000000	0.291219
1230.000000	0.291070
1231.000000	0.290950
1232.000000	0.290907
1233.000000	0.290939
1234.000000	0.291020
1235.000000	0.291020
1236.000000	0.290917
1237.000000	0.290900
1238.000000	0.290825
1239.000000	0.290779
1240.000000	0.290771
1241.000000	0.290796
1242.000000	0.290787
1243.000000	0.290795
1244.000000	0.290878
1245.000000	0.291008
1246.000000	0.291073
1247.000000	0.291152
1248.000000	0.291177
1249.000000	0.291160
1250.000000	0.291148
1251.000000	0.291124
1252.000000	0.291085
1253.000000	0.291073
1254.000000	0.291014
1255.000000	0.290899
1256.000000	0.290840
1257.000000	0.290788
1258.000000	0.290802
1259.000000	0.290829
1260.000000	0.290879
1261.000000	0.290906
1262.000000	0.290917
1263.000000	0.290960
1264.000000	0.290951
1265.000000	0.290920
1266.000000	0.290930
1267.000000	0.290980
1268.000000	0.290997
1269.000000	0.290896
1270.000000	0.290900
1271.000000	0.290892
1272.000000	0.290826
1273.000000	0.290877
1274.000000	0.290910
1275.000000	0.290933
1276.000000	0.290978
1277.000000	0.291040
1278.000000	0.291032
1279.000000	0.291021
1280.000000	0.290937
1281.000000	0.290843
1282.000000	0.290781
1283.000000	0.290784
1284.000000	0.290738
1285.000000	0.290689
1286.000000	0.290627
1287.000000	0.290605
1288.000000	0.290573
1289.000000	0.290510
1290.000000	0.290435
1291.000000	0.290337
1292.000000	0.290263
1293.000000	0.290241
1294.000000	0.290252
1295.000000	0.290307
1296.000000	0.290335
1297.000000	0.290318
1298.000000	0.290335
1299.000000	0.290351
1300.000000	0.290371
1301.000000	0.290389
1302.000000	0.290339
1303.000000	0.290353
1304.000000	0.290292
1305.000000	0.290250
1306.000000	0.290188
1307.000000	0.290130
1308.000000	0.290131
1309.000000	0.290165
1310.000000	0.290173
1311.000000	0.290257
1312.000000	0.290208
1313.000000	0.290097
1314.000000	0.290015
1315.000000	0.289913
1316.000000	0.289917
1317.000000	0.289976
1318.000000	0.290012
1319.000000	0.289937
1320.000000	0.289837
1321.000000	0.289756
1322.000000	0.289652
1323.000000	0.289644
1324.000000	0.289711
1325.000000	0.289714
1326.000000	0.289699
1327.000000	0.289686
1328.000000	0.289707
1329.000000	0.289640
1330.000000	0.289536
1331.000000	0.289459
1332.000000	0.289397
1333.000000	0.289311
1334.000000	0.289296
1335.000000	0.289277
1336.000000	0.289202
1337.000000	0.289165
1338.000000	0.289120
1339.000000	0.289053
1340.000000	0.288996
1341.000000	0.288924
1342.000000	0.288828
1343.000000	0.288742
1344.000000	0.288657
1345.000000	0.288630
1346.000000	0.288674
1347.000000	0.288583
1348.000000	0.288565
1349.000000	0.288527
1350.000000	0.288491
1351.000000	0.288509
1352.000000	0.288458
1353.000000	0.288386
1354.000000	0.288370
1355.000000	0.288306
1356.000000	0.288335
1357.000000	0.288348
1358.000000	0.288333
1359.000000	0.288300
1360.000000	0.288239
1361.000000	0.288170
1362.000000	0.288082
1363.000000	0.287926
1364.000000	0.287870
1365.000000	0.287808
1366.000000	0.287743
1367.000000	0.287724
1368.000000	0.287664
1369.000000	0.287656
1370.000000	0.287657
1371.000000	0.287628
1372.000000	0.287573
1373.000000	0.287544
1374.000000	0.287503
1375.000000	0.287443
1376.000000	0.287532
1377.000000	0.287575
1378.000000	0.287569
1379.000000	0.287553
1380.000000	0.287549
1381.000000	0.287575
1382.000000	0.287560
1383.000000	0.287631
1384.000000	0.287634
1385.000000	0.287492
1386.000000	0.287462
1387.000000	0.287499
1388.000000	0.287460
1389.000000	0.287459
1390.000000	0.287491
1391.000000	0.287387
1392.000000	0.287329
1393.000000	0.287267
1394.000000	0.287249
1395.000000	0.287232
1396.000000	0.287212
1397.000000	0.287142
1398.000000	0.287029
1399.000000	0.286957
1400.000000	0.286853
1401.000000	0.286771
1402.000000	0.286762
1403.000000	0.286719
1404.000000	0.286703
1405.000000	0.286637
1406.000000	0.286563
1407.000000	0.286483
1408.000000	0.286330
1409.000000	0.286280
1410.000000	0.286270
1411.000000	0.286177
1412.000000	0.286066
1413.000000	0.285935
1414.000000	0.285769
1415.000000	0.285614
1416.000000	0.285407
1417.000000	0.285200
1418.000000	0.284962
1419.000000	0.284760
1420.000000	0.284552
1421.000000	0.284398
1422.000000	0.284229
1423.000000	0.284057
1424.000000	0.283826
1425.000000	0.283617
1426.000000	0.283413
1427.000000	0.283245
1428.000000	0.283068
1429.000000	0.282892
1430.000000	0.282720
1431.000000	0.282521
1432.000000	0.282331
1433.000000	0.282194
1434.000000	0.282035
1435.000000	0.281944
1436.000000	0.281836
1437.000000	0.281717
1438.000000	0.281557
1439.000000	0.281410
1440.000000	0.281266
1441.000000	0.281118
1442.000000	0.281003
1443.000000	0.280860
1444.000000	0.280715
1445.000000	0.280554
1446.000000	0.280434
1447.000000	0.280309
1448.000000	0.280200
1449.000000	0.280145
1450.000000	0.280069
1451.000000	0.280032
1452.000000	0.279938
1453.000000	0.279814
1454.000000	0.279716
1455.000000	0.279610
1456.000000	0.279579
1457.000000	0.279577
1458.000000	0.279563
1459.000000	0.279553
1460.000000	0.279546
1461.000000	0.279543
1462.000000	0.279522
1463.000000	0.279423
1464.000000	0.279334
1465.000000	0.279308
1466.000000	0.279245
1467.000000	0.279247
1468.000000	0.279285
1469.000000	0.279307
1470.000000	0.279238
1471.000000	0.279185
1472.000000	0.279124
1473.000000	0.279099
1474.000000	0.279099
1475.000000	0.279124
1476.000000	0.279137
1477.000000	0.279130
1478.000000	0.279137
1479.000000	0.279090
1480.000000	0.279046
1481.000000	0.279013
1482.000000	0.279006
1483.000000	0.279033
1484.000000	0.279099
1485.000000	0.279146
1486.000000	0.279203
1487.000000	0.279233
1488.000000	0.279263
1489.000000	0.279323
1490.000000	0.279271
1491.000000	0.279275
1492.000000	0.279270
1493.000000	0.279272
1494.000000	0.279247
1495.000000	0.279213
1496.000000	0.279173
1497.000000	0.279163
1498.000000	0.279172
1499.000000	0.279151
1500.000000	0.279206
1501.000000	0.279178
1502.000000	0.279085
1503.000000	0.279083
1504.000000	0.279072
1505.000000	0.279065
1506.000000	0.279121
1507.000000	0.279141
1508.000000	0.279179
1509.000000	0.279199
1510.000000	0.279166
1511.000000	0.279185
1512.000000	0.279175
1513.000000	0.279184
1514.000000	0.279276
1515.000000	0.279283
1516.000000	0.279317
1517.000000	0.279350
1518.000000	0.279330
1519.000000	0.279310
1520.000000	0.279349
1521.000000	0.279361
1522.000000	0.279421
1523.000000	0.279552
1524.000000	0.279591
1525.000000	0.279633
1526.000000	0.279689
1527.000000	0.279731
1528.000000	0.279802
1529.000000	0.279858
1530.000000	0.279796
1531.000000	0.279799
1532.000000	0.279869
1533.000000	0.279871
1534.000000	0.279950
1535.000000	0.280049
1536.000000	0.279994
1537.000000	0.280018
1538.000000	0.280062
1539.000000	0.279999
1540.000000	0.280030
1541.000000	0.280099
1542.000000	0.280129
1543.000000	0.280168
1544.000000	0.280167
1545.000000	0.280181
1546.000000	0.280166
1547.000000	0.280151
1548.000000	0.280157
1549.000000	0.280113
1550.000000	0.280083
1551.000000	0.280076
1552.000000	0.280080
1553.000000	0.280090
1554.000000	0.280096
1555.000000	0.280134
1556.000000	0.280179
1557.000000	0.280184
1558.000000	0.280201
1559.000000	0.280162
1560.000000	0.280130
1561.000000	0.280120
1562.000000	0.280096
1563.000000	0.280139
1564.000000	0.280117
1565.000000	0.280038
1566.000000	0.279936
1567.000000	0.279862
1568.000000	0.279796
1569.000000	0.279804
1570.000000	0.279787
1571.000000	0.279734
1572.000000	0.279735
1573.000000	0.279776
1574.000000	0.279791
1575.000000	0.279836
1576.000000	0.279898
1577.000000	0.279936
1578.000000	0.279972
1579.000000	0.280098
1580.000000	0.280154
1581.000000	0.280225
1582.000000	0.280256
1583.000000	0.280236
1584.000000	0.280221
1585.000000	0.280261
1586.000000	0.280309
1587.000000	0.280374
1588.000000	0.280402
1589.000000	0.280420
1590.000000	0.280431
1591.000000	0.280455
1592.000000	0.280480
1593.000000	0.280535
1594.000000	0.280528
1595.000000	0.280524
1596.000000	0.280516
1597.000000	0.280497
1598.000000	0.280494
1599.000000	0.280564
1600.000000	0.280506
1601.000000	0.280466
1602.000000	0.280392
1603.000000	0.280227
1604.000000	0.280148
1605.000000	0.280155
1606.000000	0.280078
1607.000000	0.280051
1608.000000	0.279972
1609.000000	0.279862
1610.000000	0.279747
1611.000000	0.279629
1612.000000	0.279538
1613.000000	0.279535
1614.000000	0.279496
1615.000000	0.279525
1616.000000	0.279547
1617.000000	0.279510
1618.000000	0.279465
1619.000000	0.279393
1620.000000	0.279372
1621.000000	0.279360
1622.000000	0.279435
1623.000000	0.279574
1624.000000	0.279651
1625.000000	0.279613
1626.000000	0.279607
1627.000000	0.279606
1628.000000	0.279656
1629.000000	0.279736
1630.000000	0.279806
1631.000000	0.279800
1632.000000	0.279848
1633.000000	0.279971
1634.000000	0.280028
1635.000000	0.280136
1636.000000	0.280173
1637.000000	0.280146
1638.000000	0.280109
1639.000000	0.280126
1640.000000	0.280058
1641.000000	0.279954
1642.000000	0.279890
1643.000000	0.279839
1644.000000	0.279766
1645.000000	0.279725
1646.000000	0.279617
1647.000000	0.279459
1648.000000	0.279350
1649.000000	0.279304
1650.000000	0.279311
1651.000000	0.279414
1652.000000	0.279490
1653.000000	0.279551
1654.000000	0.279620
1655.000000	0.279627
1656.000000	0.279592
1657.000000	0.279627
1658.000000	0.279610
1659.000000	0.279641
1660.000000	0.279663
1661.000000	0.279592
1662.000000	0.279536
1663.000000	0.279430
1664.000000	0.279377
1665.000000	0.279324
1666.000000	0.279378
1667.000000	0.279439
1668.000000	0.279467
1669.000000	0.279513
1670.000000	0.279493
1671.000000	0.279511
1672.000000	0.279565
1673.000000	0.279587
1674.000000	0.279657
1675.000000	0.279801
1676.000000	0.279873
1677.000000	0.279886
1678.000000	0.279879
1679.000000	0.279868
1680.000000	0.279853
1681.000000	0.279892
1682.000000	0.279916
1683.000000	0.279926
1684.000000	0.279980
1685.000000	0.280068
1686.000000	0.280098
1687.000000	0.280089
1688.000000	0.280044
1689.000000	0.279982
1690.000000	0.279928
1691.000000	0.279956
1692.000000	0.279954
1693.000000	0.279968
1694.000000	0.279947
1695.000000	0.279970
1696.000000	0.279928
1697.000000	0.279842
1698.000000	0.279758
1699.000000	0.279741
1700.000000	0.279737
1701.000000	0.279805
1702.000000	0.279792
1703.000000	0.279776
1704.000000	0.279837
1705.000000	0.279893
1706.000000	0.279999
1707.000000	0.280102
1708.000000	0.280195
1709.000000	0.280217
1710.000000	0.280325
1711.000000	0.280379
1712.000000	0.280373
1713.000000	0.280386
1714.000000	0.280418
1715.000000	0.280454
1716.000000	0.280514
1717.000000	0.280562
1718.000000	0.280583
1719.000000	0.280583
1720.000000	0.280619
1721.000000	0.280635
1722.000000	0.280631
1723.000000	0.280639
1724.000000	0.280691
1725.000000	0.280697
1726.000000	0.280581
1727.000000	0.280543
1728.000000	0.280454
1729.000000	0.280354
1730.000000	0.280401
1731.000000	0.280398
1732.000000	0.280368
1733.000000	0.280414
1734.000000	0.280368
1735.000000	0.280407
1736.000000	0.280481
1737.000000	0.280509
1738.000000	0.280566
1739.000000	0.280635
1740.000000	0.280679
1741.000000	0.280687
1742.000000	0.280718
1743.000000	0.280789
1744.000000	0.280814
1745.000000	0.280814
1746.000000	0.280843
1747.000000	0.280837
1748.000000	0.280812
1749.000000	0.280853
1750.000000	0.280873
1751.000000	0.280975
1752.000000	0.281134
1753.000000	0.281226
1754.000000	0.281315
1755.000000	0.281365
1756.000000	0.281394
1757.000000	0.281405
1758.000000	0.281433
1759.000000	0.281447
1760.000000	0.281439
1761.000000	0.281377
1762.000000	0.281341
1763.000000	0.281314
1764.000000	0.281288
1765.000000	0.281255
1766.000000	0.281235
1767.000000	0.281137
1768.000000	0.281041
1769.000000	0.281032
1770.000000	0.281046
1771.000000	0.281019
1772.000000	0.281023
1773.000000	0.281024
1774.000000	0.281034
1775.000000	0.281098
1776.000000	0.281165
1777.000000	0.281224
1778.000000	0.281268
1779.000000	0.281301
1780.000000	0.281364
1781.000000	0.281402
1782.000000	0.281439
1783.000000	0.281532
1784.000000	0.281612
1785.000000	0.281624
1786.000000	0.281685
1787.000000	0.281893
1788.000000	0.282068
1789.000000	0.282142
1790.000000	0.282124
1791.000000	0.282091
1792.000000	0.282058
1793.000000	0.282049
1794.000000	0.282072
1795.000000	0.282137
1796.000000	0.282226
1797.000000	0.282290
1798.000000	0.282367
1799.000000	0.282425
1800.000000	0.282525
1801.000000	0.282205
1802.000000	0.282374
1803.000000	0.282738
1804.000000	0.282870
1805.000000	0.283227
1806.000000	0.283414
1807.000000	0.283363
1808.000000	0.283285
1809.000000	0.283220
1810.000000	0.283062
1811.000000	0.282953
1812.000000	0.282668
1813.000000	0.282610
1814.000000	0.282767
1815.000000	0.282815
1816.000000	0.283073
1817.000000	0.282873
1818.000000	0.282385
1819.000000	0.282119
1820.000000	0.281997
1821.000000	0.281541
1822.000000	0.281469
1823.000000	0.281671
1824.000000	0.281803
1825.000000	0.281909
1826.000000	0.282185
1827.000000	0.282546
1828.000000	0.282958
1829.000000	0.283212
1830.000000	0.283158
1831.000000	0.283087
1832.000000	0.282637
1833.000000	0.282551
1834.000000	0.282570
1835.000000	0.282591
1836.000000	0.282859
1837.000000	0.282868
1838.000000	0.282630
1839.000000	0.282296
1840.000000	0.281990
1841.000000	0.281668
1842.000000	0.281536
1843.000000	0.281409
1844.000000	0.281506
1845.000000	0.281851
1846.000000	0.282036
1847.000000	0.282076
1848.000000	0.282382
1849.000000	0.282488
1850.000000	0.282309
1851.000000	0.282210
1852.000000	0.281874
1853.000000	0.281968
1854.000000	0.282100
1855.000000	0.282115
1856.000000	0.282212
1857.000000	0.282360
1858.000000	0.282144
1859.000000	0.281746
1860.000000	0.281536
1861.000000	0.281216
1862.000000	0.280952
1863.000000	0.280742
1864.000000	0.280633
1865.000000	0.280653
1866.000000	0.280612
1867.000000	0.280599
1868.000000	0.280569
1869.000000	0.280334
1870.000000	0.279964
1871.000000	0.279530
1872.000000	0.279076
1873.000000	0.278850
1874.000000	0.278641
1875.000000	0.278646
1876.000000	0.278761
1877.000000	0.278591
1878.000000	0.278190
1879.000000	0.277883
1880.000000	0.277511
1881.000000	0.276848
1882.000000	0.276241
1883.000000	0.275648
1884.000000	0.275344
1885.000000	0.275037
1886.000000	0.274779
1887.000000	0.274862
1888.000000	0.274491
1889.000000	0.274063
1890.000000	0.273668
1891.000000	0.273392
1892.000000	0.273185
1893.000000	0.272854
1894.000000	0.272368
1895.000000	0.271774
1896.000000	0.271145
1897.000000	0.270669
1898.000000	0.269941
1899.000000	0.269434
1900.000000	0.268889
1901.000000	0.268095
1902.000000	0.267491
1903.000000	0.266790
1904.000000	0.266029
1905.000000	0.265479
1906.000000	0.264859
1907.000000	0.264321
1908.000000	0.263634
1909.000000	0.263231
1910.000000	0.262754
1911.000000	0.262227
1912.000000	0.261868
1913.000000	0.261226
1914.000000	0.260737
1915.000000	0.260058
1916.000000	0.259409
1917.000000	0.258784
1918.000000	0.258382
1919.000000	0.257758
1920.000000	0.257209
1921.000000	0.256682
1922.000000	0.256206
1923.000000	0.255917
1924.000000	0.255388
1925.000000	0.254909
1926.000000	0.254773
1927.000000	0.254545
1928.000000	0.254330
1929.000000	0.254346
1930.000000	0.254472
1931.000000	0.254172
1932.000000	0.253977
1933.000000	0.253924
1934.000000	0.253728
1935.000000	0.253654
1936.000000	0.253688
1937.000000	0.253563
1938.000000	0.253357
1939.000000	0.253175
1940.000000	0.252977
1941.000000	0.252703
1942.000000	0.252584
1943.000000	0.252426
1944.000000	0.252315
1945.000000	0.252171
1946.000000	0.251895
1947.000000	0.251909
1948.000000	0.251894
1949.000000	0.251991
1950.000000	0.252088
1951.000000	0.251975
1952.000000	0.251707
1953.000000	0.251583
1954.000000	0.251359
1955.000000	0.251295
1956.000000	0.251569
1957.000000	0.251629
1958.000000	0.251685
1959.000000	0.251716
1960.000000	0.251610
1961.000000	0.251678
1962.000000	0.251704
1963.000000	0.251833
1964.000000	0.251973
1965.000000	0.252008
1966.000000	0.251882
1967.000000	0.251843
1968.000000	0.251851
1969.000000	0.251624
1970.000000	0.251577
1971.000000	0.251494
1972.000000	0.251298
1973.000000	0.251124
1974.000000	0.251216
1975.000000	0.251174
1976.000000	0.251080
1977.000000	0.251009
1978.000000	0.250880
1979.000000	0.250777
1980.000000	0.250685
1981.000000	0.250583
1982.000000	0.250660
1983.000000	0.250990
1984.000000	0.251160
1985.000000	0.251481
1986.000000	0.251610
1987.000000	0.251746
1988.000000	0.251659
1989.000000	0.251622
1990.000000	0.251550
1991.000000	0.251438
1992.000000	0.251474
1993.000000	0.251616
1994.000000	0.251867
1995.000000	0.252001
1996.000000	0.252161
1997.000000	0.252227
1998.000000	0.252114
1999.000000	0.252202
2000.000000	0.252443
2001.000000	0.252464
2002.000000	0.252568
2003.000000	0.252735
2004.000000	0.252753
2005.000000	0.252732
2006.000000	0.252959
2007.000000	0.253146
2008.000000	0.253266
2009.000000	0.253413
2010.000000	0.253548
2011.000000	0.253363
2012.000000	0.253413
2013.000000	0.253544
2014.000000	0.253535
2015.000000	0.253746
2016.000000	0.254011
2017.000000	0.254136
2018.000000	0.254346
2019.000000	0.254531
2020.000000	0.254621
2021.000000	0.254797
2022.000000	0.255021
2023.000000	0.255240
2024.000000	0.255589
2025.000000	0.255749
2026.000000	0.255775
2027.000000	0.255574
2028.000000	0.255325
2029.000000	0.255267
2030.000000	0.255293
2031.000000	0.255394
2032.000000	0.255742
2033.000000	0.256265
2034.000000	0.256508
2035.000000	0.256867
2036.000000	0.256935
2037.000000	0.256761
2038.000000	0.256702
2039.000000	0.256526
2040.000000	0.256788
2041.000000	0.257075
2042.000000	0.257431
2043.000000	0.257799
2044.000000	0.257767
2045.000000	0.257612
2046.000000	0.257468
2047.000000	0.257541
2048.000000	0.257813
2049.000000	0.258151
2050.000000	0.258335
2051.000000	0.258425
2052.000000	0.258320
2053.000000	0.258249
2054.000000	0.258328
2055.000000	0.258552
2056.000000	0.258682
2057.000000	0.258988
2058.000000	0.259200
2059.000000	0.259399
2060.000000	0.259672
2061.000000	0.260116
2062.000000	0.260350
2063.000000	0.260676
2064.000000	0.260650
2065.000000	0.260453
2066.000000	0.260302
2067.000000	0.260214
2068.000000	0.260289
2069.000000	0.260227
2070.000000	0.260534
2071.000000	0.260513
2072.000000	0.260332
2073.000000	0.260348
2074.000000	0.260314
2075.000000	0.260475
2076.000000	0.260863
2077.000000	0.261100
2078.000000	0.261441
2079.000000	0.261571
2080.000000	0.261503
2081.000000	0.261595
2082.000000	0.261643
2083.000000	0.261847
2084.000000	0.262131
2085.000000	0.262467
2086.000000	0.262538
2087.000000	0.262635
2088.000000	0.262698
2089.000000	0.262719
2090.000000	0.262800
2091.000000	0.262982
2092.000000	0.263175
2093.000000	0.263478
2094.000000	0.263542
2095.000000	0.263560
2096.000000	0.263694
2097.000000	0.263655
2098.000000	0.263574
2099.000000	0.263881
2100.000000	0.264113
2101.000000	0.264153
2102.000000	0.264330
2103.000000	0.264390
2104.000000	0.264255
2105.000000	0.264255
2106.000000	0.264234
2107.000000	0.264322
2108.000000	0.264499
2109.000000	0.264679
2110.000000	0.264741
2111.000000	0.264836
2112.000000	0.264957
2113.000000	0.264761
2114.000000	0.264616
2115.000000	0.264872
2116.000000	0.264949
2117.000000	0.264873
2118.000000	0.265126
2119.000000	0.265007
2120.000000	0.264893
2121.000000	0.264732
2122.000000	0.264662
2123.000000	0.264315
2124.000000	0.264329
2125.000000	0.264711
2126.000000	0.264872
2127.000000	0.265180
2128.000000	0.265436
2129.000000	0.265560
2130.000000	0.265565
2131.000000	0.265504
2132.000000	0.265535
2133.000000	0.265617
2134.000000	0.265851
2135.000000	0.265876
2136.000000	0.265787
2137.000000	0.265931
2138.000000	0.266106
2139.000000	0.266240
2140.000000	0.266665
2141.000000	0.266867
2142.000000	0.266856
2143.000000	0.266633
2144.000000	0.266416
2145.000000	0.266266
2146.000000	0.265881
2147.000000	0.266121
2148.000000	0.266288
2149.000000	0.266715
2150.000000	0.266966
2151.000000	0.266983
2152.000000	0.266925
2153.000000	0.266598
2154.000000	0.266486
2155.000000	0.266377
2156.000000	0.266401
2157.000000	0.266698
2158.000000	0.266751
2159.000000	0.266820
2160.000000	0.266933
2161.000000	0.266876
2162.000000	0.266965
2163.000000	0.267199
2164.000000	0.267157
2165.000000	0.266849
2166.000000	0.266758
2167.000000	0.266806
2168.000000	0.266877
2169.000000	0.267004
2170.000000	0.266931
2171.000000	0.266717
2172.000000	0.266068
2173.000000	0.265861
2174.000000	0.265724
2175.000000	0.265766
2176.000000	0.266045
2177.000000	0.266234
2178.000000	0.266656
2179.000000	0.266977
2180.000000	0.267260
2181.000000	0.267688
2182.000000	0.267715
2183.000000	0.267500
2184.000000	0.267580
2185.000000	0.267447
2186.000000	0.267337
2187.000000	0.267419
2188.000000	0.267336
2189.000000	0.267100
2190.000000	0.266798
2191.000000	0.266861
2192.000000	0.266568
2193.000000	0.266057
2194.000000	0.265623
2195.000000	0.264958
2196.000000	0.264744
2197.000000	0.264733
2198.000000	0.264695
2199.000000	0.265033
2200.000000	0.265374
2201.000000	0.265963
2202.000000	0.266349
2203.000000	0.266739
2204.000000	0.266720
2205.000000	0.266015
2206.000000	0.265346
2207.000000	0.265621
2208.000000	0.266031
2209.000000	0.265965
2210.000000	0.266348
2211.000000	0.265565
2212.000000	0.264882
2213.000000	0.264850
2214.000000	0.265284
2215.000000	0.265726
2216.000000	0.266797
2217.000000	0.267263
2218.000000	0.267575
2219.000000	0.267907
2220.000000	0.268171
2221.000000	0.268068
2222.000000	0.267772
2223.000000	0.267466
2224.000000	0.266463
2225.000000	0.266399
2226.000000	0.266493
2227.000000	0.266032
2228.000000	0.266685
2229.000000	0.266665
2230.000000	0.265947
2231.000000	0.266525
2232.000000	0.265951
2233.000000	0.265811
2234.000000	0.266967
2235.000000	0.267220
2236.000000	0.267032
2237.000000	0.266496
2238.000000	0.265957
2239.000000	0.264361
2240.000000	0.264142
2241.000000	0.265033
2242.000000	0.265042
2243.000000	0.265067
2244.000000	0.265088
2245.000000	0.264583
2246.000000	0.264434
2247.000000	0.264281
2248.000000	0.264687
2249.000000	0.265762
2250.000000	0.266137
2251.000000	0.266719
2252.000000	0.267290
2253.000000	0.266349
2254.000000	0.265268
2255.000000	0.264983
2256.000000	0.264564
2257.000000	0.265140
2258.000000	0.266365
2259.000000	0.267156
2260.000000	0.267833
2261.000000	0.267797
2262.000000	0.266839
2263.000000	0.266808
2264.000000	0.266688
2265.000000	0.266625
2266.000000	0.267392
2267.000000	0.267130
2268.000000	0.265774
2269.000000	0.265654
2270.000000	0.265706
2271.000000	0.265764
2272.000000	0.266919
2273.000000	0.267268
2274.000000	0.266749
2275.000000	0.266629
2276.000000	0.266798
2277.000000	0.266190
2278.000000	0.265333
2279.000000	0.265378
2280.000000	0.264691
2281.000000	0.264613
2282.000000	0.265348
2283.000000	0.265402
2284.000000	0.265145
2285.000000	0.264678
2286.000000	0.264413
2287.000000	0.264005
2288.000000	0.264649
2289.000000	0.265242
2290.000000	0.264368
2291.000000	0.264350
2292.000000	0.264046
2293.000000	0.263059
2294.000000	0.262615
2295.000000	0.262584
2296.000000	0.262349
2297.000000	0.262199
2298.000000	0.261914
2299.000000	0.261726
2300.000000	0.261363
2301.000000	0.260203
2302.000000	0.260073
2303.000000	0.260449
2304.000000	0.260514
2305.000000	0.261623
2306.000000	0.261844
2307.000000	0.260972
2308.000000	0.260979
2309.000000	0.261604
2310.000000	0.261484
2311.000000	0.262727
2312.000000	0.263546
2313.000000	0.262777
2314.000000	0.261931
2315.000000	0.261023
2316.000000	0.260394
2317.000000	0.260067
2318.000000	0.260619
2319.000000	0.260429
2320.000000	0.259198
2321.000000	0.259314
2322.000000	0.259119
2323.000000	0.259129
2324.000000	0.260750
2325.000000	0.261558
2326.000000	0.261764
2327.000000	0.261719
2328.000000	0.260965
2329.000000	0.260396
2330.000000	0.259713
2331.000000	0.259018
2332.000000	0.258185
2333.000000	0.258490
2334.000000	0.259172
2335.000000	0.259242
2336.000000	0.259364
2337.000000	0.258882
2338.000000	0.256725
2339.000000	0.255957
2340.000000	0.255920
2341.000000	0.255588
2342.000000	0.255589
2343.000000	0.255593
2344.000000	0.255311
2345.000000	0.255551
2346.000000	0.256434
2347.000000	0.256791
2348.000000	0.257586
2349.000000	0.257016
2350.000000	0.255298
2351.000000	0.254719
2352.000000	0.253703
2353.000000	0.254049
2354.000000	0.255609
2355.000000	0.256373
2356.000000	0.256554
2357.000000	0.256004
2358.000000	0.255298
2359.000000	0.254561
2360.000000	0.254391
2361.000000	0.254852
2362.000000	0.255005
2363.000000	0.254986
2364.000000	0.253509
2365.000000	0.252029
2366.000000	0.250396
2367.000000	0.249311
2368.000000	0.249855
2369.000000	0.250048
2370.000000	0.249663
2371.000000	0.250061
2372.000000	0.250716
2373.000000	0.251362
2374.000000	0.252243
2375.000000	0.252877
2376.000000	0.253921
2377.000000	0.253932
2378.000000	0.253638
2379.000000	0.253424
2380.000000	0.252274
2381.000000	0.250918
2382.000000	0.250667
2383.000000	0.250591
2384.000000	0.249198
2385.000000	0.249171
2386.000000	0.248466
2387.000000	0.245647
2388.000000	0.243184
2389.000000	0.241692
2390.000000	0.241617
2391.000000	0.241246
2392.000000	0.242966
2393.000000	0.245104
2394.000000	0.245284
2395.000000	0.248853
2396.000000	0.251552
2397.000000	0.250992
2398.000000	0.250511
2399.000000	0.247138
2400.000000	0.242165
2401.000000	0.239655
2402.000000	0.238757
2403.000000	0.239291
2404.000000	0.240833
2405.000000	0.241662
2406.000000	0.242484
2407.000000	0.242013
2408.000000	0.242223
2409.000000	0.243586
2410.000000	0.243189
2411.000000	0.243936
2412.000000	0.241804
2413.000000	0.237622
2414.000000	0.237677
2415.000000	0.237772
2416.000000	0.241023
2417.000000	0.247796
2418.000000	0.250605
2419.000000	0.251422
2420.000000	0.251779
2421.000000	0.248554
2422.000000	0.244620
2423.000000	0.244344
2424.000000	0.243105
2425.000000	0.241393
2426.000000	0.243386
2427.000000	0.244942
2428.000000	0.245027
2429.000000	0.247579
2430.000000	0.247682
2431.000000	0.242624
2432.000000	0.240944
2433.000000	0.239615
2434.000000	0.240081
2435.000000	0.243913
2436.000000	0.244221
2437.000000	0.246210
2438.000000	0.248251
2439.000000	0.248694
2440.000000	0.250623
2441.000000	0.246421
2442.000000	0.238986
2443.000000	0.235147
2444.000000	0.231413
2445.000000	0.231724
2446.000000	0.233585
2447.000000	0.234071
2448.000000	0.237017
2449.000000	0.240121
2450.000000	0.239787
2451.000000	0.238714
2452.000000	0.242610
2453.000000	0.243896
2454.000000	0.244105
2455.000000	0.244669
2456.000000	0.239081
2457.000000	0.235518
2458.000000	0.237240
2459.000000	0.239233
2460.000000	0.240403
2461.000000	0.241235
2462.000000	0.244268
2463.000000	0.243616
2464.000000	0.236167
2465.000000	0.235086
2466.000000	0.232221
2467.000000	0.232667
2468.000000	0.246804
2469.000000	0.245694
2470.000000	0.236771
2471.000000	0.232220
2472.000000	0.227528
2473.000000	0.220331
2474.000000	0.214018
2475.000000	0.218307
2476.000000	0.212248
2477.000000	0.216799
2478.000000	0.239931
2479.000000	0.242449
2480.000000	0.241258
2481.000000	0.243596
2482.000000	0.235537
2483.000000	0.225874
2484.000000	0.220488
2485.000000	0.213781
2486.000000	0.200223
2487.000000	0.188367
2488.000000	0.193423
2489.000000	0.203405
2490.000000	0.207717
2491.000000	0.209970
2492.000000	0.208845
2493.000000	0.205947
2494.000000	0.210729
2495.000000	0.228848
2496.000000	0.225927
2497.000000	0.197528
2498.000000	0.186680
2499.000000	0.182896
2500.000000	0.179746
