# Wavelength	hexa30_00001.asd.rts.txt
350.000000	0.201807
351.000000	0.204884
352.000000	0.205633
353.000000	0.206320
354.000000	0.208613
355.000000	0.204358
356.000000	0.202049
357.000000	0.203368
358.000000	0.202264
359.000000	0.202988
360.000000	0.204946
361.000000	0.206165
362.000000	0.205354
363.000000	0.207001
364.000000	0.211117
365.000000	0.207790
366.000000	0.205161
367.000000	0.205665
368.000000	0.207909
369.000000	0.208178
370.000000	0.207806
371.000000	0.209158
372.000000	0.208460
373.000000	0.208375
374.000000	0.210576
375.000000	0.210779
376.000000	0.211056
377.000000	0.211728
378.000000	0.211732
379.000000	0.212206
380.000000	0.213260
381.000000	0.215101
382.000000	0.214304
383.000000	0.213315
384.000000	0.214193
385.000000	0.215342
386.000000	0.216679
387.000000	0.217984
388.000000	0.218514
389.000000	0.218484
390.000000	0.217992
391.000000	0.217076
392.000000	0.218717
393.000000	0.220093
394.000000	0.219318
395.000000	0.220087
396.000000	0.220527
397.000000	0.220255
398.000000	0.221089
399.000000	0.221742
400.000000	0.222129
401.000000	0.222488
402.000000	0.222924
403.000000	0.223420
404.000000	0.223964
405.000000	0.223895
406.000000	0.224135
407.000000	0.225036
408.000000	0.225972
409.000000	0.226244
410.000000	0.226058
411.000000	0.226140
412.000000	0.226324
413.000000	0.226669
414.000000	0.227229
415.000000	0.227781
416.000000	0.228074
417.000000	0.228169
418.000000	0.228834
419.000000	0.229227
420.000000	0.229346
421.000000	0.229886
422.000000	0.230201
423.000000	0.230248
424.000000	0.230291
425.000000	0.230831
426.000000	0.231290
427.000000	0.231314
428.000000	0.231730
429.000000	0.232083
430.000000	0.232252
431.000000	0.232540
432.000000	0.232768
433.000000	0.232921
434.000000	0.233151
435.000000	0.233437
436.000000	0.233675
437.000000	0.233779
438.000000	0.233949
439.000000	0.234211
440.000000	0.234550
441.000000	0.234518
442.000000	0.234531
443.000000	0.234671
444.000000	0.234968
445.000000	0.235163
446.000000	0.235412
447.000000	0.235770
448.000000	0.236089
449.000000	0.236307
450.000000	0.236476
451.000000	0.236894
452.000000	0.237188
453.000000	0.237304
454.000000	0.237783
455.000000	0.237993
456.000000	0.238125
457.000000	0.238485
458.000000	0.238649
459.000000	0.238822
460.000000	0.239219
461.000000	0.239378
462.000000	0.239626
463.000000	0.239964
464.000000	0.240321
465.000000	0.240472
466.000000	0.240529
467.000000	0.240977
468.000000	0.241226
469.000000	0.241296
470.000000	0.241505
471.000000	0.241703
472.000000	0.241883
473.000000	0.242082
474.000000	0.242299
475.000000	0.242523
476.000000	0.242834
477.000000	0.243060
478.000000	0.243155
479.000000	0.243380
480.000000	0.243747
481.000000	0.243811
482.000000	0.243943
483.000000	0.244275
484.000000	0.244595
485.000000	0.244796
486.000000	0.244996
487.000000	0.245107
488.000000	0.245277
489.000000	0.245559
490.000000	0.245921
491.000000	0.246129
492.000000	0.246372
493.000000	0.246754
494.000000	0.246970
495.000000	0.247223
496.000000	0.247589
497.000000	0.247834
498.000000	0.248108
499.000000	0.248480
500.000000	0.248724
501.000000	0.248978
502.000000	0.249253
503.000000	0.249431
504.000000	0.249654
505.000000	0.249899
506.000000	0.250132
507.000000	0.250368
508.000000	0.250670
509.000000	0.251007
510.000000	0.251298
511.000000	0.251571
512.000000	0.251867
513.000000	0.252187
514.000000	0.252476
515.000000	0.252802
516.000000	0.253191
517.000000	0.253519
518.000000	0.253855
519.000000	0.254173
520.000000	0.254463
521.000000	0.254749
522.000000	0.255045
523.000000	0.255336
524.000000	0.255618
525.000000	0.255883
526.000000	0.256163
527.000000	0.256452
528.000000	0.256731
529.000000	0.257026
530.000000	0.257264
531.000000	0.257573
532.000000	0.257917
533.000000	0.258148
534.000000	0.258414
535.000000	0.258712
536.000000	0.258926
537.000000	0.259174
538.000000	0.259462
539.000000	0.259748
540.000000	0.260062
541.000000	0.260336
542.000000	0.260563
543.000000	0.260872
544.000000	0.261222
545.000000	0.261515
546.000000	0.261783
547.000000	0.262079
548.000000	0.262411
549.000000	0.262659
550.000000	0.262958
551.000000	0.263322
552.000000	0.263669
553.000000	0.263933
554.000000	0.264210
555.000000	0.264577
556.000000	0.264982
557.000000	0.265314
558.000000	0.265654
559.000000	0.265962
560.000000	0.266250
561.000000	0.266581
562.000000	0.266897
563.000000	0.267209
564.000000	0.267558
565.000000	0.267877
566.000000	0.268229
567.000000	0.268580
568.000000	0.268901
569.000000	0.269271
570.000000	0.269598
571.000000	0.269886
572.000000	0.270247
573.000000	0.270608
574.000000	0.270917
575.000000	0.271193
576.000000	0.271541
577.000000	0.271856
578.000000	0.272127
579.000000	0.272484
580.000000	0.272824
581.000000	0.273117
582.000000	0.273475
583.000000	0.273795
584.000000	0.274081
585.000000	0.274397
586.000000	0.274722
587.000000	0.275043
588.000000	0.275355
589.000000	0.275710
590.000000	0.276031
591.000000	0.276288
592.000000	0.276579
593.000000	0.276861
594.000000	0.277115
595.000000	0.277348
596.000000	0.277550
597.000000	0.277748
598.000000	0.277895
599.000000	0.278061
600.000000	0.278299
601.000000	0.278548
602.000000	0.278758
603.000000	0.278929
604.000000	0.279090
605.000000	0.279305
606.000000	0.279445
607.000000	0.279533
608.000000	0.279686
609.000000	0.279863
610.000000	0.280061
611.000000	0.280277
612.000000	0.280475
613.000000	0.280634
614.000000	0.280789
615.000000	0.280973
616.000000	0.281118
617.000000	0.281207
618.000000	0.281381
619.000000	0.281556
620.000000	0.281687
621.000000	0.281809
622.000000	0.281997
623.000000	0.282236
624.000000	0.282485
625.000000	0.282681
626.000000	0.282906
627.000000	0.283197
628.000000	0.283522
629.000000	0.283848
630.000000	0.284080
631.000000	0.284369
632.000000	0.284618
633.000000	0.284852
634.000000	0.285084
635.000000	0.285251
636.000000	0.285365
637.000000	0.285437
638.000000	0.285543
639.000000	0.285641
640.000000	0.285774
641.000000	0.285896
642.000000	0.286010
643.000000	0.286141
644.000000	0.286315
645.000000	0.286476
646.000000	0.286644
647.000000	0.286804
648.000000	0.286931
649.000000	0.287107
650.000000	0.287319
651.000000	0.287493
652.000000	0.287624
653.000000	0.287759
654.000000	0.287895
655.000000	0.288051
656.000000	0.288234
657.000000	0.288395
658.000000	0.288585
659.000000	0.288798
660.000000	0.289004
661.000000	0.289194
662.000000	0.289371
663.000000	0.289582
664.000000	0.289790
665.000000	0.289963
666.000000	0.290137
667.000000	0.290320
668.000000	0.290465
669.000000	0.290622
670.000000	0.290810
671.000000	0.290943
672.000000	0.291108
673.000000	0.291304
674.000000	0.291482
675.000000	0.291663
676.000000	0.291865
677.000000	0.292111
678.000000	0.292331
679.000000	0.292532
680.000000	0.292721
681.000000	0.292825
682.000000	0.292972
683.000000	0.293119
684.000000	0.293275
685.000000	0.293400
686.000000	0.293553
687.000000	0.293754
688.000000	0.293903
689.000000	0.294038
690.000000	0.294220
691.000000	0.294395
692.000000	0.294539
693.000000	0.294719
694.000000	0.294936
695.000000	0.295181
696.000000	0.295404
697.000000	0.295549
698.000000	0.295715
699.000000	0.295915
700.000000	0.296140
701.000000	0.296315
702.000000	0.296503
703.000000	0.296694
704.000000	0.296822
705.000000	0.296962
706.000000	0.297094
707.000000	0.297256
708.000000	0.297409
709.000000	0.297521
710.000000	0.297605
711.000000	0.297709
712.000000	0.297828
713.000000	0.297982
714.000000	0.298178
715.000000	0.298348
716.000000	0.298521
717.000000	0.298743
718.000000	0.298973
719.000000	0.299155
720.000000	0.299270
721.000000	0.299381
722.000000	0.299505
723.000000	0.299689
724.000000	0.299842
725.000000	0.299986
726.000000	0.300184
727.000000	0.300345
728.000000	0.300475
729.000000	0.300610
730.000000	0.300731
731.000000	0.300895
732.000000	0.301013
733.000000	0.301102
734.000000	0.301186
735.000000	0.301247
736.000000	0.301369
737.000000	0.301421
738.000000	0.301428
739.000000	0.301512
740.000000	0.301591
741.000000	0.301711
742.000000	0.301850
743.000000	0.301968
744.000000	0.302085
745.000000	0.302200
746.000000	0.302364
747.000000	0.302533
748.000000	0.302677
749.000000	0.302831
750.000000	0.302976
751.000000	0.303066
752.000000	0.303150
753.000000	0.303236
754.000000	0.303273
755.000000	0.303346
756.000000	0.303442
757.000000	0.303479
758.000000	0.303536
759.000000	0.303605
760.000000	0.303625
761.000000	0.303714
762.000000	0.303777
763.000000	0.303816
764.000000	0.303960
765.000000	0.304076
766.000000	0.304172
767.000000	0.304265
768.000000	0.304314
769.000000	0.304370
770.000000	0.304462
771.000000	0.304569
772.000000	0.304714
773.000000	0.304816
774.000000	0.304895
775.000000	0.304975
776.000000	0.305035
777.000000	0.305050
778.000000	0.305101
779.000000	0.305098
780.000000	0.305059
781.000000	0.305086
782.000000	0.305172
783.000000	0.305342
784.000000	0.305434
785.000000	0.305501
786.000000	0.305573
787.000000	0.305655
788.000000	0.305715
789.000000	0.305731
790.000000	0.305728
791.000000	0.305792
792.000000	0.305796
793.000000	0.305780
794.000000	0.305801
795.000000	0.305841
796.000000	0.305910
797.000000	0.305989
798.000000	0.306044
799.000000	0.306133
800.000000	0.306216
801.000000	0.306239
802.000000	0.306194
803.000000	0.306152
804.000000	0.306168
805.000000	0.306116
806.000000	0.306091
807.000000	0.306125
808.000000	0.306082
809.000000	0.306122
810.000000	0.306140
811.000000	0.306064
812.000000	0.306103
813.000000	0.306220
814.000000	0.306338
815.000000	0.306357
816.000000	0.306362
817.000000	0.306358
818.000000	0.306267
819.000000	0.306274
820.000000	0.306282
821.000000	0.306216
822.000000	0.306202
823.000000	0.306237
824.000000	0.306254
825.000000	0.306293
826.000000	0.306357
827.000000	0.306386
828.000000	0.306391
829.000000	0.306381
830.000000	0.306291
831.000000	0.306185
832.000000	0.306035
833.000000	0.305905
834.000000	0.305829
835.000000	0.305835
836.000000	0.305819
837.000000	0.305817
838.000000	0.305838
839.000000	0.305828
840.000000	0.305772
841.000000	0.305724
842.000000	0.305687
843.000000	0.305619
844.000000	0.305601
845.000000	0.305618
846.000000	0.305629
847.000000	0.305597
848.000000	0.305523
849.000000	0.305454
850.000000	0.305359
851.000000	0.305295
852.000000	0.305324
853.000000	0.305404
854.000000	0.305359
855.000000	0.305300
856.000000	0.305219
857.000000	0.305036
858.000000	0.304904
859.000000	0.304810
860.000000	0.304711
861.000000	0.304652
862.000000	0.304650
863.000000	0.304627
864.000000	0.304552
865.000000	0.304471
866.000000	0.304440
867.000000	0.304451
868.000000	0.304410
869.000000	0.304256
870.000000	0.304074
871.000000	0.303913
872.000000	0.303761
873.000000	0.303560
874.000000	0.303398
875.000000	0.303227
876.000000	0.303084
877.000000	0.302957
878.000000	0.302744
879.000000	0.302641
880.000000	0.302581
881.000000	0.302446
882.000000	0.302267
883.000000	0.302058
884.000000	0.301785
885.000000	0.301605
886.000000	0.301424
887.000000	0.301226
888.000000	0.301105
889.000000	0.301031
890.000000	0.300822
891.000000	0.300518
892.000000	0.300369
893.000000	0.300198
894.000000	0.300011
895.000000	0.299767
896.000000	0.299516
897.000000	0.299342
898.000000	0.299298
899.000000	0.299179
900.000000	0.299071
901.000000	0.298977
902.000000	0.298901
903.000000	0.298807
904.000000	0.298713
905.000000	0.298538
906.000000	0.298307
907.000000	0.298053
908.000000	0.297824
909.000000	0.297501
910.000000	0.297232
911.000000	0.297005
912.000000	0.296795
913.000000	0.296616
914.000000	0.296405
915.000000	0.296220
916.000000	0.296035
917.000000	0.295760
918.000000	0.295461
919.000000	0.295198
920.000000	0.295040
921.000000	0.294856
922.000000	0.294673
923.000000	0.294547
924.000000	0.294304
925.000000	0.294052
926.000000	0.293877
927.000000	0.293657
928.000000	0.293375
929.000000	0.293107
930.000000	0.292926
931.000000	0.292634
932.000000	0.292398
933.000000	0.292237
934.000000	0.291893
935.000000	0.291590
936.000000	0.291352
937.000000	0.291055
938.000000	0.290730
939.000000	0.290536
940.000000	0.290362
941.000000	0.290109
942.000000	0.289899
943.000000	0.289742
944.000000	0.289522
945.000000	0.289358
946.000000	0.289133
947.000000	0.288909
948.000000	0.288685
949.000000	0.288281
950.000000	0.287940
951.000000	0.287687
952.000000	0.287436
953.000000	0.287244
954.000000	0.287026
955.000000	0.286666
956.000000	0.286298
957.000000	0.286039
958.000000	0.285863
959.000000	0.285776
960.000000	0.285616
961.000000	0.285417
962.000000	0.285223
963.000000	0.285114
964.000000	0.284825
965.000000	0.284541
966.000000	0.284344
967.000000	0.284241
968.000000	0.284070
969.000000	0.283793
970.000000	0.283552
971.000000	0.283173
972.000000	0.282880
973.000000	0.282664
974.000000	0.282388
975.000000	0.282144
976.000000	0.281976
977.000000	0.281855
978.000000	0.281615
979.000000	0.281485
980.000000	0.281245
981.000000	0.280991
982.000000	0.280848
983.000000	0.280632
984.000000	0.280377
985.000000	0.280206
986.000000	0.279945
987.000000	0.279754
988.000000	0.279618
989.000000	0.279409
990.000000	0.279145
991.000000	0.278946
992.000000	0.278957
993.000000	0.278999
994.000000	0.278831
995.000000	0.278565
996.000000	0.278216
997.000000	0.278143
998.000000	0.278024
999.000000	0.277822
1000.000000	0.277803
1001.000000	0.278127
1002.000000	0.277886
1003.000000	0.277636
1004.000000	0.277436
1005.000000	0.277152
1006.000000	0.276778
1007.000000	0.276462
1008.000000	0.276335
1009.000000	0.275853
1010.000000	0.275463
1011.000000	0.275691
1012.000000	0.275778
1013.000000	0.275611
1014.000000	0.275819
1015.000000	0.275792
1016.000000	0.275635
1017.000000	0.275627
1018.000000	0.275603
1019.000000	0.275653
1020.000000	0.275962
1021.000000	0.275764
1022.000000	0.275564
1023.000000	0.275563
1024.000000	0.275273
1025.000000	0.275178
1026.000000	0.275299
1027.000000	0.275213
1028.000000	0.275006
1029.000000	0.274805
1030.000000	0.274722
1031.000000	0.274773
1032.000000	0.274930
1033.000000	0.275030
1034.000000	0.275090
1035.000000	0.275063
1036.000000	0.275060
1037.000000	0.275046
1038.000000	0.275009
1039.000000	0.275032
1040.000000	0.275107
1041.000000	0.275080
1042.000000	0.274975
1043.000000	0.275104
1044.000000	0.275367
1045.000000	0.275494
1046.000000	0.275703
1047.000000	0.275910
1048.000000	0.275948
1049.000000	0.275982
1050.000000	0.276131
1051.000000	0.276230
1052.000000	0.276102
1053.000000	0.276169
1054.000000	0.276602
1055.000000	0.276852
1056.000000	0.277153
1057.000000	0.277387
1058.000000	0.277294
1059.000000	0.277072
1060.000000	0.277312
1061.000000	0.277621
1062.000000	0.277885
1063.000000	0.278286
1064.000000	0.278453
1065.000000	0.278136
1066.000000	0.278262
1067.000000	0.278606
1068.000000	0.278757
1069.000000	0.278855
1070.000000	0.279064
1071.000000	0.279267
1072.000000	0.279488
1073.000000	0.279882
1074.000000	0.280344
1075.000000	0.280521
1076.000000	0.280622
1077.000000	0.280619
1078.000000	0.280591
1079.000000	0.280668
1080.000000	0.280741
1081.000000	0.280985
1082.000000	0.281512
1083.000000	0.281838
1084.000000	0.282284
1085.000000	0.282579
1086.000000	0.282638
1087.000000	0.282851
1088.000000	0.283022
1089.000000	0.283182
1090.000000	0.283383
1091.000000	0.283510
1092.000000	0.283526
1093.000000	0.283648
1094.000000	0.283800
1095.000000	0.283832
1096.000000	0.284130
1097.000000	0.284706
1098.000000	0.285006
1099.000000	0.285275
1100.000000	0.285544
1101.000000	0.285607
1102.000000	0.285740
1103.000000	0.285865
1104.000000	0.286093
1105.000000	0.286401
1106.000000	0.286616
1107.000000	0.286791
1108.000000	0.286993
1109.000000	0.287257
1110.000000	0.287373
1111.000000	0.287524
1112.000000	0.287721
1113.000000	0.287949
1114.000000	0.288154
1115.000000	0.288318
1116.000000	0.288554
1117.000000	0.288725
1118.000000	0.288720
1119.000000	0.288823
1120.000000	0.289103
1121.000000	0.289178
1122.000000	0.289179
1123.000000	0.289423
1124.000000	0.289406
1125.000000	0.289553
1126.000000	0.289943
1127.000000	0.290114
1128.000000	0.290206
1129.000000	0.290244
1130.000000	0.290360
1131.000000	0.290425
1132.000000	0.290465
1133.000000	0.290625
1134.000000	0.290709
1135.000000	0.290568
1136.000000	0.290632
1137.000000	0.290848
1138.000000	0.290916
1139.000000	0.291047
1140.000000	0.291236
1141.000000	0.291376
1142.000000	0.291472
1143.000000	0.291478
1144.000000	0.291663
1145.000000	0.291734
1146.000000	0.291740
1147.000000	0.291786
1148.000000	0.291796
1149.000000	0.291898
1150.000000	0.292007
1151.000000	0.292157
1152.000000	0.292389
1153.000000	0.292537
1154.000000	0.292601
1155.000000	0.292661
1156.000000	0.292706
1157.000000	0.292769
1158.000000	0.292793
1159.000000	0.292796
1160.000000	0.292793
1161.000000	0.292756
1162.000000	0.292675
1163.000000	0.292785
1164.000000	0.292739
1165.000000	0.292763
1166.000000	0.292786
1167.000000	0.292774
1168.000000	0.292733
1169.000000	0.292715
1170.000000	0.292719
1171.000000	0.292757
1172.000000	0.292798
1173.000000	0.292837
1174.000000	0.292858
1175.000000	0.292833
1176.000000	0.292785
1177.000000	0.292790
1178.000000	0.292795
1179.000000	0.292761
1180.000000	0.292721
1181.000000	0.292798
1182.000000	0.292814
1183.000000	0.292839
1184.000000	0.292893
1185.000000	0.292883
1186.000000	0.292814
1187.000000	0.292795
1188.000000	0.292776
1189.000000	0.292720
1190.000000	0.292723
1191.000000	0.292688
1192.000000	0.292671
1193.000000	0.292765
1194.000000	0.292794
1195.000000	0.292847
1196.000000	0.292930
1197.000000	0.292955
1198.000000	0.292956
1199.000000	0.292978
1200.000000	0.292975
1201.000000	0.292958
1202.000000	0.292975
1203.000000	0.293019
1204.000000	0.292999
1205.000000	0.292930
1206.000000	0.292833
1207.000000	0.292763
1208.000000	0.292662
1209.000000	0.292581
1210.000000	0.292528
1211.000000	0.292480
1212.000000	0.292416
1213.000000	0.292392
1214.000000	0.292386
1215.000000	0.292345
1216.000000	0.292338
1217.000000	0.292363
1218.000000	0.292358
1219.000000	0.292355
1220.000000	0.292411
1221.000000	0.292458
1222.000000	0.292427
1223.000000	0.292446
1224.000000	0.292462
1225.000000	0.292405
1226.000000	0.292443
1227.000000	0.292460
1228.000000	0.292460
1229.000000	0.292411
1230.000000	0.292308
1231.000000	0.292214
1232.000000	0.292195
1233.000000	0.292232
1234.000000	0.292294
1235.000000	0.292320
1236.000000	0.292256
1237.000000	0.292276
1238.000000	0.292312
1239.000000	0.292297
1240.000000	0.292280
1241.000000	0.292238
1242.000000	0.292211
1243.000000	0.292166
1244.000000	0.292149
1245.000000	0.292215
1246.000000	0.292169
1247.000000	0.292179
1248.000000	0.292213
1249.000000	0.292187
1250.000000	0.292159
1251.000000	0.292125
1252.000000	0.292092
1253.000000	0.292081
1254.000000	0.292057
1255.000000	0.292043
1256.000000	0.291994
1257.000000	0.291930
1258.000000	0.291937
1259.000000	0.291881
1260.000000	0.291900
1261.000000	0.291943
1262.000000	0.291939
1263.000000	0.291951
1264.000000	0.291948
1265.000000	0.291914
1266.000000	0.291861
1267.000000	0.291785
1268.000000	0.291727
1269.000000	0.291589
1270.000000	0.291518
1271.000000	0.291463
1272.000000	0.291372
1273.000000	0.291386
1274.000000	0.291429
1275.000000	0.291417
1276.000000	0.291426
1277.000000	0.291462
1278.000000	0.291406
1279.000000	0.291352
1280.000000	0.291242
1281.000000	0.291147
1282.000000	0.291075
1283.000000	0.291071
1284.000000	0.291053
1285.000000	0.291040
1286.000000	0.291018
1287.000000	0.290997
1288.000000	0.291023
1289.000000	0.291004
1290.000000	0.290899
1291.000000	0.290830
1292.000000	0.290836
1293.000000	0.290848
1294.000000	0.290895
1295.000000	0.290979
1296.000000	0.291006
1297.000000	0.291010
1298.000000	0.291029
1299.000000	0.291075
1300.000000	0.291144
1301.000000	0.291145
1302.000000	0.291100
1303.000000	0.291136
1304.000000	0.291117
1305.000000	0.291120
1306.000000	0.291118
1307.000000	0.291200
1308.000000	0.291234
1309.000000	0.291196
1310.000000	0.291194
1311.000000	0.291234
1312.000000	0.291209
1313.000000	0.291175
1314.000000	0.291155
1315.000000	0.291086
1316.000000	0.291078
1317.000000	0.291111
1318.000000	0.291141
1319.000000	0.291127
1320.000000	0.291100
1321.000000	0.291023
1322.000000	0.290930
1323.000000	0.290918
1324.000000	0.290920
1325.000000	0.290877
1326.000000	0.290815
1327.000000	0.290718
1328.000000	0.290654
1329.000000	0.290535
1330.000000	0.290411
1331.000000	0.290333
1332.000000	0.290326
1333.000000	0.290227
1334.000000	0.290159
1335.000000	0.290141
1336.000000	0.290052
1337.000000	0.290003
1338.000000	0.289986
1339.000000	0.289974
1340.000000	0.289877
1341.000000	0.289812
1342.000000	0.289726
1343.000000	0.289618
1344.000000	0.289560
1345.000000	0.289451
1346.000000	0.289433
1347.000000	0.289343
1348.000000	0.289258
1349.000000	0.289196
1350.000000	0.289110
1351.000000	0.289017
1352.000000	0.288926
1353.000000	0.288818
1354.000000	0.288748
1355.000000	0.288688
1356.000000	0.288694
1357.000000	0.288635
1358.000000	0.288579
1359.000000	0.288562
1360.000000	0.288545
1361.000000	0.288592
1362.000000	0.288543
1363.000000	0.288407
1364.000000	0.288386
1365.000000	0.288321
1366.000000	0.288302
1367.000000	0.288370
1368.000000	0.288421
1369.000000	0.288463
1370.000000	0.288402
1371.000000	0.288330
1372.000000	0.288230
1373.000000	0.288153
1374.000000	0.288114
1375.000000	0.288063
1376.000000	0.288152
1377.000000	0.288196
1378.000000	0.288175
1379.000000	0.288124
1380.000000	0.288042
1381.000000	0.287925
1382.000000	0.287795
1383.000000	0.287761
1384.000000	0.287652
1385.000000	0.287541
1386.000000	0.287553
1387.000000	0.287524
1388.000000	0.287435
1389.000000	0.287380
1390.000000	0.287347
1391.000000	0.287232
1392.000000	0.287203
1393.000000	0.287150
1394.000000	0.287126
1395.000000	0.287060
1396.000000	0.287005
1397.000000	0.286881
1398.000000	0.286659
1399.000000	0.286487
1400.000000	0.286306
1401.000000	0.286085
1402.000000	0.285879
1403.000000	0.285675
1404.000000	0.285521
1405.000000	0.285335
1406.000000	0.285180
1407.000000	0.285021
1408.000000	0.284747
1409.000000	0.284538
1410.000000	0.284394
1411.000000	0.284198
1412.000000	0.284023
1413.000000	0.283865
1414.000000	0.283612
1415.000000	0.283375
1416.000000	0.283132
1417.000000	0.282795
1418.000000	0.282407
1419.000000	0.282104
1420.000000	0.281767
1421.000000	0.281503
1422.000000	0.281247
1423.000000	0.280944
1424.000000	0.280533
1425.000000	0.280122
1426.000000	0.279735
1427.000000	0.279397
1428.000000	0.279055
1429.000000	0.278718
1430.000000	0.278410
1431.000000	0.278094
1432.000000	0.277779
1433.000000	0.277511
1434.000000	0.277245
1435.000000	0.277066
1436.000000	0.276848
1437.000000	0.276649
1438.000000	0.276375
1439.000000	0.276054
1440.000000	0.275783
1441.000000	0.275529
1442.000000	0.275297
1443.000000	0.275048
1444.000000	0.274796
1445.000000	0.274510
1446.000000	0.274216
1447.000000	0.273955
1448.000000	0.273710
1449.000000	0.273497
1450.000000	0.273294
1451.000000	0.273111
1452.000000	0.272940
1453.000000	0.272771
1454.000000	0.272628
1455.000000	0.272515
1456.000000	0.272451
1457.000000	0.272448
1458.000000	0.272425
1459.000000	0.272383
1460.000000	0.272312
1461.000000	0.272183
1462.000000	0.272073
1463.000000	0.271918
1464.000000	0.271806
1465.000000	0.271752
1466.000000	0.271633
1467.000000	0.271588
1468.000000	0.271533
1469.000000	0.271452
1470.000000	0.271365
1471.000000	0.271325
1472.000000	0.271248
1473.000000	0.271245
1474.000000	0.271267
1475.000000	0.271244
1476.000000	0.271262
1477.000000	0.271310
1478.000000	0.271352
1479.000000	0.271401
1480.000000	0.271429
1481.000000	0.271414
1482.000000	0.271394
1483.000000	0.271404
1484.000000	0.271388
1485.000000	0.271404
1486.000000	0.271456
1487.000000	0.271479
1488.000000	0.271493
1489.000000	0.271553
1490.000000	0.271519
1491.000000	0.271539
1492.000000	0.271556
1493.000000	0.271607
1494.000000	0.271638
1495.000000	0.271682
1496.000000	0.271768
1497.000000	0.271833
1498.000000	0.271917
1499.000000	0.271953
1500.000000	0.272011
1501.000000	0.272039
1502.000000	0.272046
1503.000000	0.272128
1504.000000	0.272219
1505.000000	0.272347
1506.000000	0.272536
1507.000000	0.272686
1508.000000	0.272865
1509.000000	0.273005
1510.000000	0.273049
1511.000000	0.273170
1512.000000	0.273268
1513.000000	0.273325
1514.000000	0.273444
1515.000000	0.273483
1516.000000	0.273532
1517.000000	0.273553
1518.000000	0.273540
1519.000000	0.273512
1520.000000	0.273454
1521.000000	0.273403
1522.000000	0.273429
1523.000000	0.273480
1524.000000	0.273491
1525.000000	0.273538
1526.000000	0.273557
1527.000000	0.273576
1528.000000	0.273687
1529.000000	0.273749
1530.000000	0.273705
1531.000000	0.273772
1532.000000	0.273840
1533.000000	0.273866
1534.000000	0.274004
1535.000000	0.274140
1536.000000	0.274204
1537.000000	0.274373
1538.000000	0.274531
1539.000000	0.274578
1540.000000	0.274667
1541.000000	0.274803
1542.000000	0.274904
1543.000000	0.275020
1544.000000	0.275115
1545.000000	0.275142
1546.000000	0.275155
1547.000000	0.275166
1548.000000	0.275144
1549.000000	0.275085
1550.000000	0.275002
1551.000000	0.274931
1552.000000	0.274886
1553.000000	0.274855
1554.000000	0.274844
1555.000000	0.274838
1556.000000	0.274825
1557.000000	0.274798
1558.000000	0.274802
1559.000000	0.274780
1560.000000	0.274741
1561.000000	0.274728
1562.000000	0.274712
1563.000000	0.274705
1564.000000	0.274725
1565.000000	0.274787
1566.000000	0.274740
1567.000000	0.274743
1568.000000	0.274732
1569.000000	0.274723
1570.000000	0.274736
1571.000000	0.274761
1572.000000	0.274749
1573.000000	0.274735
1574.000000	0.274725
1575.000000	0.274735
1576.000000	0.274727
1577.000000	0.274696
1578.000000	0.274638
1579.000000	0.274581
1580.000000	0.274562
1581.000000	0.274628
1582.000000	0.274625
1583.000000	0.274621
1584.000000	0.274549
1585.000000	0.274450
1586.000000	0.274436
1587.000000	0.274452
1588.000000	0.274423
1589.000000	0.274430
1590.000000	0.274399
1591.000000	0.274317
1592.000000	0.274325
1593.000000	0.274415
1594.000000	0.274425
1595.000000	0.274495
1596.000000	0.274500
1597.000000	0.274463
1598.000000	0.274415
1599.000000	0.274374
1600.000000	0.274285
1601.000000	0.274206
1602.000000	0.274142
1603.000000	0.274115
1604.000000	0.274041
1605.000000	0.273959
1606.000000	0.273887
1607.000000	0.273837
1608.000000	0.273778
1609.000000	0.273786
1610.000000	0.273751
1611.000000	0.273696
1612.000000	0.273666
1613.000000	0.273734
1614.000000	0.273745
1615.000000	0.273804
1616.000000	0.273853
1617.000000	0.273846
1618.000000	0.273818
1619.000000	0.273750
1620.000000	0.273725
1621.000000	0.273696
1622.000000	0.273761
1623.000000	0.273889
1624.000000	0.273951
1625.000000	0.273902
1626.000000	0.273876
1627.000000	0.273842
1628.000000	0.273874
1629.000000	0.273945
1630.000000	0.274003
1631.000000	0.274031
1632.000000	0.274015
1633.000000	0.273963
1634.000000	0.273982
1635.000000	0.274048
1636.000000	0.274101
1637.000000	0.274226
1638.000000	0.274249
1639.000000	0.274259
1640.000000	0.274261
1641.000000	0.274307
1642.000000	0.274293
1643.000000	0.274275
1644.000000	0.274242
1645.000000	0.274151
1646.000000	0.274053
1647.000000	0.273992
1648.000000	0.273879
1649.000000	0.273786
1650.000000	0.273741
1651.000000	0.273725
1652.000000	0.273761
1653.000000	0.273810
1654.000000	0.273857
1655.000000	0.273882
1656.000000	0.273855
1657.000000	0.273861
1658.000000	0.273879
1659.000000	0.273978
1660.000000	0.274078
1661.000000	0.274120
1662.000000	0.274201
1663.000000	0.274280
1664.000000	0.274339
1665.000000	0.274410
1666.000000	0.274530
1667.000000	0.274573
1668.000000	0.274651
1669.000000	0.274762
1670.000000	0.274776
1671.000000	0.274840
1672.000000	0.274916
1673.000000	0.274924
1674.000000	0.275029
1675.000000	0.275163
1676.000000	0.275286
1677.000000	0.275394
1678.000000	0.275463
1679.000000	0.275511
1680.000000	0.275582
1681.000000	0.275699
1682.000000	0.275784
1683.000000	0.275906
1684.000000	0.276030
1685.000000	0.276085
1686.000000	0.276127
1687.000000	0.276190
1688.000000	0.276183
1689.000000	0.276161
1690.000000	0.276138
1691.000000	0.276195
1692.000000	0.276204
1693.000000	0.276246
1694.000000	0.276304
1695.000000	0.276359
1696.000000	0.276385
1697.000000	0.276364
1698.000000	0.276335
1699.000000	0.276347
1700.000000	0.276366
1701.000000	0.276450
1702.000000	0.276431
1703.000000	0.276398
1704.000000	0.276444
1705.000000	0.276456
1706.000000	0.276476
1707.000000	0.276506
1708.000000	0.276488
1709.000000	0.276463
1710.000000	0.276546
1711.000000	0.276597
1712.000000	0.276673
1713.000000	0.276702
1714.000000	0.276751
1715.000000	0.276760
1716.000000	0.276722
1717.000000	0.276696
1718.000000	0.276612
1719.000000	0.276546
1720.000000	0.276537
1721.000000	0.276512
1722.000000	0.276479
1723.000000	0.276475
1724.000000	0.276517
1725.000000	0.276548
1726.000000	0.276515
1727.000000	0.276504
1728.000000	0.276444
1729.000000	0.276342
1730.000000	0.276309
1731.000000	0.276327
1732.000000	0.276373
1733.000000	0.276451
1734.000000	0.276483
1735.000000	0.276526
1736.000000	0.276507
1737.000000	0.276553
1738.000000	0.276679
1739.000000	0.276743
1740.000000	0.276785
1741.000000	0.276808
1742.000000	0.276807
1743.000000	0.276880
1744.000000	0.276949
1745.000000	0.277027
1746.000000	0.277132
1747.000000	0.277229
1748.000000	0.277290
1749.000000	0.277359
1750.000000	0.277404
1751.000000	0.277570
1752.000000	0.277738
1753.000000	0.277758
1754.000000	0.277816
1755.000000	0.277838
1756.000000	0.277831
1757.000000	0.277828
1758.000000	0.277829
1759.000000	0.277767
1760.000000	0.277736
1761.000000	0.277698
1762.000000	0.277659
1763.000000	0.277658
1764.000000	0.277625
1765.000000	0.277510
1766.000000	0.277500
1767.000000	0.277452
1768.000000	0.277412
1769.000000	0.277542
1770.000000	0.277624
1771.000000	0.277622
1772.000000	0.277665
1773.000000	0.277696
1774.000000	0.277728
1775.000000	0.277820
1776.000000	0.277895
1777.000000	0.277925
1778.000000	0.277982
1779.000000	0.278056
1780.000000	0.278104
1781.000000	0.278097
1782.000000	0.278165
1783.000000	0.278284
1784.000000	0.278425
1785.000000	0.278535
1786.000000	0.278607
1787.000000	0.278780
1788.000000	0.278971
1789.000000	0.279071
1790.000000	0.279203
1791.000000	0.279245
1792.000000	0.279252
1793.000000	0.279329
1794.000000	0.279454
1795.000000	0.279540
1796.000000	0.279638
1797.000000	0.279711
1798.000000	0.279712
1799.000000	0.279722
1800.000000	0.279808
1801.000000	0.279999
1802.000000	0.279872
1803.000000	0.279371
1804.000000	0.279317
1805.000000	0.279403
1806.000000	0.279515
1807.000000	0.279932
1808.000000	0.280123
1809.000000	0.280360
1810.000000	0.280377
1811.000000	0.280254
1812.000000	0.279777
1813.000000	0.279732
1814.000000	0.279715
1815.000000	0.279842
1816.000000	0.280511
1817.000000	0.280574
1818.000000	0.280462
1819.000000	0.280316
1820.000000	0.280229
1821.000000	0.279702
1822.000000	0.279525
1823.000000	0.279448
1824.000000	0.279272
1825.000000	0.278922
1826.000000	0.278983
1827.000000	0.279002
1828.000000	0.279413
1829.000000	0.279790
1830.000000	0.279697
1831.000000	0.279700
1832.000000	0.279341
1833.000000	0.279299
1834.000000	0.279599
1835.000000	0.279594
1836.000000	0.279316
1837.000000	0.279227
1838.000000	0.279088
1839.000000	0.278717
1840.000000	0.278318
1841.000000	0.278388
1842.000000	0.278436
1843.000000	0.278399
1844.000000	0.278553
1845.000000	0.279082
1846.000000	0.279211
1847.000000	0.278974
1848.000000	0.278906
1849.000000	0.278736
1850.000000	0.278568
1851.000000	0.278494
1852.000000	0.278472
1853.000000	0.278457
1854.000000	0.278315
1855.000000	0.278197
1856.000000	0.278097
1857.000000	0.277801
1858.000000	0.277750
1859.000000	0.277505
1860.000000	0.277021
1861.000000	0.276819
1862.000000	0.276566
1863.000000	0.276272
1864.000000	0.276077
1865.000000	0.276199
1866.000000	0.276019
1867.000000	0.275721
1868.000000	0.275175
1869.000000	0.274630
1870.000000	0.273993
1871.000000	0.273441
1872.000000	0.273164
1873.000000	0.272981
1874.000000	0.273092
1875.000000	0.272856
1876.000000	0.272453
1877.000000	0.271704
1878.000000	0.270657
1879.000000	0.269937
1880.000000	0.269555
1881.000000	0.269170
1882.000000	0.268684
1883.000000	0.267964
1884.000000	0.267425
1885.000000	0.266595
1886.000000	0.265880
1887.000000	0.265316
1888.000000	0.264661
1889.000000	0.263867
1890.000000	0.262989
1891.000000	0.262204
1892.000000	0.261413
1893.000000	0.260704
1894.000000	0.260108
1895.000000	0.259149
1896.000000	0.258182
1897.000000	0.257210
1898.000000	0.256027
1899.000000	0.254929
1900.000000	0.253961
1901.000000	0.252953
1902.000000	0.252056
1903.000000	0.251114
1904.000000	0.250232
1905.000000	0.249496
1906.000000	0.248400
1907.000000	0.247089
1908.000000	0.245707
1909.000000	0.244473
1910.000000	0.243167
1911.000000	0.242151
1912.000000	0.241121
1913.000000	0.240080
1914.000000	0.239226
1915.000000	0.238372
1916.000000	0.237794
1917.000000	0.237064
1918.000000	0.236531
1919.000000	0.235851
1920.000000	0.234988
1921.000000	0.234005
1922.000000	0.233074
1923.000000	0.232282
1924.000000	0.231484
1925.000000	0.230733
1926.000000	0.230194
1927.000000	0.229719
1928.000000	0.229177
1929.000000	0.228740
1930.000000	0.228322
1931.000000	0.227837
1932.000000	0.227518
1933.000000	0.227392
1934.000000	0.227459
1935.000000	0.227512
1936.000000	0.227354
1937.000000	0.227061
1938.000000	0.226577
1939.000000	0.226271
1940.000000	0.225984
1941.000000	0.225848
1942.000000	0.225774
1943.000000	0.225800
1944.000000	0.225683
1945.000000	0.225549
1946.000000	0.225464
1947.000000	0.225329
1948.000000	0.225071
1949.000000	0.224865
1950.000000	0.224866
1951.000000	0.224724
1952.000000	0.224597
1953.000000	0.224585
1954.000000	0.224624
1955.000000	0.224302
1956.000000	0.224054
1957.000000	0.224033
1958.000000	0.223876
1959.000000	0.223923
1960.000000	0.224148
1961.000000	0.224136
1962.000000	0.224069
1963.000000	0.223995
1964.000000	0.223993
1965.000000	0.223682
1966.000000	0.223397
1967.000000	0.223403
1968.000000	0.223368
1969.000000	0.223470
1970.000000	0.223749
1971.000000	0.223942
1972.000000	0.224080
1973.000000	0.223972
1974.000000	0.223681
1975.000000	0.223645
1976.000000	0.223639
1977.000000	0.223523
1978.000000	0.223565
1979.000000	0.223657
1980.000000	0.223582
1981.000000	0.223715
1982.000000	0.223896
1983.000000	0.224356
1984.000000	0.224576
1985.000000	0.224742
1986.000000	0.224755
1987.000000	0.224767
1988.000000	0.224541
1989.000000	0.224393
1990.000000	0.224623
1991.000000	0.224768
1992.000000	0.225174
1993.000000	0.225683
1994.000000	0.226057
1995.000000	0.226445
1996.000000	0.226717
1997.000000	0.226923
1998.000000	0.227023
1999.000000	0.227204
2000.000000	0.227406
2001.000000	0.227514
2002.000000	0.227591
2003.000000	0.227731
2004.000000	0.227918
2005.000000	0.227988
2006.000000	0.228211
2007.000000	0.228412
2008.000000	0.228603
2009.000000	0.228724
2010.000000	0.229052
2011.000000	0.229252
2012.000000	0.229598
2013.000000	0.230148
2014.000000	0.230461
2015.000000	0.230769
2016.000000	0.231225
2017.000000	0.231308
2018.000000	0.231191
2019.000000	0.231262
2020.000000	0.231404
2021.000000	0.231651
2022.000000	0.232127
2023.000000	0.232516
2024.000000	0.232957
2025.000000	0.233397
2026.000000	0.233786
2027.000000	0.234070
2028.000000	0.234311
2029.000000	0.234387
2030.000000	0.234507
2031.000000	0.234642
2032.000000	0.234859
2033.000000	0.235282
2034.000000	0.235603
2035.000000	0.236003
2036.000000	0.236253
2037.000000	0.236612
2038.000000	0.236934
2039.000000	0.237227
2040.000000	0.237574
2041.000000	0.237925
2042.000000	0.238238
2043.000000	0.238482
2044.000000	0.238782
2045.000000	0.238924
2046.000000	0.238898
2047.000000	0.239138
2048.000000	0.239424
2049.000000	0.239734
2050.000000	0.239898
2051.000000	0.240101
2052.000000	0.240255
2053.000000	0.240257
2054.000000	0.240382
2055.000000	0.240668
2056.000000	0.240700
2057.000000	0.240790
2058.000000	0.241010
2059.000000	0.241290
2060.000000	0.241443
2061.000000	0.241486
2062.000000	0.241577
2063.000000	0.241618
2064.000000	0.241701
2065.000000	0.242145
2066.000000	0.242335
2067.000000	0.242615
2068.000000	0.243022
2069.000000	0.243277
2070.000000	0.243536
2071.000000	0.243773
2072.000000	0.243878
2073.000000	0.244170
2074.000000	0.244271
2075.000000	0.244374
2076.000000	0.244510
2077.000000	0.244623
2078.000000	0.244601
2079.000000	0.244682
2080.000000	0.244765
2081.000000	0.244977
2082.000000	0.245269
2083.000000	0.245651
2084.000000	0.246042
2085.000000	0.246627
2086.000000	0.246928
2087.000000	0.246994
2088.000000	0.247072
2089.000000	0.247047
2090.000000	0.247152
2091.000000	0.247286
2092.000000	0.247561
2093.000000	0.248109
2094.000000	0.248397
2095.000000	0.248769
2096.000000	0.249075
2097.000000	0.249108
2098.000000	0.249142
2099.000000	0.249385
2100.000000	0.249516
2101.000000	0.249980
2102.000000	0.250198
2103.000000	0.250403
2104.000000	0.250866
2105.000000	0.251046
2106.000000	0.250961
2107.000000	0.251167
2108.000000	0.251352
2109.000000	0.251559
2110.000000	0.251832
2111.000000	0.252108
2112.000000	0.252297
2113.000000	0.252275
2114.000000	0.252683
2115.000000	0.252542
2116.000000	0.252422
2117.000000	0.252382
2118.000000	0.252217
2119.000000	0.252318
2120.000000	0.252583
2121.000000	0.253198
2122.000000	0.253494
2123.000000	0.253748
2124.000000	0.254067
2125.000000	0.254255
2126.000000	0.254422
2127.000000	0.254839
2128.000000	0.255150
2129.000000	0.255138
2130.000000	0.255340
2131.000000	0.255440
2132.000000	0.255482
2133.000000	0.255637
2134.000000	0.255810
2135.000000	0.255946
2136.000000	0.255878
2137.000000	0.255872
2138.000000	0.255749
2139.000000	0.255770
2140.000000	0.255877
2141.000000	0.256043
2142.000000	0.256287
2143.000000	0.256232
2144.000000	0.256273
2145.000000	0.256286
2146.000000	0.256158
2147.000000	0.256492
2148.000000	0.256353
2149.000000	0.256567
2150.000000	0.256556
2151.000000	0.256385
2152.000000	0.256543
2153.000000	0.256425
2154.000000	0.256501
2155.000000	0.256781
2156.000000	0.256869
2157.000000	0.257038
2158.000000	0.257054
2159.000000	0.256839
2160.000000	0.256888
2161.000000	0.257018
2162.000000	0.257105
2163.000000	0.257221
2164.000000	0.257220
2165.000000	0.257029
2166.000000	0.256967
2167.000000	0.256928
2168.000000	0.256979
2169.000000	0.257107
2170.000000	0.256974
2171.000000	0.256922
2172.000000	0.256837
2173.000000	0.256838
2174.000000	0.256929
2175.000000	0.256863
2176.000000	0.256609
2177.000000	0.256771
2178.000000	0.257065
2179.000000	0.257478
2180.000000	0.258469
2181.000000	0.259116
2182.000000	0.259101
2183.000000	0.259056
2184.000000	0.258984
2185.000000	0.258704
2186.000000	0.258321
2187.000000	0.258217
2188.000000	0.258055
2189.000000	0.257623
2190.000000	0.257475
2191.000000	0.257404
2192.000000	0.257213
2193.000000	0.256859
2194.000000	0.256743
2195.000000	0.256788
2196.000000	0.256959
2197.000000	0.257527
2198.000000	0.257671
2199.000000	0.257735
2200.000000	0.257797
2201.000000	0.257358
2202.000000	0.257433
2203.000000	0.258092
2204.000000	0.257713
2205.000000	0.257618
2206.000000	0.257954
2207.000000	0.257332
2208.000000	0.257798
2209.000000	0.258210
2210.000000	0.258031
2211.000000	0.257801
2212.000000	0.257623
2213.000000	0.257845
2214.000000	0.258152
2215.000000	0.258509
2216.000000	0.259879
2217.000000	0.259752
2218.000000	0.258224
2219.000000	0.258080
2220.000000	0.258029
2221.000000	0.257818
2222.000000	0.258334
2223.000000	0.258440
2224.000000	0.257652
2225.000000	0.257862
2226.000000	0.258061
2227.000000	0.258252
2228.000000	0.258274
2229.000000	0.257009
2230.000000	0.255860
2231.000000	0.255450
2232.000000	0.254814
2233.000000	0.255493
2234.000000	0.256986
2235.000000	0.257819
2236.000000	0.258580
2237.000000	0.259719
2238.000000	0.259798
2239.000000	0.259014
2240.000000	0.258770
2241.000000	0.258000
2242.000000	0.257967
2243.000000	0.258402
2244.000000	0.258670
2245.000000	0.259442
2246.000000	0.259529
2247.000000	0.258892
2248.000000	0.258683
2249.000000	0.258203
2250.000000	0.258376
2251.000000	0.258798
2252.000000	0.259571
2253.000000	0.259450
2254.000000	0.259117
2255.000000	0.259027
2256.000000	0.258949
2257.000000	0.259726
2258.000000	0.260181
2259.000000	0.260134
2260.000000	0.260639
2261.000000	0.260109
2262.000000	0.258714
2263.000000	0.258018
2264.000000	0.256797
2265.000000	0.256109
2266.000000	0.256399
2267.000000	0.256269
2268.000000	0.255982
2269.000000	0.255859
2270.000000	0.255647
2271.000000	0.255373
2272.000000	0.255011
2273.000000	0.254997
2274.000000	0.255064
2275.000000	0.255333
2276.000000	0.256171
2277.000000	0.256302
2278.000000	0.256439
2279.000000	0.256609
2280.000000	0.256136
2281.000000	0.256281
2282.000000	0.256518
2283.000000	0.256103
2284.000000	0.256311
2285.000000	0.256246
2286.000000	0.256020
2287.000000	0.256759
2288.000000	0.257268
2289.000000	0.257284
2290.000000	0.256527
2291.000000	0.255904
2292.000000	0.255271
2293.000000	0.253758
2294.000000	0.252987
2295.000000	0.252538
2296.000000	0.252191
2297.000000	0.252112
2298.000000	0.252453
2299.000000	0.253378
2300.000000	0.253652
2301.000000	0.254000
2302.000000	0.253699
2303.000000	0.252544
2304.000000	0.251978
2305.000000	0.251412
2306.000000	0.250987
2307.000000	0.250719
2308.000000	0.250572
2309.000000	0.250578
2310.000000	0.250109
2311.000000	0.250107
2312.000000	0.250007
2313.000000	0.249438
2314.000000	0.249220
2315.000000	0.248683
2316.000000	0.248346
2317.000000	0.248488
2318.000000	0.248848
2319.000000	0.249552
2320.000000	0.250302
2321.000000	0.250592
2322.000000	0.250004
2323.000000	0.248471
2324.000000	0.247022
2325.000000	0.246233
2326.000000	0.245667
2327.000000	0.245413
2328.000000	0.245522
2329.000000	0.245234
2330.000000	0.244389
2331.000000	0.244121
2332.000000	0.244350
2333.000000	0.245048
2334.000000	0.245263
2335.000000	0.245070
2336.000000	0.243973
2337.000000	0.243250
2338.000000	0.241837
2339.000000	0.241310
2340.000000	0.241405
2341.000000	0.241126
2342.000000	0.240784
2343.000000	0.240947
2344.000000	0.241600
2345.000000	0.241830
2346.000000	0.242483
2347.000000	0.242114
2348.000000	0.240903
2349.000000	0.240102
2350.000000	0.238285
2351.000000	0.236800
2352.000000	0.235785
2353.000000	0.235814
2354.000000	0.236287
2355.000000	0.237453
2356.000000	0.239254
2357.000000	0.237948
2358.000000	0.235982
2359.000000	0.235236
2360.000000	0.233784
2361.000000	0.234133
2362.000000	0.234919
2363.000000	0.235253
2364.000000	0.234310
2365.000000	0.232813
2366.000000	0.232865
2367.000000	0.232158
2368.000000	0.232643
2369.000000	0.233332
2370.000000	0.232598
2371.000000	0.232778
2372.000000	0.232744
2373.000000	0.233198
2374.000000	0.233586
2375.000000	0.233495
2376.000000	0.233791
2377.000000	0.232828
2378.000000	0.232826
2379.000000	0.233478
2380.000000	0.231955
2381.000000	0.230696
2382.000000	0.228495
2383.000000	0.226012
2384.000000	0.225759
2385.000000	0.226144
2386.000000	0.226852
2387.000000	0.227539
2388.000000	0.227917
2389.000000	0.226946
2390.000000	0.225310
2391.000000	0.222885
2392.000000	0.219469
2393.000000	0.218421
2394.000000	0.220411
2395.000000	0.221778
2396.000000	0.224026
2397.000000	0.226431
2398.000000	0.225032
2399.000000	0.225389
2400.000000	0.225030
2401.000000	0.222965
2402.000000	0.222120
2403.000000	0.219161
2404.000000	0.216858
2405.000000	0.215090
2406.000000	0.215998
2407.000000	0.218076
2408.000000	0.219323
2409.000000	0.222421
2410.000000	0.219941
2411.000000	0.216182
2412.000000	0.214259
2413.000000	0.210104
2414.000000	0.210298
2415.000000	0.213551
2416.000000	0.217519
2417.000000	0.220177
2418.000000	0.217691
2419.000000	0.214990
2420.000000	0.212844
2421.000000	0.209833
2422.000000	0.210421
2423.000000	0.214160
2424.000000	0.214109
2425.000000	0.215151
2426.000000	0.217986
2427.000000	0.215936
2428.000000	0.217379
2429.000000	0.221438
2430.000000	0.221380
2431.000000	0.222718
2432.000000	0.222511
2433.000000	0.216641
2434.000000	0.212669
2435.000000	0.210186
2436.000000	0.209142
2437.000000	0.215332
2438.000000	0.220727
2439.000000	0.221999
2440.000000	0.224549
2441.000000	0.222721
2442.000000	0.221496
2443.000000	0.225210
2444.000000	0.226945
2445.000000	0.230517
2446.000000	0.233289
2447.000000	0.231351
2448.000000	0.227392
2449.000000	0.220855
2450.000000	0.214270
2451.000000	0.212532
2452.000000	0.216152
2453.000000	0.215129
2454.000000	0.213301
2455.000000	0.214965
2456.000000	0.211706
2457.000000	0.214195
2458.000000	0.220084
2459.000000	0.222131
2460.000000	0.224542
2461.000000	0.223468
2462.000000	0.216880
2463.000000	0.205480
2464.000000	0.196229
2465.000000	0.189435
2466.000000	0.192586
2467.000000	0.206568
2468.000000	0.216466
2469.000000	0.219256
2470.000000	0.213850
2471.000000	0.197846
2472.000000	0.189200
2473.000000	0.189470
2474.000000	0.188813
2475.000000	0.202258
2476.000000	0.206047
2477.000000	0.203011
2478.000000	0.209850
2479.000000	0.204224
2480.000000	0.202641
2481.000000	0.195279
2482.000000	0.188259
2483.000000	0.191492
2484.000000	0.183867
2485.000000	0.192456
2486.000000	0.206878
2487.000000	0.209545
2488.000000	0.214470
2489.000000	0.219989
2490.000000	0.217417
2491.000000	0.224069
2492.000000	0.217333
2493.000000	0.202617
2494.000000	0.197971
2495.000000	0.184562
2496.000000	0.173478
2497.000000	0.164655
2498.000000	0.163517
2499.000000	0.173822
2500.000000	0.184175
