# Wavelength	hexa40_00002.asd.rts.txt
350.000000	0.193017
351.000000	0.204144
352.000000	0.205040
353.000000	0.200854
354.000000	0.198574
355.000000	0.199773
356.000000	0.201450
357.000000	0.202887
358.000000	0.201135
359.000000	0.199709
360.000000	0.199564
361.000000	0.200449
362.000000	0.201412
363.000000	0.203528
364.000000	0.206061
365.000000	0.205123
366.000000	0.205489
367.000000	0.207371
368.000000	0.207727
369.000000	0.208106
370.000000	0.208489
371.000000	0.208552
372.000000	0.208504
373.000000	0.210301
374.000000	0.213942
375.000000	0.212027
376.000000	0.209613
377.000000	0.209035
378.000000	0.210590
379.000000	0.211283
380.000000	0.211518
381.000000	0.213227
382.000000	0.213194
383.000000	0.213130
384.000000	0.214390
385.000000	0.214876
386.000000	0.216005
387.000000	0.217426
388.000000	0.216314
389.000000	0.216558
390.000000	0.217580
391.000000	0.217228
392.000000	0.217653
393.000000	0.218495
394.000000	0.219149
395.000000	0.219393
396.000000	0.219412
397.000000	0.219534
398.000000	0.220509
399.000000	0.221353
400.000000	0.221798
401.000000	0.221771
402.000000	0.222043
403.000000	0.222456
404.000000	0.222839
405.000000	0.222972
406.000000	0.223331
407.000000	0.224075
408.000000	0.224768
409.000000	0.225112
410.000000	0.225253
411.000000	0.225582
412.000000	0.226019
413.000000	0.226532
414.000000	0.227069
415.000000	0.227292
416.000000	0.227475
417.000000	0.227791
418.000000	0.228126
419.000000	0.228384
420.000000	0.228666
421.000000	0.229256
422.000000	0.229588
423.000000	0.229699
424.000000	0.229903
425.000000	0.230295
426.000000	0.230590
427.000000	0.230668
428.000000	0.231157
429.000000	0.231433
430.000000	0.231466
431.000000	0.232044
432.000000	0.232379
433.000000	0.232445
434.000000	0.232643
435.000000	0.232859
436.000000	0.233083
437.000000	0.233300
438.000000	0.233536
439.000000	0.233685
440.000000	0.233824
441.000000	0.234095
442.000000	0.234306
443.000000	0.234387
444.000000	0.234507
445.000000	0.234601
446.000000	0.234861
447.000000	0.235304
448.000000	0.235654
449.000000	0.235875
450.000000	0.236044
451.000000	0.236422
452.000000	0.236752
453.000000	0.236948
454.000000	0.237348
455.000000	0.237569
456.000000	0.237719
457.000000	0.237924
458.000000	0.238200
459.000000	0.238515
460.000000	0.238851
461.000000	0.239005
462.000000	0.239278
463.000000	0.239625
464.000000	0.239903
465.000000	0.240025
466.000000	0.240090
467.000000	0.240474
468.000000	0.240719
469.000000	0.240816
470.000000	0.241028
471.000000	0.241262
472.000000	0.241491
473.000000	0.241711
474.000000	0.241834
475.000000	0.242001
476.000000	0.242304
477.000000	0.242434
478.000000	0.242519
479.000000	0.242797
480.000000	0.243184
481.000000	0.243262
482.000000	0.243423
483.000000	0.243794
484.000000	0.244007
485.000000	0.244180
486.000000	0.244501
487.000000	0.244663
488.000000	0.244855
489.000000	0.245146
490.000000	0.245512
491.000000	0.245780
492.000000	0.246050
493.000000	0.246342
494.000000	0.246577
495.000000	0.246846
496.000000	0.247157
497.000000	0.247421
498.000000	0.247716
499.000000	0.248073
500.000000	0.248266
501.000000	0.248522
502.000000	0.248859
503.000000	0.249116
504.000000	0.249303
505.000000	0.249497
506.000000	0.249763
507.000000	0.250028
508.000000	0.250328
509.000000	0.250631
510.000000	0.250890
511.000000	0.251182
512.000000	0.251525
513.000000	0.251827
514.000000	0.252145
515.000000	0.252503
516.000000	0.252848
517.000000	0.253150
518.000000	0.253457
519.000000	0.253727
520.000000	0.253994
521.000000	0.254293
522.000000	0.254619
523.000000	0.254872
524.000000	0.255178
525.000000	0.255503
526.000000	0.255779
527.000000	0.256107
528.000000	0.256428
529.000000	0.256713
530.000000	0.256995
531.000000	0.257325
532.000000	0.257629
533.000000	0.257866
534.000000	0.258126
535.000000	0.258405
536.000000	0.258640
537.000000	0.258894
538.000000	0.259166
539.000000	0.259428
540.000000	0.259741
541.000000	0.260036
542.000000	0.260292
543.000000	0.260566
544.000000	0.260894
545.000000	0.261209
546.000000	0.261491
547.000000	0.261805
548.000000	0.262149
549.000000	0.262380
550.000000	0.262672
551.000000	0.263043
552.000000	0.263400
553.000000	0.263687
554.000000	0.263957
555.000000	0.264272
556.000000	0.264657
557.000000	0.264977
558.000000	0.265311
559.000000	0.265671
560.000000	0.265968
561.000000	0.266291
562.000000	0.266660
563.000000	0.266963
564.000000	0.267273
565.000000	0.267586
566.000000	0.267973
567.000000	0.268353
568.000000	0.268666
569.000000	0.268987
570.000000	0.269300
571.000000	0.269610
572.000000	0.269963
573.000000	0.270307
574.000000	0.270597
575.000000	0.270864
576.000000	0.271226
577.000000	0.271538
578.000000	0.271769
579.000000	0.272138
580.000000	0.272497
581.000000	0.272794
582.000000	0.273140
583.000000	0.273461
584.000000	0.273762
585.000000	0.274096
586.000000	0.274424
587.000000	0.274735
588.000000	0.275035
589.000000	0.275385
590.000000	0.275713
591.000000	0.275987
592.000000	0.276311
593.000000	0.276608
594.000000	0.276866
595.000000	0.277146
596.000000	0.277363
597.000000	0.277554
598.000000	0.277706
599.000000	0.277871
600.000000	0.278110
601.000000	0.278371
602.000000	0.278578
603.000000	0.278772
604.000000	0.278984
605.000000	0.279199
606.000000	0.279362
607.000000	0.279499
608.000000	0.279690
609.000000	0.279906
610.000000	0.280136
611.000000	0.280365
612.000000	0.280545
613.000000	0.280686
614.000000	0.280835
615.000000	0.280967
616.000000	0.281041
617.000000	0.281070
618.000000	0.281224
619.000000	0.281389
620.000000	0.281503
621.000000	0.281587
622.000000	0.281664
623.000000	0.281800
624.000000	0.282018
625.000000	0.282203
626.000000	0.282400
627.000000	0.282642
628.000000	0.282943
629.000000	0.283265
630.000000	0.283507
631.000000	0.283809
632.000000	0.284095
633.000000	0.284353
634.000000	0.284572
635.000000	0.284770
636.000000	0.284921
637.000000	0.285012
638.000000	0.285132
639.000000	0.285265
640.000000	0.285448
641.000000	0.285597
642.000000	0.285710
643.000000	0.285836
644.000000	0.286035
645.000000	0.286234
646.000000	0.286428
647.000000	0.286593
648.000000	0.286731
649.000000	0.286899
650.000000	0.287089
651.000000	0.287280
652.000000	0.287417
653.000000	0.287545
654.000000	0.287676
655.000000	0.287817
656.000000	0.287979
657.000000	0.288120
658.000000	0.288280
659.000000	0.288461
660.000000	0.288651
661.000000	0.288884
662.000000	0.289091
663.000000	0.289297
664.000000	0.289485
665.000000	0.289637
666.000000	0.289798
667.000000	0.289990
668.000000	0.290197
669.000000	0.290388
670.000000	0.290557
671.000000	0.290728
672.000000	0.290908
673.000000	0.291078
674.000000	0.291218
675.000000	0.291382
676.000000	0.291562
677.000000	0.291742
678.000000	0.291860
679.000000	0.292011
680.000000	0.292245
681.000000	0.292420
682.000000	0.292622
683.000000	0.292807
684.000000	0.293034
685.000000	0.293198
686.000000	0.293342
687.000000	0.293500
688.000000	0.293653
689.000000	0.293809
690.000000	0.294004
691.000000	0.294209
692.000000	0.294372
693.000000	0.294544
694.000000	0.294724
695.000000	0.294877
696.000000	0.295013
697.000000	0.295161
698.000000	0.295318
699.000000	0.295522
700.000000	0.295783
701.000000	0.295963
702.000000	0.296160
703.000000	0.296363
704.000000	0.296469
705.000000	0.296598
706.000000	0.296745
707.000000	0.296940
708.000000	0.297121
709.000000	0.297245
710.000000	0.297323
711.000000	0.297433
712.000000	0.297548
713.000000	0.297686
714.000000	0.297890
715.000000	0.298059
716.000000	0.298224
717.000000	0.298444
718.000000	0.298627
719.000000	0.298752
720.000000	0.298844
721.000000	0.298965
722.000000	0.299115
723.000000	0.299319
724.000000	0.299452
725.000000	0.299569
726.000000	0.299732
727.000000	0.299842
728.000000	0.299960
729.000000	0.300111
730.000000	0.300250
731.000000	0.300408
732.000000	0.300542
733.000000	0.300675
734.000000	0.300792
735.000000	0.300869
736.000000	0.300996
737.000000	0.301055
738.000000	0.301088
739.000000	0.301204
740.000000	0.301306
741.000000	0.301454
742.000000	0.301593
743.000000	0.301688
744.000000	0.301806
745.000000	0.301889
746.000000	0.302003
747.000000	0.302139
748.000000	0.302260
749.000000	0.302370
750.000000	0.302455
751.000000	0.302568
752.000000	0.302686
753.000000	0.302793
754.000000	0.302850
755.000000	0.302920
756.000000	0.303001
757.000000	0.303034
758.000000	0.303088
759.000000	0.303161
760.000000	0.303190
761.000000	0.303273
762.000000	0.303384
763.000000	0.303488
764.000000	0.303622
765.000000	0.303698
766.000000	0.303773
767.000000	0.303894
768.000000	0.303954
769.000000	0.304009
770.000000	0.304088
771.000000	0.304159
772.000000	0.304247
773.000000	0.304294
774.000000	0.304351
775.000000	0.304415
776.000000	0.304485
777.000000	0.304549
778.000000	0.304661
779.000000	0.304707
780.000000	0.304683
781.000000	0.304664
782.000000	0.304687
783.000000	0.304783
784.000000	0.304800
785.000000	0.304815
786.000000	0.304827
787.000000	0.304834
788.000000	0.304858
789.000000	0.304884
790.000000	0.304906
791.000000	0.304963
792.000000	0.304980
793.000000	0.304991
794.000000	0.305036
795.000000	0.305096
796.000000	0.305126
797.000000	0.305120
798.000000	0.305129
799.000000	0.305178
800.000000	0.305268
801.000000	0.305384
802.000000	0.305470
803.000000	0.305509
804.000000	0.305532
805.000000	0.305523
806.000000	0.305509
807.000000	0.305516
808.000000	0.305426
809.000000	0.305462
810.000000	0.305524
811.000000	0.305524
812.000000	0.305604
813.000000	0.305713
814.000000	0.305787
815.000000	0.305770
816.000000	0.305748
817.000000	0.305734
818.000000	0.305655
819.000000	0.305665
820.000000	0.305695
821.000000	0.305662
822.000000	0.305631
823.000000	0.305652
824.000000	0.305661
825.000000	0.305682
826.000000	0.305730
827.000000	0.305747
828.000000	0.305747
829.000000	0.305761
830.000000	0.305704
831.000000	0.305659
832.000000	0.305621
833.000000	0.305587
834.000000	0.305570
835.000000	0.305594
836.000000	0.305567
837.000000	0.305570
838.000000	0.305615
839.000000	0.305618
840.000000	0.305566
841.000000	0.305477
842.000000	0.305336
843.000000	0.305194
844.000000	0.305149
845.000000	0.305171
846.000000	0.305171
847.000000	0.305156
848.000000	0.305108
849.000000	0.305041
850.000000	0.304917
851.000000	0.304784
852.000000	0.304739
853.000000	0.304837
854.000000	0.304808
855.000000	0.304737
856.000000	0.304617
857.000000	0.304439
858.000000	0.304327
859.000000	0.304261
860.000000	0.304222
861.000000	0.304147
862.000000	0.304075
863.000000	0.304003
864.000000	0.303937
865.000000	0.303859
866.000000	0.303784
867.000000	0.303714
868.000000	0.303669
869.000000	0.303576
870.000000	0.303442
871.000000	0.303216
872.000000	0.303019
873.000000	0.302865
874.000000	0.302746
875.000000	0.302650
876.000000	0.302543
877.000000	0.302317
878.000000	0.302019
879.000000	0.301858
880.000000	0.301767
881.000000	0.301641
882.000000	0.301528
883.000000	0.301397
884.000000	0.301151
885.000000	0.301049
886.000000	0.300956
887.000000	0.300825
888.000000	0.300770
889.000000	0.300667
890.000000	0.300383
891.000000	0.300060
892.000000	0.299906
893.000000	0.299773
894.000000	0.299663
895.000000	0.299469
896.000000	0.299264
897.000000	0.299063
898.000000	0.298871
899.000000	0.298693
900.000000	0.298600
901.000000	0.298537
902.000000	0.298411
903.000000	0.298224
904.000000	0.298066
905.000000	0.297910
906.000000	0.297713
907.000000	0.297516
908.000000	0.297376
909.000000	0.297185
910.000000	0.296983
911.000000	0.296783
912.000000	0.296609
913.000000	0.296475
914.000000	0.296266
915.000000	0.296058
916.000000	0.295898
917.000000	0.295602
918.000000	0.295317
919.000000	0.295135
920.000000	0.294964
921.000000	0.294751
922.000000	0.294519
923.000000	0.294297
924.000000	0.294065
925.000000	0.293848
926.000000	0.293687
927.000000	0.293530
928.000000	0.293248
929.000000	0.292931
930.000000	0.292714
931.000000	0.292455
932.000000	0.292210
933.000000	0.292021
934.000000	0.291793
935.000000	0.291514
936.000000	0.291239
937.000000	0.290930
938.000000	0.290631
939.000000	0.290458
940.000000	0.290288
941.000000	0.290028
942.000000	0.289739
943.000000	0.289540
944.000000	0.289352
945.000000	0.289165
946.000000	0.288922
947.000000	0.288724
948.000000	0.288593
949.000000	0.288285
950.000000	0.287964
951.000000	0.287696
952.000000	0.287543
953.000000	0.287310
954.000000	0.286995
955.000000	0.286611
956.000000	0.286370
957.000000	0.286173
958.000000	0.285950
959.000000	0.285764
960.000000	0.285607
961.000000	0.285377
962.000000	0.285079
963.000000	0.284903
964.000000	0.284671
965.000000	0.284483
966.000000	0.284329
967.000000	0.284237
968.000000	0.283995
969.000000	0.283636
970.000000	0.283417
971.000000	0.283137
972.000000	0.282929
973.000000	0.282733
974.000000	0.282428
975.000000	0.282163
976.000000	0.281934
977.000000	0.281717
978.000000	0.281534
979.000000	0.281493
980.000000	0.281287
981.000000	0.280974
982.000000	0.280779
983.000000	0.280487
984.000000	0.280195
985.000000	0.280179
986.000000	0.279980
987.000000	0.279803
988.000000	0.279681
989.000000	0.279379
990.000000	0.279124
991.000000	0.278926
992.000000	0.278783
993.000000	0.278788
994.000000	0.278572
995.000000	0.278297
996.000000	0.278134
997.000000	0.278204
998.000000	0.278145
999.000000	0.277926
1000.000000	0.277833
1001.000000	0.277953
1002.000000	0.278001
1003.000000	0.277949
1004.000000	0.277744
1005.000000	0.277145
1006.000000	0.276761
1007.000000	0.276432
1008.000000	0.276192
1009.000000	0.276005
1010.000000	0.275655
1011.000000	0.275705
1012.000000	0.275955
1013.000000	0.275700
1014.000000	0.275525
1015.000000	0.275494
1016.000000	0.275245
1017.000000	0.275223
1018.000000	0.275538
1019.000000	0.275619
1020.000000	0.275698
1021.000000	0.275485
1022.000000	0.275170
1023.000000	0.275208
1024.000000	0.275169
1025.000000	0.275298
1026.000000	0.275466
1027.000000	0.275419
1028.000000	0.275165
1029.000000	0.274997
1030.000000	0.274942
1031.000000	0.275068
1032.000000	0.275349
1033.000000	0.275293
1034.000000	0.275328
1035.000000	0.275319
1036.000000	0.275354
1037.000000	0.275465
1038.000000	0.275423
1039.000000	0.275395
1040.000000	0.275388
1041.000000	0.275239
1042.000000	0.275227
1043.000000	0.275476
1044.000000	0.275547
1045.000000	0.275668
1046.000000	0.275815
1047.000000	0.276013
1048.000000	0.276282
1049.000000	0.276339
1050.000000	0.276286
1051.000000	0.276356
1052.000000	0.276258
1053.000000	0.276201
1054.000000	0.276481
1055.000000	0.276696
1056.000000	0.276869
1057.000000	0.277062
1058.000000	0.277217
1059.000000	0.277164
1060.000000	0.277193
1061.000000	0.277328
1062.000000	0.277543
1063.000000	0.277708
1064.000000	0.277943
1065.000000	0.278170
1066.000000	0.278402
1067.000000	0.278634
1068.000000	0.278893
1069.000000	0.279132
1070.000000	0.279297
1071.000000	0.279521
1072.000000	0.279737
1073.000000	0.279952
1074.000000	0.280132
1075.000000	0.280386
1076.000000	0.280527
1077.000000	0.280527
1078.000000	0.280636
1079.000000	0.280789
1080.000000	0.280983
1081.000000	0.281188
1082.000000	0.281574
1083.000000	0.281855
1084.000000	0.282185
1085.000000	0.282434
1086.000000	0.282561
1087.000000	0.282777
1088.000000	0.282903
1089.000000	0.283033
1090.000000	0.283175
1091.000000	0.283307
1092.000000	0.283474
1093.000000	0.283752
1094.000000	0.283886
1095.000000	0.283904
1096.000000	0.284134
1097.000000	0.284379
1098.000000	0.284636
1099.000000	0.285060
1100.000000	0.285359
1101.000000	0.285436
1102.000000	0.285643
1103.000000	0.285897
1104.000000	0.286157
1105.000000	0.286518
1106.000000	0.286737
1107.000000	0.286796
1108.000000	0.286906
1109.000000	0.287032
1110.000000	0.287118
1111.000000	0.287214
1112.000000	0.287330
1113.000000	0.287523
1114.000000	0.287735
1115.000000	0.287917
1116.000000	0.288214
1117.000000	0.288383
1118.000000	0.288380
1119.000000	0.288476
1120.000000	0.288638
1121.000000	0.288726
1122.000000	0.288883
1123.000000	0.289162
1124.000000	0.289197
1125.000000	0.289351
1126.000000	0.289667
1127.000000	0.289743
1128.000000	0.289720
1129.000000	0.289620
1130.000000	0.289631
1131.000000	0.289512
1132.000000	0.289537
1133.000000	0.289775
1134.000000	0.289936
1135.000000	0.290089
1136.000000	0.290136
1137.000000	0.290113
1138.000000	0.290126
1139.000000	0.290081
1140.000000	0.290227
1141.000000	0.290546
1142.000000	0.290736
1143.000000	0.290873
1144.000000	0.291084
1145.000000	0.291131
1146.000000	0.291056
1147.000000	0.291102
1148.000000	0.291088
1149.000000	0.291156
1150.000000	0.291324
1151.000000	0.291414
1152.000000	0.291423
1153.000000	0.291513
1154.000000	0.291605
1155.000000	0.291617
1156.000000	0.291647
1157.000000	0.291667
1158.000000	0.291536
1159.000000	0.291492
1160.000000	0.291527
1161.000000	0.291499
1162.000000	0.291469
1163.000000	0.291589
1164.000000	0.291565
1165.000000	0.291561
1166.000000	0.291646
1167.000000	0.291762
1168.000000	0.291768
1169.000000	0.291828
1170.000000	0.291849
1171.000000	0.291808
1172.000000	0.291826
1173.000000	0.291870
1174.000000	0.291857
1175.000000	0.291765
1176.000000	0.291688
1177.000000	0.291678
1178.000000	0.291631
1179.000000	0.291562
1180.000000	0.291466
1181.000000	0.291401
1182.000000	0.291341
1183.000000	0.291390
1184.000000	0.291449
1185.000000	0.291466
1186.000000	0.291505
1187.000000	0.291493
1188.000000	0.291437
1189.000000	0.291364
1190.000000	0.291290
1191.000000	0.291271
1192.000000	0.291338
1193.000000	0.291447
1194.000000	0.291532
1195.000000	0.291593
1196.000000	0.291569
1197.000000	0.291581
1198.000000	0.291651
1199.000000	0.291666
1200.000000	0.291639
1201.000000	0.291626
1202.000000	0.291582
1203.000000	0.291513
1204.000000	0.291447
1205.000000	0.291424
1206.000000	0.291367
1207.000000	0.291392
1208.000000	0.291333
1209.000000	0.291290
1210.000000	0.291276
1211.000000	0.291244
1212.000000	0.291214
1213.000000	0.291259
1214.000000	0.291279
1215.000000	0.291241
1216.000000	0.291234
1217.000000	0.291244
1218.000000	0.291209
1219.000000	0.291154
1220.000000	0.291160
1221.000000	0.291169
1222.000000	0.291122
1223.000000	0.291152
1224.000000	0.291216
1225.000000	0.291184
1226.000000	0.291184
1227.000000	0.291176
1228.000000	0.291123
1229.000000	0.291063
1230.000000	0.290996
1231.000000	0.290908
1232.000000	0.290885
1233.000000	0.290951
1234.000000	0.291079
1235.000000	0.291093
1236.000000	0.291003
1237.000000	0.290976
1238.000000	0.290852
1239.000000	0.290777
1240.000000	0.290734
1241.000000	0.290724
1242.000000	0.290714
1243.000000	0.290709
1244.000000	0.290726
1245.000000	0.290809
1246.000000	0.290826
1247.000000	0.290867
1248.000000	0.290935
1249.000000	0.290954
1250.000000	0.290970
1251.000000	0.290970
1252.000000	0.290931
1253.000000	0.290884
1254.000000	0.290828
1255.000000	0.290726
1256.000000	0.290656
1257.000000	0.290618
1258.000000	0.290599
1259.000000	0.290508
1260.000000	0.290515
1261.000000	0.290532
1262.000000	0.290529
1263.000000	0.290578
1264.000000	0.290618
1265.000000	0.290602
1266.000000	0.290533
1267.000000	0.290482
1268.000000	0.290467
1269.000000	0.290432
1270.000000	0.290493
1271.000000	0.290540
1272.000000	0.290542
1273.000000	0.290591
1274.000000	0.290574
1275.000000	0.290555
1276.000000	0.290535
1277.000000	0.290601
1278.000000	0.290633
1279.000000	0.290635
1280.000000	0.290592
1281.000000	0.290533
1282.000000	0.290457
1283.000000	0.290472
1284.000000	0.290495
1285.000000	0.290498
1286.000000	0.290485
1287.000000	0.290471
1288.000000	0.290465
1289.000000	0.290419
1290.000000	0.290319
1291.000000	0.290221
1292.000000	0.290209
1293.000000	0.290193
1294.000000	0.290159
1295.000000	0.290187
1296.000000	0.290132
1297.000000	0.290067
1298.000000	0.290119
1299.000000	0.290144
1300.000000	0.290207
1301.000000	0.290267
1302.000000	0.290232
1303.000000	0.290230
1304.000000	0.290204
1305.000000	0.290205
1306.000000	0.290183
1307.000000	0.290214
1308.000000	0.290237
1309.000000	0.290217
1310.000000	0.290222
1311.000000	0.290281
1312.000000	0.290275
1313.000000	0.290276
1314.000000	0.290251
1315.000000	0.290143
1316.000000	0.290123
1317.000000	0.290132
1318.000000	0.290079
1319.000000	0.290031
1320.000000	0.289985
1321.000000	0.289841
1322.000000	0.289766
1323.000000	0.289784
1324.000000	0.289771
1325.000000	0.289710
1326.000000	0.289675
1327.000000	0.289603
1328.000000	0.289519
1329.000000	0.289395
1330.000000	0.289262
1331.000000	0.289168
1332.000000	0.289130
1333.000000	0.289037
1334.000000	0.289016
1335.000000	0.288980
1336.000000	0.288863
1337.000000	0.288774
1338.000000	0.288667
1339.000000	0.288577
1340.000000	0.288463
1341.000000	0.288380
1342.000000	0.288281
1343.000000	0.288123
1344.000000	0.287963
1345.000000	0.287827
1346.000000	0.287870
1347.000000	0.287864
1348.000000	0.287855
1349.000000	0.287795
1350.000000	0.287673
1351.000000	0.287544
1352.000000	0.287397
1353.000000	0.287263
1354.000000	0.287186
1355.000000	0.287087
1356.000000	0.287080
1357.000000	0.287044
1358.000000	0.286927
1359.000000	0.286819
1360.000000	0.286736
1361.000000	0.286680
1362.000000	0.286603
1363.000000	0.286547
1364.000000	0.286478
1365.000000	0.286321
1366.000000	0.286250
1367.000000	0.286220
1368.000000	0.286165
1369.000000	0.286226
1370.000000	0.286184
1371.000000	0.286081
1372.000000	0.285956
1373.000000	0.285798
1374.000000	0.285711
1375.000000	0.285614
1376.000000	0.285620
1377.000000	0.285647
1378.000000	0.285599
1379.000000	0.285523
1380.000000	0.285444
1381.000000	0.285329
1382.000000	0.285193
1383.000000	0.285083
1384.000000	0.284912
1385.000000	0.284715
1386.000000	0.284627
1387.000000	0.284556
1388.000000	0.284432
1389.000000	0.284336
1390.000000	0.284188
1391.000000	0.283937
1392.000000	0.283765
1393.000000	0.283589
1394.000000	0.283448
1395.000000	0.283308
1396.000000	0.283212
1397.000000	0.283023
1398.000000	0.282748
1399.000000	0.282513
1400.000000	0.282226
1401.000000	0.281964
1402.000000	0.281752
1403.000000	0.281553
1404.000000	0.281384
1405.000000	0.281192
1406.000000	0.280981
1407.000000	0.280697
1408.000000	0.280339
1409.000000	0.280085
1410.000000	0.279869
1411.000000	0.279582
1412.000000	0.279226
1413.000000	0.278879
1414.000000	0.278482
1415.000000	0.278041
1416.000000	0.277641
1417.000000	0.277212
1418.000000	0.276681
1419.000000	0.276219
1420.000000	0.275731
1421.000000	0.275254
1422.000000	0.274779
1423.000000	0.274344
1424.000000	0.273832
1425.000000	0.273311
1426.000000	0.272792
1427.000000	0.272296
1428.000000	0.271826
1429.000000	0.271364
1430.000000	0.270911
1431.000000	0.270455
1432.000000	0.269970
1433.000000	0.269491
1434.000000	0.269016
1435.000000	0.268586
1436.000000	0.268165
1437.000000	0.267779
1438.000000	0.267324
1439.000000	0.266855
1440.000000	0.266435
1441.000000	0.266028
1442.000000	0.265639
1443.000000	0.265236
1444.000000	0.264846
1445.000000	0.264423
1446.000000	0.264003
1447.000000	0.263654
1448.000000	0.263324
1449.000000	0.263007
1450.000000	0.262702
1451.000000	0.262441
1452.000000	0.262149
1453.000000	0.261831
1454.000000	0.261541
1455.000000	0.261270
1456.000000	0.261102
1457.000000	0.261007
1458.000000	0.260928
1459.000000	0.260819
1460.000000	0.260671
1461.000000	0.260549
1462.000000	0.260423
1463.000000	0.260238
1464.000000	0.260087
1465.000000	0.259989
1466.000000	0.259842
1467.000000	0.259744
1468.000000	0.259663
1469.000000	0.259574
1470.000000	0.259447
1471.000000	0.259345
1472.000000	0.259257
1473.000000	0.259215
1474.000000	0.259151
1475.000000	0.259107
1476.000000	0.259065
1477.000000	0.259018
1478.000000	0.258997
1479.000000	0.258953
1480.000000	0.258921
1481.000000	0.258893
1482.000000	0.258879
1483.000000	0.258930
1484.000000	0.259049
1485.000000	0.259127
1486.000000	0.259213
1487.000000	0.259297
1488.000000	0.259350
1489.000000	0.259481
1490.000000	0.259570
1491.000000	0.259705
1492.000000	0.259865
1493.000000	0.260006
1494.000000	0.260128
1495.000000	0.260220
1496.000000	0.260277
1497.000000	0.260370
1498.000000	0.260488
1499.000000	0.260551
1500.000000	0.260655
1501.000000	0.260747
1502.000000	0.260793
1503.000000	0.260883
1504.000000	0.260976
1505.000000	0.261075
1506.000000	0.261203
1507.000000	0.261336
1508.000000	0.261536
1509.000000	0.261736
1510.000000	0.261883
1511.000000	0.262053
1512.000000	0.262221
1513.000000	0.262376
1514.000000	0.262578
1515.000000	0.262769
1516.000000	0.262945
1517.000000	0.263064
1518.000000	0.263148
1519.000000	0.263202
1520.000000	0.263258
1521.000000	0.263303
1522.000000	0.263418
1523.000000	0.263571
1524.000000	0.263665
1525.000000	0.263792
1526.000000	0.263910
1527.000000	0.263991
1528.000000	0.264101
1529.000000	0.264170
1530.000000	0.264140
1531.000000	0.264183
1532.000000	0.264256
1533.000000	0.264334
1534.000000	0.264470
1535.000000	0.264573
1536.000000	0.264613
1537.000000	0.264744
1538.000000	0.264853
1539.000000	0.264904
1540.000000	0.265020
1541.000000	0.265099
1542.000000	0.265167
1543.000000	0.265303
1544.000000	0.265365
1545.000000	0.265392
1546.000000	0.265406
1547.000000	0.265394
1548.000000	0.265401
1549.000000	0.265408
1550.000000	0.265436
1551.000000	0.265443
1552.000000	0.265434
1553.000000	0.265458
1554.000000	0.265457
1555.000000	0.265462
1556.000000	0.265463
1557.000000	0.265459
1558.000000	0.265501
1559.000000	0.265517
1560.000000	0.265527
1561.000000	0.265613
1562.000000	0.265614
1563.000000	0.265591
1564.000000	0.265591
1565.000000	0.265565
1566.000000	0.265534
1567.000000	0.265619
1568.000000	0.265612
1569.000000	0.265635
1570.000000	0.265616
1571.000000	0.265494
1572.000000	0.265443
1573.000000	0.265442
1574.000000	0.265396
1575.000000	0.265354
1576.000000	0.265345
1577.000000	0.265320
1578.000000	0.265280
1579.000000	0.265301
1580.000000	0.265306
1581.000000	0.265352
1582.000000	0.265352
1583.000000	0.265341
1584.000000	0.265307
1585.000000	0.265290
1586.000000	0.265293
1587.000000	0.265321
1588.000000	0.265337
1589.000000	0.265362
1590.000000	0.265365
1591.000000	0.265380
1592.000000	0.265395
1593.000000	0.265418
1594.000000	0.265424
1595.000000	0.265488
1596.000000	0.265493
1597.000000	0.265487
1598.000000	0.265454
1599.000000	0.265415
1600.000000	0.265335
1601.000000	0.265283
1602.000000	0.265203
1603.000000	0.265117
1604.000000	0.265022
1605.000000	0.264928
1606.000000	0.264831
1607.000000	0.264778
1608.000000	0.264683
1609.000000	0.264589
1610.000000	0.264508
1611.000000	0.264440
1612.000000	0.264365
1613.000000	0.264378
1614.000000	0.264367
1615.000000	0.264387
1616.000000	0.264414
1617.000000	0.264412
1618.000000	0.264440
1619.000000	0.264462
1620.000000	0.264502
1621.000000	0.264592
1622.000000	0.264721
1623.000000	0.264848
1624.000000	0.264949
1625.000000	0.264956
1626.000000	0.264984
1627.000000	0.265011
1628.000000	0.265081
1629.000000	0.265192
1630.000000	0.265262
1631.000000	0.265260
1632.000000	0.265258
1633.000000	0.265255
1634.000000	0.265262
1635.000000	0.265305
1636.000000	0.265316
1637.000000	0.265327
1638.000000	0.265323
1639.000000	0.265359
1640.000000	0.265334
1641.000000	0.265317
1642.000000	0.265328
1643.000000	0.265337
1644.000000	0.265361
1645.000000	0.265434
1646.000000	0.265440
1647.000000	0.265437
1648.000000	0.265433
1649.000000	0.265477
1650.000000	0.265555
1651.000000	0.265693
1652.000000	0.265802
1653.000000	0.265877
1654.000000	0.265984
1655.000000	0.266044
1656.000000	0.266052
1657.000000	0.266124
1658.000000	0.266171
1659.000000	0.266250
1660.000000	0.266337
1661.000000	0.266370
1662.000000	0.266438
1663.000000	0.266475
1664.000000	0.266537
1665.000000	0.266632
1666.000000	0.266773
1667.000000	0.266869
1668.000000	0.266965
1669.000000	0.267078
1670.000000	0.267117
1671.000000	0.267194
1672.000000	0.267292
1673.000000	0.267346
1674.000000	0.267432
1675.000000	0.267570
1676.000000	0.267675
1677.000000	0.267814
1678.000000	0.267952
1679.000000	0.268008
1680.000000	0.268006
1681.000000	0.268028
1682.000000	0.268092
1683.000000	0.268175
1684.000000	0.268250
1685.000000	0.268344
1686.000000	0.268307
1687.000000	0.268293
1688.000000	0.268335
1689.000000	0.268336
1690.000000	0.268385
1691.000000	0.268479
1692.000000	0.268451
1693.000000	0.268454
1694.000000	0.268449
1695.000000	0.268452
1696.000000	0.268529
1697.000000	0.268543
1698.000000	0.268605
1699.000000	0.268657
1700.000000	0.268628
1701.000000	0.268746
1702.000000	0.268824
1703.000000	0.268847
1704.000000	0.268961
1705.000000	0.269064
1706.000000	0.269145
1707.000000	0.269248
1708.000000	0.269402
1709.000000	0.269455
1710.000000	0.269542
1711.000000	0.269602
1712.000000	0.269617
1713.000000	0.269643
1714.000000	0.269683
1715.000000	0.269740
1716.000000	0.269853
1717.000000	0.269890
1718.000000	0.269832
1719.000000	0.269850
1720.000000	0.269923
1721.000000	0.269961
1722.000000	0.270064
1723.000000	0.270105
1724.000000	0.270084
1725.000000	0.270110
1726.000000	0.270053
1727.000000	0.270080
1728.000000	0.270107
1729.000000	0.270078
1730.000000	0.270174
1731.000000	0.270242
1732.000000	0.270280
1733.000000	0.270389
1734.000000	0.270439
1735.000000	0.270515
1736.000000	0.270563
1737.000000	0.270652
1738.000000	0.270795
1739.000000	0.270914
1740.000000	0.271036
1741.000000	0.271113
1742.000000	0.271168
1743.000000	0.271305
1744.000000	0.271459
1745.000000	0.271503
1746.000000	0.271536
1747.000000	0.271522
1748.000000	0.271491
1749.000000	0.271518
1750.000000	0.271527
1751.000000	0.271622
1752.000000	0.271754
1753.000000	0.271789
1754.000000	0.271861
1755.000000	0.271894
1756.000000	0.271930
1757.000000	0.271997
1758.000000	0.272078
1759.000000	0.272167
1760.000000	0.272211
1761.000000	0.272200
1762.000000	0.272210
1763.000000	0.272211
1764.000000	0.272217
1765.000000	0.272177
1766.000000	0.272244
1767.000000	0.272310
1768.000000	0.272318
1769.000000	0.272499
1770.000000	0.272568
1771.000000	0.272429
1772.000000	0.272455
1773.000000	0.272491
1774.000000	0.272549
1775.000000	0.272748
1776.000000	0.272862
1777.000000	0.272918
1778.000000	0.272963
1779.000000	0.272974
1780.000000	0.273026
1781.000000	0.273024
1782.000000	0.273092
1783.000000	0.273253
1784.000000	0.273446
1785.000000	0.273500
1786.000000	0.273577
1787.000000	0.273762
1788.000000	0.273867
1789.000000	0.273972
1790.000000	0.274050
1791.000000	0.274092
1792.000000	0.274203
1793.000000	0.274280
1794.000000	0.274353
1795.000000	0.274432
1796.000000	0.274466
1797.000000	0.274508
1798.000000	0.274542
1799.000000	0.274582
1800.000000	0.274651
1801.000000	0.274449
1802.000000	0.274671
1803.000000	0.274654
1804.000000	0.274840
1805.000000	0.275272
1806.000000	0.275508
1807.000000	0.275501
1808.000000	0.275717
1809.000000	0.276041
1810.000000	0.276384
1811.000000	0.276510
1812.000000	0.276705
1813.000000	0.276710
1814.000000	0.276409
1815.000000	0.276318
1816.000000	0.276264
1817.000000	0.276144
1818.000000	0.276168
1819.000000	0.276148
1820.000000	0.275960
1821.000000	0.275710
1822.000000	0.275461
1823.000000	0.274900
1824.000000	0.274570
1825.000000	0.274126
1826.000000	0.274195
1827.000000	0.274395
1828.000000	0.274865
1829.000000	0.275478
1830.000000	0.275608
1831.000000	0.275806
1832.000000	0.275664
1833.000000	0.275779
1834.000000	0.276209
1835.000000	0.276288
1836.000000	0.276159
1837.000000	0.276013
1838.000000	0.275640
1839.000000	0.275016
1840.000000	0.274537
1841.000000	0.274530
1842.000000	0.274641
1843.000000	0.275196
1844.000000	0.275371
1845.000000	0.275534
1846.000000	0.275619
1847.000000	0.275379
1848.000000	0.275041
1849.000000	0.275130
1850.000000	0.275014
1851.000000	0.274908
1852.000000	0.274759
1853.000000	0.274750
1854.000000	0.274671
1855.000000	0.274440
1856.000000	0.274179
1857.000000	0.273779
1858.000000	0.273287
1859.000000	0.272607
1860.000000	0.272080
1861.000000	0.271759
1862.000000	0.271274
1863.000000	0.270690
1864.000000	0.270394
1865.000000	0.270265
1866.000000	0.269996
1867.000000	0.269811
1868.000000	0.269653
1869.000000	0.269194
1870.000000	0.268498
1871.000000	0.267737
1872.000000	0.267103
1873.000000	0.266497
1874.000000	0.265833
1875.000000	0.265319
1876.000000	0.264893
1877.000000	0.263853
1878.000000	0.262943
1879.000000	0.262055
1880.000000	0.261024
1881.000000	0.260227
1882.000000	0.259350
1883.000000	0.258441
1884.000000	0.257694
1885.000000	0.256974
1886.000000	0.255960
1887.000000	0.254944
1888.000000	0.253755
1889.000000	0.252092
1890.000000	0.250667
1891.000000	0.249528
1892.000000	0.248106
1893.000000	0.246988
1894.000000	0.246100
1895.000000	0.244766
1896.000000	0.243327
1897.000000	0.242078
1898.000000	0.240446
1899.000000	0.238713
1900.000000	0.237394
1901.000000	0.235791
1902.000000	0.234275
1903.000000	0.232901
1904.000000	0.231332
1905.000000	0.229873
1906.000000	0.228368
1907.000000	0.226913
1908.000000	0.225398
1909.000000	0.224005
1910.000000	0.222661
1911.000000	0.221175
1912.000000	0.219691
1913.000000	0.218253
1914.000000	0.216890
1915.000000	0.215649
1916.000000	0.214250
1917.000000	0.212843
1918.000000	0.211515
1919.000000	0.210163
1920.000000	0.208558
1921.000000	0.207305
1922.000000	0.206170
1923.000000	0.205127
1924.000000	0.204297
1925.000000	0.203531
1926.000000	0.203015
1927.000000	0.202428
1928.000000	0.201831
1929.000000	0.201340
1930.000000	0.201059
1931.000000	0.200444
1932.000000	0.199852
1933.000000	0.199469
1934.000000	0.199040
1935.000000	0.198624
1936.000000	0.198436
1937.000000	0.198317
1938.000000	0.197906
1939.000000	0.197545
1940.000000	0.197237
1941.000000	0.196805
1942.000000	0.196369
1943.000000	0.196175
1944.000000	0.195966
1945.000000	0.195946
1946.000000	0.195936
1947.000000	0.195696
1948.000000	0.195568
1949.000000	0.195594
1950.000000	0.195393
1951.000000	0.195153
1952.000000	0.194980
1953.000000	0.194781
1954.000000	0.194537
1955.000000	0.194435
1956.000000	0.194440
1957.000000	0.194612
1958.000000	0.194624
1959.000000	0.194575
1960.000000	0.194670
1961.000000	0.194554
1962.000000	0.194423
1963.000000	0.194220
1964.000000	0.194309
1965.000000	0.194175
1966.000000	0.193916
1967.000000	0.194004
1968.000000	0.193917
1969.000000	0.193775
1970.000000	0.193914
1971.000000	0.193570
1972.000000	0.193250
1973.000000	0.193066
1974.000000	0.192893
1975.000000	0.192949
1976.000000	0.193361
1977.000000	0.193618
1978.000000	0.193861
1979.000000	0.194008
1980.000000	0.194035
1981.000000	0.194223
1982.000000	0.194300
1983.000000	0.194466
1984.000000	0.194528
1985.000000	0.194514
1986.000000	0.194542
1987.000000	0.194585
1988.000000	0.194710
1989.000000	0.194887
1990.000000	0.195052
1991.000000	0.195238
1992.000000	0.195383
1993.000000	0.195621
1994.000000	0.195979
1995.000000	0.196471
1996.000000	0.196967
1997.000000	0.197356
1998.000000	0.197784
1999.000000	0.198181
2000.000000	0.198459
2001.000000	0.198747
2002.000000	0.199284
2003.000000	0.199771
2004.000000	0.200141
2005.000000	0.200363
2006.000000	0.200544
2007.000000	0.200800
2008.000000	0.201171
2009.000000	0.201709
2010.000000	0.202211
2011.000000	0.202703
2012.000000	0.203048
2013.000000	0.203274
2014.000000	0.203470
2015.000000	0.203636
2016.000000	0.204049
2017.000000	0.204561
2018.000000	0.205165
2019.000000	0.205815
2020.000000	0.206084
2021.000000	0.206375
2022.000000	0.206470
2023.000000	0.206685
2024.000000	0.206858
2025.000000	0.207228
2026.000000	0.207619
2027.000000	0.207971
2028.000000	0.208514
2029.000000	0.209030
2030.000000	0.209536
2031.000000	0.209878
2032.000000	0.210108
2033.000000	0.210500
2034.000000	0.210877
2035.000000	0.211421
2036.000000	0.211724
2037.000000	0.212083
2038.000000	0.212362
2039.000000	0.212478
2040.000000	0.212755
2041.000000	0.213105
2042.000000	0.213598
2043.000000	0.214224
2044.000000	0.214856
2045.000000	0.215434
2046.000000	0.215793
2047.000000	0.216150
2048.000000	0.216298
2049.000000	0.216615
2050.000000	0.216713
2051.000000	0.216873
2052.000000	0.216882
2053.000000	0.217055
2054.000000	0.217452
2055.000000	0.217936
2056.000000	0.218595
2057.000000	0.219218
2058.000000	0.219659
2059.000000	0.220084
2060.000000	0.220459
2061.000000	0.220703
2062.000000	0.220989
2063.000000	0.221387
2064.000000	0.221509
2065.000000	0.221634
2066.000000	0.221757
2067.000000	0.221909
2068.000000	0.222218
2069.000000	0.222556
2070.000000	0.223010
2071.000000	0.223413
2072.000000	0.223696
2073.000000	0.223895
2074.000000	0.224047
2075.000000	0.224327
2076.000000	0.224562
2077.000000	0.224933
2078.000000	0.225504
2079.000000	0.225934
2080.000000	0.226360
2081.000000	0.226885
2082.000000	0.227493
2083.000000	0.227981
2084.000000	0.228653
2085.000000	0.229198
2086.000000	0.229583
2087.000000	0.230105
2088.000000	0.230278
2089.000000	0.230422
2090.000000	0.230659
2091.000000	0.230796
2092.000000	0.231084
2093.000000	0.231638
2094.000000	0.231962
2095.000000	0.232285
2096.000000	0.232621
2097.000000	0.232769
2098.000000	0.233041
2099.000000	0.233343
2100.000000	0.233491
2101.000000	0.233773
2102.000000	0.233878
2103.000000	0.234198
2104.000000	0.234728
2105.000000	0.235164
2106.000000	0.235848
2107.000000	0.236189
2108.000000	0.236229
2109.000000	0.236401
2110.000000	0.236209
2111.000000	0.236322
2112.000000	0.236487
2113.000000	0.236722
2114.000000	0.237127
2115.000000	0.237433
2116.000000	0.237878
2117.000000	0.238217
2118.000000	0.238423
2119.000000	0.238618
2120.000000	0.238830
2121.000000	0.238958
2122.000000	0.239072
2123.000000	0.239134
2124.000000	0.239357
2125.000000	0.239633
2126.000000	0.239827
2127.000000	0.240227
2128.000000	0.240543
2129.000000	0.240600
2130.000000	0.240702
2131.000000	0.240985
2132.000000	0.241197
2133.000000	0.241575
2134.000000	0.241946
2135.000000	0.242103
2136.000000	0.242304
2137.000000	0.242453
2138.000000	0.242457
2139.000000	0.242647
2140.000000	0.242996
2141.000000	0.243116
2142.000000	0.243100
2143.000000	0.243044
2144.000000	0.243041
2145.000000	0.243147
2146.000000	0.243351
2147.000000	0.243892
2148.000000	0.244314
2149.000000	0.244268
2150.000000	0.244185
2151.000000	0.244267
2152.000000	0.243987
2153.000000	0.243729
2154.000000	0.243714
2155.000000	0.243818
2156.000000	0.243873
2157.000000	0.244221
2158.000000	0.244370
2159.000000	0.244375
2160.000000	0.244534
2161.000000	0.244785
2162.000000	0.245029
2163.000000	0.245194
2164.000000	0.245318
2165.000000	0.245525
2166.000000	0.245434
2167.000000	0.245370
2168.000000	0.245463
2169.000000	0.245517
2170.000000	0.245725
2171.000000	0.245715
2172.000000	0.245655
2173.000000	0.245611
2174.000000	0.245431
2175.000000	0.245306
2176.000000	0.245177
2177.000000	0.245200
2178.000000	0.245319
2179.000000	0.245453
2180.000000	0.245866
2181.000000	0.246170
2182.000000	0.245889
2183.000000	0.245621
2184.000000	0.245455
2185.000000	0.245103
2186.000000	0.244852
2187.000000	0.244705
2188.000000	0.244424
2189.000000	0.244085
2190.000000	0.244080
2191.000000	0.244589
2192.000000	0.245004
2193.000000	0.245865
2194.000000	0.246200
2195.000000	0.246499
2196.000000	0.246552
2197.000000	0.246090
2198.000000	0.245913
2199.000000	0.245707
2200.000000	0.245644
2201.000000	0.245683
2202.000000	0.245703
2203.000000	0.245758
2204.000000	0.245516
2205.000000	0.245301
2206.000000	0.244954
2207.000000	0.244884
2208.000000	0.245277
2209.000000	0.245615
2210.000000	0.246684
2211.000000	0.247275
2212.000000	0.247817
2213.000000	0.248035
2214.000000	0.247744
2215.000000	0.247812
2216.000000	0.247757
2217.000000	0.247884
2218.000000	0.248341
2219.000000	0.248648
2220.000000	0.249215
2221.000000	0.249203
2222.000000	0.248440
2223.000000	0.248287
2224.000000	0.248278
2225.000000	0.248069
2226.000000	0.247614
2227.000000	0.247506
2228.000000	0.246648
2229.000000	0.245455
2230.000000	0.245564
2231.000000	0.245800
2232.000000	0.245640
2233.000000	0.246379
2234.000000	0.247121
2235.000000	0.247835
2236.000000	0.248197
2237.000000	0.248638
2238.000000	0.248745
2239.000000	0.248018
2240.000000	0.247963
2241.000000	0.248527
2242.000000	0.248740
2243.000000	0.248836
2244.000000	0.248916
2245.000000	0.248505
2246.000000	0.248428
2247.000000	0.249126
2248.000000	0.248984
2249.000000	0.248414
2250.000000	0.248194
2251.000000	0.247026
2252.000000	0.246080
2253.000000	0.246461
2254.000000	0.246641
2255.000000	0.247299
2256.000000	0.247971
2257.000000	0.248216
2258.000000	0.248287
2259.000000	0.248044
2260.000000	0.247493
2261.000000	0.247114
2262.000000	0.246568
2263.000000	0.246324
2264.000000	0.246189
2265.000000	0.246488
2266.000000	0.247292
2267.000000	0.247578
2268.000000	0.247835
2269.000000	0.248347
2270.000000	0.248977
2271.000000	0.248795
2272.000000	0.248514
2273.000000	0.248279
2274.000000	0.247054
2275.000000	0.246523
2276.000000	0.246813
2277.000000	0.246482
2278.000000	0.245842
2279.000000	0.245201
2280.000000	0.244068
2281.000000	0.243456
2282.000000	0.243331
2283.000000	0.243303
2284.000000	0.243883
2285.000000	0.244495
2286.000000	0.244796
2287.000000	0.244460
2288.000000	0.244250
2289.000000	0.243734
2290.000000	0.242898
2291.000000	0.242955
2292.000000	0.242596
2293.000000	0.242206
2294.000000	0.241735
2295.000000	0.241019
2296.000000	0.240462
2297.000000	0.239529
2298.000000	0.239378
2299.000000	0.240030
2300.000000	0.239940
2301.000000	0.240320
2302.000000	0.239931
2303.000000	0.238320
2304.000000	0.237425
2305.000000	0.236408
2306.000000	0.235834
2307.000000	0.235449
2308.000000	0.235674
2309.000000	0.236011
2310.000000	0.236409
2311.000000	0.236884
2312.000000	0.236099
2313.000000	0.234341
2314.000000	0.232281
2315.000000	0.230540
2316.000000	0.230134
2317.000000	0.230895
2318.000000	0.232489
2319.000000	0.234133
2320.000000	0.234428
2321.000000	0.233642
2322.000000	0.233108
2323.000000	0.232530
2324.000000	0.232201
2325.000000	0.232464
2326.000000	0.232218
2327.000000	0.231169
2328.000000	0.229881
2329.000000	0.229123
2330.000000	0.228225
2331.000000	0.227792
2332.000000	0.228099
2333.000000	0.228705
2334.000000	0.228667
2335.000000	0.228233
2336.000000	0.226805
2337.000000	0.225813
2338.000000	0.224264
2339.000000	0.223536
2340.000000	0.223177
2341.000000	0.222583
2342.000000	0.222041
2343.000000	0.221776
2344.000000	0.221686
2345.000000	0.221811
2346.000000	0.223024
2347.000000	0.222589
2348.000000	0.221198
2349.000000	0.220344
2350.000000	0.218975
2351.000000	0.217771
2352.000000	0.217372
2353.000000	0.217278
2354.000000	0.216565
2355.000000	0.215929
2356.000000	0.215702
2357.000000	0.214974
2358.000000	0.214267
2359.000000	0.214381
2360.000000	0.214566
2361.000000	0.215383
2362.000000	0.215895
2363.000000	0.214668
2364.000000	0.213213
2365.000000	0.211742
2366.000000	0.209818
2367.000000	0.208842
2368.000000	0.208455
2369.000000	0.208373
2370.000000	0.208007
2371.000000	0.208099
2372.000000	0.208898
2373.000000	0.208371
2374.000000	0.208610
2375.000000	0.208197
2376.000000	0.206753
2377.000000	0.205768
2378.000000	0.203822
2379.000000	0.202289
2380.000000	0.200956
2381.000000	0.200698
2382.000000	0.199745
2383.000000	0.198393
2384.000000	0.199180
2385.000000	0.198162
2386.000000	0.196915
2387.000000	0.198049
2388.000000	0.197982
2389.000000	0.197324
2390.000000	0.197907
2391.000000	0.196697
2392.000000	0.195903
2393.000000	0.196227
2394.000000	0.196282
2395.000000	0.197608
2396.000000	0.197337
2397.000000	0.196097
2398.000000	0.194640
2399.000000	0.192742
2400.000000	0.192414
2401.000000	0.194389
2402.000000	0.195350
2403.000000	0.194608
2404.000000	0.194473
2405.000000	0.191605
2406.000000	0.188635
2407.000000	0.188692
2408.000000	0.190504
2409.000000	0.192794
2410.000000	0.194903
2411.000000	0.197917
2412.000000	0.196378
2413.000000	0.193662
2414.000000	0.192609
2415.000000	0.188304
2416.000000	0.189035
2417.000000	0.189371
2418.000000	0.188382
2419.000000	0.191987
2420.000000	0.191225
2421.000000	0.190687
2422.000000	0.190989
2423.000000	0.189434
2424.000000	0.189898
2425.000000	0.191870
2426.000000	0.194906
2427.000000	0.197078
2428.000000	0.196880
2429.000000	0.195896
2430.000000	0.191629
2431.000000	0.187447
2432.000000	0.188831
2433.000000	0.186175
2434.000000	0.186644
2435.000000	0.189893
2436.000000	0.186114
2437.000000	0.187287
2438.000000	0.186031
2439.000000	0.181555
2440.000000	0.182655
2441.000000	0.181220
2442.000000	0.181218
2443.000000	0.185452
2444.000000	0.186585
2445.000000	0.185123
2446.000000	0.187507
2447.000000	0.190691
2448.000000	0.191575
2449.000000	0.194109
2450.000000	0.190911
2451.000000	0.186562
2452.000000	0.184562
2453.000000	0.179032
2454.000000	0.179666
2455.000000	0.180421
2456.000000	0.179652
2457.000000	0.180534
2458.000000	0.180239
2459.000000	0.181725
2460.000000	0.181348
2461.000000	0.182837
2462.000000	0.188817
2463.000000	0.192069
2464.000000	0.187615
2465.000000	0.183233
2466.000000	0.178879
2467.000000	0.171146
2468.000000	0.168370
2469.000000	0.170598
2470.000000	0.173351
2471.000000	0.178488
2472.000000	0.186814
2473.000000	0.187506
2474.000000	0.183512
2475.000000	0.184515
2476.000000	0.183497
2477.000000	0.183171
2478.000000	0.189692
2479.000000	0.194987
2480.000000	0.190308
2481.000000	0.191797
2482.000000	0.194132
2483.000000	0.178155
2484.000000	0.171705
2485.000000	0.177209
2486.000000	0.171477
2487.000000	0.171419
2488.000000	0.176478
2489.000000	0.167729
2490.000000	0.157645
2491.000000	0.154114
2492.000000	0.148625
2493.000000	0.139568
2494.000000	0.138272
2495.000000	0.148765
2496.000000	0.149245
2497.000000	0.148886
2498.000000	0.146307
2499.000000	0.135366
2500.000000	0.126713
