# Wavelength	hexa40_00001.asd.rts.txt
350.000000	0.201401
351.000000	0.204126
352.000000	0.204831
353.000000	0.204225
354.000000	0.205926
355.000000	0.211782
356.000000	0.210837
357.000000	0.206106
358.000000	0.206453
359.000000	0.206165
360.000000	0.206342
361.000000	0.208529
362.000000	0.209343
363.000000	0.210776
364.000000	0.212867
365.000000	0.211976
366.000000	0.209233
367.000000	0.207524
368.000000	0.212426
369.000000	0.212430
370.000000	0.210070
371.000000	0.211098
372.000000	0.209644
373.000000	0.209671
374.000000	0.213340
375.000000	0.214159
376.000000	0.214003
377.000000	0.213888
378.000000	0.214395
379.000000	0.215072
380.000000	0.215889
381.000000	0.217426
382.000000	0.217059
383.000000	0.215983
384.000000	0.215735
385.000000	0.216678
386.000000	0.218410
387.000000	0.219894
388.000000	0.218725
389.000000	0.219007
390.000000	0.220450
391.000000	0.220997
392.000000	0.220584
393.000000	0.220218
394.000000	0.220669
395.000000	0.221695
396.000000	0.222138
397.000000	0.221964
398.000000	0.222717
399.000000	0.223680
400.000000	0.224411
401.000000	0.224448
402.000000	0.224846
403.000000	0.225379
404.000000	0.225770
405.000000	0.225776
406.000000	0.226016
407.000000	0.226719
408.000000	0.227393
409.000000	0.227693
410.000000	0.227686
411.000000	0.227667
412.000000	0.227821
413.000000	0.228200
414.000000	0.228804
415.000000	0.229598
416.000000	0.230066
417.000000	0.230112
418.000000	0.230608
419.000000	0.230789
420.000000	0.230786
421.000000	0.231492
422.000000	0.232004
423.000000	0.232101
424.000000	0.231950
425.000000	0.232424
426.000000	0.232835
427.000000	0.232746
428.000000	0.233196
429.000000	0.233575
430.000000	0.233751
431.000000	0.234228
432.000000	0.234563
433.000000	0.234683
434.000000	0.234790
435.000000	0.235129
436.000000	0.235478
437.000000	0.235595
438.000000	0.235718
439.000000	0.235816
440.000000	0.235955
441.000000	0.236097
442.000000	0.236284
443.000000	0.236477
444.000000	0.236738
445.000000	0.236932
446.000000	0.237172
447.000000	0.237434
448.000000	0.237681
449.000000	0.237952
450.000000	0.238278
451.000000	0.238612
452.000000	0.238892
453.000000	0.239081
454.000000	0.239400
455.000000	0.239613
456.000000	0.239860
457.000000	0.240227
458.000000	0.240378
459.000000	0.240519
460.000000	0.240863
461.000000	0.240960
462.000000	0.241197
463.000000	0.241539
464.000000	0.241653
465.000000	0.241848
466.000000	0.242166
467.000000	0.242624
468.000000	0.242833
469.000000	0.242853
470.000000	0.243030
471.000000	0.243348
472.000000	0.243560
473.000000	0.243600
474.000000	0.243816
475.000000	0.244045
476.000000	0.244326
477.000000	0.244563
478.000000	0.244708
479.000000	0.244986
480.000000	0.245365
481.000000	0.245451
482.000000	0.245587
483.000000	0.245878
484.000000	0.246123
485.000000	0.246283
486.000000	0.246496
487.000000	0.246610
488.000000	0.246823
489.000000	0.247131
490.000000	0.247368
491.000000	0.247632
492.000000	0.247983
493.000000	0.248308
494.000000	0.248469
495.000000	0.248696
496.000000	0.249075
497.000000	0.249378
498.000000	0.249688
499.000000	0.250060
500.000000	0.250324
501.000000	0.250582
502.000000	0.250859
503.000000	0.251074
504.000000	0.251309
505.000000	0.251553
506.000000	0.251792
507.000000	0.252049
508.000000	0.252377
509.000000	0.252731
510.000000	0.252988
511.000000	0.253276
512.000000	0.253625
513.000000	0.253942
514.000000	0.254219
515.000000	0.254523
516.000000	0.254869
517.000000	0.255163
518.000000	0.255474
519.000000	0.255775
520.000000	0.256036
521.000000	0.256327
522.000000	0.256657
523.000000	0.256920
524.000000	0.257238
525.000000	0.257580
526.000000	0.257880
527.000000	0.258194
528.000000	0.258487
529.000000	0.258761
530.000000	0.258979
531.000000	0.259244
532.000000	0.259525
533.000000	0.259785
534.000000	0.260045
535.000000	0.260304
536.000000	0.260577
537.000000	0.260886
538.000000	0.261209
539.000000	0.261498
540.000000	0.261816
541.000000	0.262106
542.000000	0.262356
543.000000	0.262631
544.000000	0.262927
545.000000	0.263174
546.000000	0.263426
547.000000	0.263732
548.000000	0.264077
549.000000	0.264292
550.000000	0.264572
551.000000	0.264932
552.000000	0.265277
553.000000	0.265563
554.000000	0.265850
555.000000	0.266190
556.000000	0.266563
557.000000	0.266838
558.000000	0.267120
559.000000	0.267466
560.000000	0.267778
561.000000	0.268116
562.000000	0.268467
563.000000	0.268784
564.000000	0.269138
565.000000	0.269494
566.000000	0.269860
567.000000	0.270194
568.000000	0.270472
569.000000	0.270812
570.000000	0.271119
571.000000	0.271383
572.000000	0.271687
573.000000	0.272026
574.000000	0.272341
575.000000	0.272620
576.000000	0.272962
577.000000	0.273282
578.000000	0.273581
579.000000	0.273939
580.000000	0.274276
581.000000	0.274578
582.000000	0.274952
583.000000	0.275277
584.000000	0.275561
585.000000	0.275882
586.000000	0.276212
587.000000	0.276528
588.000000	0.276824
589.000000	0.277186
590.000000	0.277522
591.000000	0.277783
592.000000	0.278070
593.000000	0.278305
594.000000	0.278495
595.000000	0.278746
596.000000	0.278965
597.000000	0.279173
598.000000	0.279343
599.000000	0.279527
600.000000	0.279769
601.000000	0.280009
602.000000	0.280218
603.000000	0.280394
604.000000	0.280561
605.000000	0.280749
606.000000	0.280918
607.000000	0.281088
608.000000	0.281312
609.000000	0.281572
610.000000	0.281836
611.000000	0.282068
612.000000	0.282265
613.000000	0.282392
614.000000	0.282489
615.000000	0.282645
616.000000	0.282740
617.000000	0.282759
618.000000	0.282903
619.000000	0.283046
620.000000	0.283140
621.000000	0.283224
622.000000	0.283364
623.000000	0.283540
624.000000	0.283718
625.000000	0.283872
626.000000	0.284077
627.000000	0.284356
628.000000	0.284644
629.000000	0.284947
630.000000	0.285179
631.000000	0.285488
632.000000	0.285761
633.000000	0.286005
634.000000	0.286221
635.000000	0.286364
636.000000	0.286470
637.000000	0.286558
638.000000	0.286669
639.000000	0.286779
640.000000	0.286929
641.000000	0.287048
642.000000	0.287151
643.000000	0.287272
644.000000	0.287449
645.000000	0.287611
646.000000	0.287783
647.000000	0.287957
648.000000	0.288120
649.000000	0.288306
650.000000	0.288505
651.000000	0.288707
652.000000	0.288834
653.000000	0.288960
654.000000	0.289144
655.000000	0.289353
656.000000	0.289582
657.000000	0.289772
658.000000	0.289932
659.000000	0.290118
660.000000	0.290325
661.000000	0.290491
662.000000	0.290621
663.000000	0.290772
664.000000	0.290926
665.000000	0.291092
666.000000	0.291277
667.000000	0.291455
668.000000	0.291636
669.000000	0.291834
670.000000	0.292051
671.000000	0.292234
672.000000	0.292438
673.000000	0.292648
674.000000	0.292808
675.000000	0.292955
676.000000	0.293109
677.000000	0.293295
678.000000	0.293442
679.000000	0.293588
680.000000	0.293761
681.000000	0.293894
682.000000	0.294050
683.000000	0.294192
684.000000	0.294409
685.000000	0.294586
686.000000	0.294753
687.000000	0.294934
688.000000	0.295090
689.000000	0.295241
690.000000	0.295429
691.000000	0.295605
692.000000	0.295764
693.000000	0.295962
694.000000	0.296151
695.000000	0.296330
696.000000	0.296485
697.000000	0.296607
698.000000	0.296765
699.000000	0.296960
700.000000	0.297178
701.000000	0.297348
702.000000	0.297560
703.000000	0.297786
704.000000	0.297886
705.000000	0.298036
706.000000	0.298200
707.000000	0.298352
708.000000	0.298508
709.000000	0.298634
710.000000	0.298737
711.000000	0.298891
712.000000	0.299055
713.000000	0.299237
714.000000	0.299471
715.000000	0.299645
716.000000	0.299780
717.000000	0.299933
718.000000	0.300086
719.000000	0.300234
720.000000	0.300384
721.000000	0.300511
722.000000	0.300625
723.000000	0.300777
724.000000	0.300875
725.000000	0.300969
726.000000	0.301130
727.000000	0.301272
728.000000	0.301402
729.000000	0.301557
730.000000	0.301715
731.000000	0.301905
732.000000	0.302070
733.000000	0.302221
734.000000	0.302339
735.000000	0.302387
736.000000	0.302482
737.000000	0.302540
738.000000	0.302537
739.000000	0.302623
740.000000	0.302741
741.000000	0.302925
742.000000	0.303117
743.000000	0.303264
744.000000	0.303398
745.000000	0.303494
746.000000	0.303617
747.000000	0.303749
748.000000	0.303851
749.000000	0.303945
750.000000	0.304013
751.000000	0.304065
752.000000	0.304123
753.000000	0.304202
754.000000	0.304281
755.000000	0.304393
756.000000	0.304490
757.000000	0.304489
758.000000	0.304560
759.000000	0.304668
760.000000	0.304720
761.000000	0.304821
762.000000	0.304915
763.000000	0.304984
764.000000	0.305101
765.000000	0.305159
766.000000	0.305191
767.000000	0.305239
768.000000	0.305250
769.000000	0.305273
770.000000	0.305343
771.000000	0.305458
772.000000	0.305636
773.000000	0.305771
774.000000	0.305854
775.000000	0.305928
776.000000	0.306021
777.000000	0.306132
778.000000	0.306280
779.000000	0.306323
780.000000	0.306280
781.000000	0.306298
782.000000	0.306337
783.000000	0.306441
784.000000	0.306481
785.000000	0.306499
786.000000	0.306545
787.000000	0.306626
788.000000	0.306670
789.000000	0.306706
790.000000	0.306735
791.000000	0.306793
792.000000	0.306830
793.000000	0.306857
794.000000	0.306890
795.000000	0.306901
796.000000	0.306864
797.000000	0.306806
798.000000	0.306827
799.000000	0.306867
800.000000	0.306910
801.000000	0.306950
802.000000	0.306952
803.000000	0.306952
804.000000	0.306993
805.000000	0.306994
806.000000	0.307002
807.000000	0.307056
808.000000	0.307039
809.000000	0.307094
810.000000	0.307158
811.000000	0.307169
812.000000	0.307214
813.000000	0.307292
814.000000	0.307370
815.000000	0.307417
816.000000	0.307439
817.000000	0.307446
818.000000	0.307378
819.000000	0.307383
820.000000	0.307379
821.000000	0.307287
822.000000	0.307201
823.000000	0.307243
824.000000	0.307319
825.000000	0.307383
826.000000	0.307431
827.000000	0.307409
828.000000	0.307338
829.000000	0.307249
830.000000	0.307148
831.000000	0.307122
832.000000	0.307122
833.000000	0.307106
834.000000	0.307070
835.000000	0.307045
836.000000	0.307013
837.000000	0.307017
838.000000	0.307060
839.000000	0.307067
840.000000	0.306980
841.000000	0.306889
842.000000	0.306843
843.000000	0.306802
844.000000	0.306801
845.000000	0.306795
846.000000	0.306724
847.000000	0.306632
848.000000	0.306506
849.000000	0.306371
850.000000	0.306269
851.000000	0.306206
852.000000	0.306217
853.000000	0.306272
854.000000	0.306202
855.000000	0.306140
856.000000	0.306098
857.000000	0.305980
858.000000	0.305863
859.000000	0.305740
860.000000	0.305703
861.000000	0.305680
862.000000	0.305651
863.000000	0.305553
864.000000	0.305507
865.000000	0.305500
866.000000	0.305519
867.000000	0.305492
868.000000	0.305405
869.000000	0.305258
870.000000	0.305162
871.000000	0.305030
872.000000	0.304851
873.000000	0.304613
874.000000	0.304494
875.000000	0.304360
876.000000	0.304207
877.000000	0.304009
878.000000	0.303748
879.000000	0.303612
880.000000	0.303534
881.000000	0.303431
882.000000	0.303269
883.000000	0.303049
884.000000	0.302752
885.000000	0.302653
886.000000	0.302541
887.000000	0.302329
888.000000	0.302138
889.000000	0.302013
890.000000	0.301802
891.000000	0.301541
892.000000	0.301429
893.000000	0.301277
894.000000	0.301112
895.000000	0.300960
896.000000	0.300725
897.000000	0.300498
898.000000	0.300397
899.000000	0.300249
900.000000	0.300115
901.000000	0.299969
902.000000	0.299783
903.000000	0.299668
904.000000	0.299615
905.000000	0.299477
906.000000	0.299320
907.000000	0.299196
908.000000	0.299118
909.000000	0.298884
910.000000	0.298655
911.000000	0.298417
912.000000	0.298181
913.000000	0.298118
914.000000	0.297929
915.000000	0.297650
916.000000	0.297416
917.000000	0.297201
918.000000	0.296961
919.000000	0.296667
920.000000	0.296440
921.000000	0.296195
922.000000	0.295939
923.000000	0.295692
924.000000	0.295436
925.000000	0.295201
926.000000	0.295017
927.000000	0.294784
928.000000	0.294521
929.000000	0.294255
930.000000	0.294023
931.000000	0.293836
932.000000	0.293673
933.000000	0.293511
934.000000	0.293236
935.000000	0.292969
936.000000	0.292731
937.000000	0.292419
938.000000	0.292070
939.000000	0.291840
940.000000	0.291638
941.000000	0.291399
942.000000	0.291180
943.000000	0.290993
944.000000	0.290740
945.000000	0.290565
946.000000	0.290343
947.000000	0.290154
948.000000	0.290013
949.000000	0.289697
950.000000	0.289405
951.000000	0.289142
952.000000	0.288828
953.000000	0.288520
954.000000	0.288224
955.000000	0.287882
956.000000	0.287573
957.000000	0.287389
958.000000	0.287231
959.000000	0.287063
960.000000	0.286993
961.000000	0.286815
962.000000	0.286483
963.000000	0.286215
964.000000	0.285917
965.000000	0.285672
966.000000	0.285436
967.000000	0.285215
968.000000	0.285037
969.000000	0.284806
970.000000	0.284526
971.000000	0.284363
972.000000	0.284153
973.000000	0.283814
974.000000	0.283578
975.000000	0.283393
976.000000	0.283182
977.000000	0.282918
978.000000	0.282765
979.000000	0.282718
980.000000	0.282465
981.000000	0.282108
982.000000	0.281932
983.000000	0.281699
984.000000	0.281467
985.000000	0.281451
986.000000	0.281192
987.000000	0.280965
988.000000	0.280867
989.000000	0.280706
990.000000	0.280461
991.000000	0.280239
992.000000	0.280172
993.000000	0.280029
994.000000	0.279779
995.000000	0.279539
996.000000	0.279187
997.000000	0.279195
998.000000	0.279112
999.000000	0.278877
1000.000000	0.278915
1001.000000	0.278888
1002.000000	0.278978
1003.000000	0.279039
1004.000000	0.279004
1005.000000	0.278935
1006.000000	0.278698
1007.000000	0.278354
1008.000000	0.278109
1009.000000	0.277844
1010.000000	0.277313
1011.000000	0.277408
1012.000000	0.277650
1013.000000	0.277465
1014.000000	0.277621
1015.000000	0.277545
1016.000000	0.277395
1017.000000	0.277339
1018.000000	0.277174
1019.000000	0.277115
1020.000000	0.277178
1021.000000	0.276865
1022.000000	0.276627
1023.000000	0.276689
1024.000000	0.276561
1025.000000	0.276620
1026.000000	0.276888
1027.000000	0.276963
1028.000000	0.276997
1029.000000	0.276989
1030.000000	0.276947
1031.000000	0.276875
1032.000000	0.276801
1033.000000	0.276944
1034.000000	0.276988
1035.000000	0.277089
1036.000000	0.277078
1037.000000	0.277022
1038.000000	0.276849
1039.000000	0.276580
1040.000000	0.276563
1041.000000	0.276587
1042.000000	0.276525
1043.000000	0.276651
1044.000000	0.276870
1045.000000	0.277025
1046.000000	0.277193
1047.000000	0.277421
1048.000000	0.277749
1049.000000	0.277829
1050.000000	0.277833
1051.000000	0.277840
1052.000000	0.277578
1053.000000	0.277479
1054.000000	0.277581
1055.000000	0.277783
1056.000000	0.278088
1057.000000	0.278544
1058.000000	0.278725
1059.000000	0.278631
1060.000000	0.278746
1061.000000	0.278883
1062.000000	0.278990
1063.000000	0.279426
1064.000000	0.279718
1065.000000	0.279859
1066.000000	0.279969
1067.000000	0.280080
1068.000000	0.280203
1069.000000	0.280067
1070.000000	0.280217
1071.000000	0.280785
1072.000000	0.281033
1073.000000	0.281270
1074.000000	0.281493
1075.000000	0.281487
1076.000000	0.281426
1077.000000	0.281624
1078.000000	0.281982
1079.000000	0.282190
1080.000000	0.282484
1081.000000	0.282727
1082.000000	0.282915
1083.000000	0.283153
1084.000000	0.283577
1085.000000	0.283861
1086.000000	0.283994
1087.000000	0.284225
1088.000000	0.284371
1089.000000	0.284523
1090.000000	0.284702
1091.000000	0.284820
1092.000000	0.284998
1093.000000	0.285299
1094.000000	0.285506
1095.000000	0.285699
1096.000000	0.285886
1097.000000	0.286019
1098.000000	0.286185
1099.000000	0.286264
1100.000000	0.286533
1101.000000	0.286890
1102.000000	0.287131
1103.000000	0.287424
1104.000000	0.287690
1105.000000	0.287863
1106.000000	0.288025
1107.000000	0.288099
1108.000000	0.288255
1109.000000	0.288510
1110.000000	0.288674
1111.000000	0.288835
1112.000000	0.289058
1113.000000	0.289267
1114.000000	0.289447
1115.000000	0.289555
1116.000000	0.289663
1117.000000	0.289800
1118.000000	0.289809
1119.000000	0.289882
1120.000000	0.290057
1121.000000	0.290212
1122.000000	0.290419
1123.000000	0.290764
1124.000000	0.291053
1125.000000	0.291280
1126.000000	0.291400
1127.000000	0.291496
1128.000000	0.291551
1129.000000	0.291541
1130.000000	0.291656
1131.000000	0.291868
1132.000000	0.291904
1133.000000	0.291923
1134.000000	0.292031
1135.000000	0.292050
1136.000000	0.292068
1137.000000	0.292181
1138.000000	0.292200
1139.000000	0.292152
1140.000000	0.292234
1141.000000	0.292344
1142.000000	0.292445
1143.000000	0.292527
1144.000000	0.292680
1145.000000	0.292681
1146.000000	0.292662
1147.000000	0.292704
1148.000000	0.292642
1149.000000	0.292713
1150.000000	0.292894
1151.000000	0.293034
1152.000000	0.293185
1153.000000	0.293281
1154.000000	0.293314
1155.000000	0.293340
1156.000000	0.293326
1157.000000	0.293336
1158.000000	0.293291
1159.000000	0.293279
1160.000000	0.293258
1161.000000	0.293256
1162.000000	0.293292
1163.000000	0.293522
1164.000000	0.293588
1165.000000	0.293553
1166.000000	0.293617
1167.000000	0.293615
1168.000000	0.293614
1169.000000	0.293713
1170.000000	0.293739
1171.000000	0.293729
1172.000000	0.293761
1173.000000	0.293780
1174.000000	0.293774
1175.000000	0.293728
1176.000000	0.293656
1177.000000	0.293623
1178.000000	0.293594
1179.000000	0.293558
1180.000000	0.293481
1181.000000	0.293466
1182.000000	0.293429
1183.000000	0.293440
1184.000000	0.293470
1185.000000	0.293466
1186.000000	0.293478
1187.000000	0.293440
1188.000000	0.293338
1189.000000	0.293274
1190.000000	0.293245
1191.000000	0.293235
1192.000000	0.293340
1193.000000	0.293472
1194.000000	0.293528
1195.000000	0.293586
1196.000000	0.293626
1197.000000	0.293632
1198.000000	0.293610
1199.000000	0.293607
1200.000000	0.293580
1201.000000	0.293552
1202.000000	0.293542
1203.000000	0.293583
1204.000000	0.293544
1205.000000	0.293489
1206.000000	0.293420
1207.000000	0.293396
1208.000000	0.293328
1209.000000	0.293305
1210.000000	0.293277
1211.000000	0.293237
1212.000000	0.293186
1213.000000	0.293151
1214.000000	0.293165
1215.000000	0.293201
1216.000000	0.293184
1217.000000	0.293133
1218.000000	0.293108
1219.000000	0.293083
1220.000000	0.293080
1221.000000	0.293082
1222.000000	0.293081
1223.000000	0.293064
1224.000000	0.293031
1225.000000	0.293052
1226.000000	0.293137
1227.000000	0.293147
1228.000000	0.293160
1229.000000	0.293112
1230.000000	0.292974
1231.000000	0.292864
1232.000000	0.292828
1233.000000	0.292880
1234.000000	0.292981
1235.000000	0.293019
1236.000000	0.292994
1237.000000	0.293019
1238.000000	0.292985
1239.000000	0.292964
1240.000000	0.292960
1241.000000	0.292971
1242.000000	0.292971
1243.000000	0.292932
1244.000000	0.292934
1245.000000	0.292970
1246.000000	0.292942
1247.000000	0.293028
1248.000000	0.293091
1249.000000	0.293063
1250.000000	0.293049
1251.000000	0.293004
1252.000000	0.292963
1253.000000	0.292965
1254.000000	0.292910
1255.000000	0.292808
1256.000000	0.292737
1257.000000	0.292664
1258.000000	0.292634
1259.000000	0.292562
1260.000000	0.292579
1261.000000	0.292589
1262.000000	0.292585
1263.000000	0.292655
1264.000000	0.292680
1265.000000	0.292665
1266.000000	0.292598
1267.000000	0.292524
1268.000000	0.292496
1269.000000	0.292431
1270.000000	0.292442
1271.000000	0.292395
1272.000000	0.292330
1273.000000	0.292305
1274.000000	0.292224
1275.000000	0.292168
1276.000000	0.292167
1277.000000	0.292183
1278.000000	0.292136
1279.000000	0.292091
1280.000000	0.291978
1281.000000	0.291887
1282.000000	0.291844
1283.000000	0.291832
1284.000000	0.291816
1285.000000	0.291774
1286.000000	0.291695
1287.000000	0.291592
1288.000000	0.291534
1289.000000	0.291449
1290.000000	0.291382
1291.000000	0.291349
1292.000000	0.291310
1293.000000	0.291270
1294.000000	0.291207
1295.000000	0.291198
1296.000000	0.291210
1297.000000	0.291224
1298.000000	0.291302
1299.000000	0.291335
1300.000000	0.291360
1301.000000	0.291397
1302.000000	0.291371
1303.000000	0.291414
1304.000000	0.291403
1305.000000	0.291451
1306.000000	0.291414
1307.000000	0.291366
1308.000000	0.291369
1309.000000	0.291321
1310.000000	0.291321
1311.000000	0.291454
1312.000000	0.291421
1313.000000	0.291316
1314.000000	0.291260
1315.000000	0.291099
1316.000000	0.291073
1317.000000	0.291159
1318.000000	0.291157
1319.000000	0.291115
1320.000000	0.291064
1321.000000	0.290950
1322.000000	0.290875
1323.000000	0.290899
1324.000000	0.290969
1325.000000	0.290930
1326.000000	0.290822
1327.000000	0.290750
1328.000000	0.290706
1329.000000	0.290617
1330.000000	0.290595
1331.000000	0.290543
1332.000000	0.290477
1333.000000	0.290398
1334.000000	0.290372
1335.000000	0.290365
1336.000000	0.290333
1337.000000	0.290327
1338.000000	0.290319
1339.000000	0.290284
1340.000000	0.290252
1341.000000	0.290196
1342.000000	0.290098
1343.000000	0.289977
1344.000000	0.289845
1345.000000	0.289770
1346.000000	0.289815
1347.000000	0.289774
1348.000000	0.289771
1349.000000	0.289627
1350.000000	0.289438
1351.000000	0.289294
1352.000000	0.289085
1353.000000	0.288949
1354.000000	0.288920
1355.000000	0.288827
1356.000000	0.288812
1357.000000	0.288784
1358.000000	0.288677
1359.000000	0.288549
1360.000000	0.288460
1361.000000	0.288428
1362.000000	0.288350
1363.000000	0.288255
1364.000000	0.288197
1365.000000	0.288093
1366.000000	0.288030
1367.000000	0.288014
1368.000000	0.287936
1369.000000	0.287957
1370.000000	0.287907
1371.000000	0.287756
1372.000000	0.287657
1373.000000	0.287574
1374.000000	0.287467
1375.000000	0.287419
1376.000000	0.287500
1377.000000	0.287515
1378.000000	0.287458
1379.000000	0.287337
1380.000000	0.287205
1381.000000	0.287057
1382.000000	0.286912
1383.000000	0.286867
1384.000000	0.286710
1385.000000	0.286509
1386.000000	0.286418
1387.000000	0.286332
1388.000000	0.286246
1389.000000	0.286219
1390.000000	0.286190
1391.000000	0.286062
1392.000000	0.285958
1393.000000	0.285825
1394.000000	0.285695
1395.000000	0.285574
1396.000000	0.285470
1397.000000	0.285259
1398.000000	0.284985
1399.000000	0.284722
1400.000000	0.284365
1401.000000	0.284058
1402.000000	0.283824
1403.000000	0.283519
1404.000000	0.283299
1405.000000	0.283031
1406.000000	0.282772
1407.000000	0.282517
1408.000000	0.282121
1409.000000	0.281814
1410.000000	0.281526
1411.000000	0.281168
1412.000000	0.280830
1413.000000	0.280453
1414.000000	0.280009
1415.000000	0.279585
1416.000000	0.279132
1417.000000	0.278689
1418.000000	0.278225
1419.000000	0.277743
1420.000000	0.277242
1421.000000	0.276778
1422.000000	0.276284
1423.000000	0.275874
1424.000000	0.275399
1425.000000	0.274936
1426.000000	0.274479
1427.000000	0.273994
1428.000000	0.273523
1429.000000	0.273043
1430.000000	0.272587
1431.000000	0.272188
1432.000000	0.271747
1433.000000	0.271334
1434.000000	0.270905
1435.000000	0.270507
1436.000000	0.270104
1437.000000	0.269724
1438.000000	0.269284
1439.000000	0.268836
1440.000000	0.268449
1441.000000	0.268077
1442.000000	0.267720
1443.000000	0.267349
1444.000000	0.266987
1445.000000	0.266634
1446.000000	0.266304
1447.000000	0.266030
1448.000000	0.265732
1449.000000	0.265397
1450.000000	0.265081
1451.000000	0.264788
1452.000000	0.264478
1453.000000	0.264169
1454.000000	0.263866
1455.000000	0.263599
1456.000000	0.263408
1457.000000	0.263277
1458.000000	0.263158
1459.000000	0.263027
1460.000000	0.262917
1461.000000	0.262795
1462.000000	0.262671
1463.000000	0.262492
1464.000000	0.262315
1465.000000	0.262232
1466.000000	0.262110
1467.000000	0.262055
1468.000000	0.262035
1469.000000	0.261968
1470.000000	0.261882
1471.000000	0.261820
1472.000000	0.261711
1473.000000	0.261649
1474.000000	0.261584
1475.000000	0.261528
1476.000000	0.261498
1477.000000	0.261518
1478.000000	0.261547
1479.000000	0.261509
1480.000000	0.261495
1481.000000	0.261456
1482.000000	0.261393
1483.000000	0.261404
1484.000000	0.261447
1485.000000	0.261496
1486.000000	0.261588
1487.000000	0.261667
1488.000000	0.261755
1489.000000	0.261879
1490.000000	0.261915
1491.000000	0.262001
1492.000000	0.262096
1493.000000	0.262203
1494.000000	0.262287
1495.000000	0.262371
1496.000000	0.262435
1497.000000	0.262548
1498.000000	0.262699
1499.000000	0.262840
1500.000000	0.262996
1501.000000	0.263108
1502.000000	0.263160
1503.000000	0.263260
1504.000000	0.263401
1505.000000	0.263561
1506.000000	0.263737
1507.000000	0.263883
1508.000000	0.264049
1509.000000	0.264207
1510.000000	0.264311
1511.000000	0.264418
1512.000000	0.264497
1513.000000	0.264566
1514.000000	0.264688
1515.000000	0.264740
1516.000000	0.264784
1517.000000	0.264809
1518.000000	0.264799
1519.000000	0.264828
1520.000000	0.264921
1521.000000	0.264977
1522.000000	0.265067
1523.000000	0.265207
1524.000000	0.265285
1525.000000	0.265393
1526.000000	0.265544
1527.000000	0.265672
1528.000000	0.265778
1529.000000	0.265852
1530.000000	0.265844
1531.000000	0.265894
1532.000000	0.266014
1533.000000	0.266126
1534.000000	0.266253
1535.000000	0.266371
1536.000000	0.266400
1537.000000	0.266468
1538.000000	0.266559
1539.000000	0.266585
1540.000000	0.266644
1541.000000	0.266773
1542.000000	0.266863
1543.000000	0.266911
1544.000000	0.266941
1545.000000	0.266949
1546.000000	0.266948
1547.000000	0.266994
1548.000000	0.267085
1549.000000	0.267157
1550.000000	0.267219
1551.000000	0.267258
1552.000000	0.267292
1553.000000	0.267310
1554.000000	0.267303
1555.000000	0.267371
1556.000000	0.267417
1557.000000	0.267391
1558.000000	0.267416
1559.000000	0.267418
1560.000000	0.267393
1561.000000	0.267404
1562.000000	0.267371
1563.000000	0.267314
1564.000000	0.267303
1565.000000	0.267289
1566.000000	0.267253
1567.000000	0.267321
1568.000000	0.267364
1569.000000	0.267469
1570.000000	0.267523
1571.000000	0.267542
1572.000000	0.267558
1573.000000	0.267564
1574.000000	0.267561
1575.000000	0.267574
1576.000000	0.267597
1577.000000	0.267577
1578.000000	0.267543
1579.000000	0.267578
1580.000000	0.267579
1581.000000	0.267609
1582.000000	0.267621
1583.000000	0.267615
1584.000000	0.267575
1585.000000	0.267576
1586.000000	0.267579
1587.000000	0.267576
1588.000000	0.267571
1589.000000	0.267576
1590.000000	0.267555
1591.000000	0.267544
1592.000000	0.267527
1593.000000	0.267523
1594.000000	0.267487
1595.000000	0.267497
1596.000000	0.267440
1597.000000	0.267343
1598.000000	0.267261
1599.000000	0.267172
1600.000000	0.267069
1601.000000	0.267040
1602.000000	0.266969
1603.000000	0.266891
1604.000000	0.266809
1605.000000	0.266753
1606.000000	0.266645
1607.000000	0.266535
1608.000000	0.266440
1609.000000	0.266386
1610.000000	0.266283
1611.000000	0.266176
1612.000000	0.266098
1613.000000	0.266070
1614.000000	0.266027
1615.000000	0.266069
1616.000000	0.266122
1617.000000	0.266114
1618.000000	0.266139
1619.000000	0.266198
1620.000000	0.266252
1621.000000	0.266325
1622.000000	0.266456
1623.000000	0.266597
1624.000000	0.266707
1625.000000	0.266725
1626.000000	0.266738
1627.000000	0.266741
1628.000000	0.266792
1629.000000	0.266850
1630.000000	0.266906
1631.000000	0.266906
1632.000000	0.266934
1633.000000	0.266995
1634.000000	0.267038
1635.000000	0.267131
1636.000000	0.267165
1637.000000	0.267163
1638.000000	0.267161
1639.000000	0.267202
1640.000000	0.267198
1641.000000	0.267226
1642.000000	0.267230
1643.000000	0.267225
1644.000000	0.267225
1645.000000	0.267220
1646.000000	0.267191
1647.000000	0.267183
1648.000000	0.267139
1649.000000	0.267120
1650.000000	0.267177
1651.000000	0.267289
1652.000000	0.267414
1653.000000	0.267565
1654.000000	0.267701
1655.000000	0.267781
1656.000000	0.267793
1657.000000	0.267861
1658.000000	0.267893
1659.000000	0.267954
1660.000000	0.267997
1661.000000	0.267942
1662.000000	0.267946
1663.000000	0.267909
1664.000000	0.267941
1665.000000	0.268032
1666.000000	0.268172
1667.000000	0.268289
1668.000000	0.268389
1669.000000	0.268515
1670.000000	0.268556
1671.000000	0.268605
1672.000000	0.268740
1673.000000	0.268873
1674.000000	0.268966
1675.000000	0.269163
1676.000000	0.269302
1677.000000	0.269364
1678.000000	0.269470
1679.000000	0.269592
1680.000000	0.269670
1681.000000	0.269765
1682.000000	0.269904
1683.000000	0.270009
1684.000000	0.270065
1685.000000	0.270163
1686.000000	0.270211
1687.000000	0.270266
1688.000000	0.270314
1689.000000	0.270300
1690.000000	0.270221
1691.000000	0.270190
1692.000000	0.270082
1693.000000	0.270057
1694.000000	0.270099
1695.000000	0.270104
1696.000000	0.270107
1697.000000	0.270079
1698.000000	0.270047
1699.000000	0.270061
1700.000000	0.270101
1701.000000	0.270207
1702.000000	0.270217
1703.000000	0.270205
1704.000000	0.270287
1705.000000	0.270326
1706.000000	0.270321
1707.000000	0.270392
1708.000000	0.270494
1709.000000	0.270509
1710.000000	0.270597
1711.000000	0.270693
1712.000000	0.270762
1713.000000	0.270834
1714.000000	0.270994
1715.000000	0.271108
1716.000000	0.271200
1717.000000	0.271265
1718.000000	0.271276
1719.000000	0.271305
1720.000000	0.271346
1721.000000	0.271399
1722.000000	0.271478
1723.000000	0.271565
1724.000000	0.271693
1725.000000	0.271798
1726.000000	0.271829
1727.000000	0.271890
1728.000000	0.271880
1729.000000	0.271877
1730.000000	0.272031
1731.000000	0.272085
1732.000000	0.272099
1733.000000	0.272187
1734.000000	0.272146
1735.000000	0.272184
1736.000000	0.272260
1737.000000	0.272314
1738.000000	0.272377
1739.000000	0.272465
1740.000000	0.272568
1741.000000	0.272614
1742.000000	0.272651
1743.000000	0.272762
1744.000000	0.272863
1745.000000	0.272897
1746.000000	0.272946
1747.000000	0.272965
1748.000000	0.272928
1749.000000	0.272880
1750.000000	0.272879
1751.000000	0.272998
1752.000000	0.273134
1753.000000	0.273236
1754.000000	0.273324
1755.000000	0.273284
1756.000000	0.273304
1757.000000	0.273395
1758.000000	0.273462
1759.000000	0.273512
1760.000000	0.273570
1761.000000	0.273597
1762.000000	0.273606
1763.000000	0.273637
1764.000000	0.273648
1765.000000	0.273564
1766.000000	0.273576
1767.000000	0.273584
1768.000000	0.273540
1769.000000	0.273608
1770.000000	0.273639
1771.000000	0.273550
1772.000000	0.273543
1773.000000	0.273496
1774.000000	0.273552
1775.000000	0.273739
1776.000000	0.273890
1777.000000	0.274079
1778.000000	0.274193
1779.000000	0.274234
1780.000000	0.274358
1781.000000	0.274477
1782.000000	0.274568
1783.000000	0.274711
1784.000000	0.274891
1785.000000	0.274957
1786.000000	0.275078
1787.000000	0.275309
1788.000000	0.275438
1789.000000	0.275468
1790.000000	0.275490
1791.000000	0.275506
1792.000000	0.275580
1793.000000	0.275642
1794.000000	0.275730
1795.000000	0.275847
1796.000000	0.275971
1797.000000	0.276068
1798.000000	0.276143
1799.000000	0.276251
1800.000000	0.276408
1801.000000	0.276246
1802.000000	0.276368
1803.000000	0.276188
1804.000000	0.276429
1805.000000	0.277154
1806.000000	0.277371
1807.000000	0.277549
1808.000000	0.277553
1809.000000	0.277217
1810.000000	0.276744
1811.000000	0.276631
1812.000000	0.276721
1813.000000	0.276677
1814.000000	0.276803
1815.000000	0.276790
1816.000000	0.276632
1817.000000	0.276395
1818.000000	0.275973
1819.000000	0.276043
1820.000000	0.276054
1821.000000	0.276062
1822.000000	0.276008
1823.000000	0.275863
1824.000000	0.275826
1825.000000	0.275589
1826.000000	0.275651
1827.000000	0.275795
1828.000000	0.276270
1829.000000	0.276326
1830.000000	0.276549
1831.000000	0.276537
1832.000000	0.276176
1833.000000	0.276166
1834.000000	0.276198
1835.000000	0.276255
1836.000000	0.276549
1837.000000	0.276602
1838.000000	0.276474
1839.000000	0.276335
1840.000000	0.275789
1841.000000	0.275329
1842.000000	0.275018
1843.000000	0.274492
1844.000000	0.274398
1845.000000	0.274704
1846.000000	0.274791
1847.000000	0.274805
1848.000000	0.274807
1849.000000	0.274970
1850.000000	0.274879
1851.000000	0.274838
1852.000000	0.274860
1853.000000	0.274847
1854.000000	0.274544
1855.000000	0.274288
1856.000000	0.273953
1857.000000	0.273735
1858.000000	0.273329
1859.000000	0.272972
1860.000000	0.272970
1861.000000	0.272764
1862.000000	0.272400
1863.000000	0.272143
1864.000000	0.271660
1865.000000	0.270669
1866.000000	0.270151
1867.000000	0.269757
1868.000000	0.269294
1869.000000	0.269033
1870.000000	0.268857
1871.000000	0.268369
1872.000000	0.268045
1873.000000	0.267744
1874.000000	0.267512
1875.000000	0.267145
1876.000000	0.266698
1877.000000	0.265705
1878.000000	0.264712
1879.000000	0.263788
1880.000000	0.262869
1881.000000	0.262151
1882.000000	0.261249
1883.000000	0.260270
1884.000000	0.259404
1885.000000	0.258279
1886.000000	0.257247
1887.000000	0.256396
1888.000000	0.255241
1889.000000	0.254025
1890.000000	0.253142
1891.000000	0.252057
1892.000000	0.250959
1893.000000	0.249827
1894.000000	0.248346
1895.000000	0.246815
1896.000000	0.245293
1897.000000	0.243809
1898.000000	0.242096
1899.000000	0.240899
1900.000000	0.239834
1901.000000	0.238430
1902.000000	0.237094
1903.000000	0.235622
1904.000000	0.234044
1905.000000	0.232430
1906.000000	0.230805
1907.000000	0.229203
1908.000000	0.227608
1909.000000	0.226193
1910.000000	0.225052
1911.000000	0.223642
1912.000000	0.222130
1913.000000	0.220804
1914.000000	0.219332
1915.000000	0.217914
1916.000000	0.216851
1917.000000	0.215569
1918.000000	0.214192
1919.000000	0.212874
1920.000000	0.211729
1921.000000	0.210580
1922.000000	0.209648
1923.000000	0.208739
1924.000000	0.207840
1925.000000	0.207093
1926.000000	0.206518
1927.000000	0.205962
1928.000000	0.205310
1929.000000	0.204743
1930.000000	0.204161
1931.000000	0.203395
1932.000000	0.202916
1933.000000	0.202744
1934.000000	0.202384
1935.000000	0.202162
1936.000000	0.201948
1937.000000	0.201526
1938.000000	0.200974
1939.000000	0.200520
1940.000000	0.200023
1941.000000	0.199682
1942.000000	0.199462
1943.000000	0.199572
1944.000000	0.199701
1945.000000	0.199565
1946.000000	0.199410
1947.000000	0.199213
1948.000000	0.199112
1949.000000	0.199148
1950.000000	0.199201
1951.000000	0.199085
1952.000000	0.198973
1953.000000	0.198664
1954.000000	0.198386
1955.000000	0.198185
1956.000000	0.198034
1957.000000	0.197980
1958.000000	0.197859
1959.000000	0.197747
1960.000000	0.197761
1961.000000	0.197711
1962.000000	0.197574
1963.000000	0.197508
1964.000000	0.197331
1965.000000	0.196935
1966.000000	0.196716
1967.000000	0.196542
1968.000000	0.196447
1969.000000	0.196375
1970.000000	0.196412
1971.000000	0.196522
1972.000000	0.196618
1973.000000	0.196587
1974.000000	0.196524
1975.000000	0.196539
1976.000000	0.196544
1977.000000	0.196587
1978.000000	0.196627
1979.000000	0.197037
1980.000000	0.197482
1981.000000	0.197886
1982.000000	0.198232
1983.000000	0.198543
1984.000000	0.198679
1985.000000	0.198482
1986.000000	0.198500
1987.000000	0.198668
1988.000000	0.198701
1989.000000	0.198677
1990.000000	0.198784
1991.000000	0.198740
1992.000000	0.198901
1993.000000	0.199236
1994.000000	0.199721
1995.000000	0.200171
1996.000000	0.200455
1997.000000	0.200767
1998.000000	0.200952
1999.000000	0.201304
2000.000000	0.201739
2001.000000	0.202257
2002.000000	0.202705
2003.000000	0.203265
2004.000000	0.203572
2005.000000	0.203667
2006.000000	0.203943
2007.000000	0.204168
2008.000000	0.204515
2009.000000	0.205044
2010.000000	0.205497
2011.000000	0.205919
2012.000000	0.206224
2013.000000	0.206424
2014.000000	0.206421
2015.000000	0.206680
2016.000000	0.206982
2017.000000	0.207327
2018.000000	0.207896
2019.000000	0.208430
2020.000000	0.208669
2021.000000	0.209013
2022.000000	0.209383
2023.000000	0.209740
2024.000000	0.210034
2025.000000	0.210521
2026.000000	0.211113
2027.000000	0.211386
2028.000000	0.211763
2029.000000	0.212392
2030.000000	0.212872
2031.000000	0.213316
2032.000000	0.213938
2033.000000	0.214378
2034.000000	0.214717
2035.000000	0.215075
2036.000000	0.215269
2037.000000	0.215284
2038.000000	0.215543
2039.000000	0.215918
2040.000000	0.216266
2041.000000	0.216647
2042.000000	0.217141
2043.000000	0.217303
2044.000000	0.217369
2045.000000	0.217764
2046.000000	0.217885
2047.000000	0.218174
2048.000000	0.218557
2049.000000	0.219103
2050.000000	0.219503
2051.000000	0.219888
2052.000000	0.220444
2053.000000	0.220668
2054.000000	0.220822
2055.000000	0.220966
2056.000000	0.221064
2057.000000	0.221173
2058.000000	0.221663
2059.000000	0.222098
2060.000000	0.222374
2061.000000	0.222697
2062.000000	0.222906
2063.000000	0.222882
2064.000000	0.222965
2065.000000	0.223269
2066.000000	0.223467
2067.000000	0.223789
2068.000000	0.224243
2069.000000	0.224607
2070.000000	0.225118
2071.000000	0.225600
2072.000000	0.226015
2073.000000	0.226440
2074.000000	0.226855
2075.000000	0.227177
2076.000000	0.227356
2077.000000	0.227586
2078.000000	0.227773
2079.000000	0.227940
2080.000000	0.228100
2081.000000	0.228398
2082.000000	0.228738
2083.000000	0.229152
2084.000000	0.229544
2085.000000	0.229859
2086.000000	0.230280
2087.000000	0.230642
2088.000000	0.231163
2089.000000	0.231830
2090.000000	0.232249
2091.000000	0.232569
2092.000000	0.232866
2093.000000	0.232943
2094.000000	0.233257
2095.000000	0.233706
2096.000000	0.234229
2097.000000	0.235035
2098.000000	0.235335
2099.000000	0.235732
2100.000000	0.235995
2101.000000	0.235978
2102.000000	0.236322
2103.000000	0.236635
2104.000000	0.236894
2105.000000	0.237233
2106.000000	0.237667
2107.000000	0.238024
2108.000000	0.238292
2109.000000	0.238716
2110.000000	0.239124
2111.000000	0.239464
2112.000000	0.239802
2113.000000	0.239987
2114.000000	0.240137
2115.000000	0.240143
2116.000000	0.240273
2117.000000	0.240343
2118.000000	0.240366
2119.000000	0.240570
2120.000000	0.240873
2121.000000	0.241326
2122.000000	0.241694
2123.000000	0.242323
2124.000000	0.242491
2125.000000	0.242301
2126.000000	0.242264
2127.000000	0.241966
2128.000000	0.241987
2129.000000	0.242047
2130.000000	0.242425
2131.000000	0.242647
2132.000000	0.242970
2133.000000	0.243396
2134.000000	0.243674
2135.000000	0.243832
2136.000000	0.243821
2137.000000	0.243888
2138.000000	0.243866
2139.000000	0.243909
2140.000000	0.243982
2141.000000	0.244123
2142.000000	0.244166
2143.000000	0.244234
2144.000000	0.244667
2145.000000	0.244994
2146.000000	0.245280
2147.000000	0.246038
2148.000000	0.246519
2149.000000	0.246580
2150.000000	0.246544
2151.000000	0.246189
2152.000000	0.245905
2153.000000	0.245900
2154.000000	0.245912
2155.000000	0.246292
2156.000000	0.246383
2157.000000	0.246363
2158.000000	0.246365
2159.000000	0.246253
2160.000000	0.246375
2161.000000	0.246666
2162.000000	0.246938
2163.000000	0.247330
2164.000000	0.247452
2165.000000	0.247455
2166.000000	0.247283
2167.000000	0.246946
2168.000000	0.247040
2169.000000	0.247054
2170.000000	0.247024
2171.000000	0.247054
2172.000000	0.247226
2173.000000	0.247059
2174.000000	0.246662
2175.000000	0.246534
2176.000000	0.246232
2177.000000	0.246266
2178.000000	0.246782
2179.000000	0.247183
2180.000000	0.247517
2181.000000	0.248149
2182.000000	0.248711
2183.000000	0.248910
2184.000000	0.249053
2185.000000	0.249170
2186.000000	0.248465
2187.000000	0.247903
2188.000000	0.247541
2189.000000	0.247038
2190.000000	0.247006
2191.000000	0.247433
2192.000000	0.247553
2193.000000	0.247673
2194.000000	0.247684
2195.000000	0.247615
2196.000000	0.247559
2197.000000	0.247447
2198.000000	0.247296
2199.000000	0.247082
2200.000000	0.247203
2201.000000	0.247367
2202.000000	0.247696
2203.000000	0.248218
2204.000000	0.248637
2205.000000	0.249290
2206.000000	0.249909
2207.000000	0.251455
2208.000000	0.252777
2209.000000	0.252904
2210.000000	0.253434
2211.000000	0.252698
2212.000000	0.251593
2213.000000	0.250796
2214.000000	0.249705
2215.000000	0.249314
2216.000000	0.249181
2217.000000	0.249392
2218.000000	0.250353
2219.000000	0.250970
2220.000000	0.251956
2221.000000	0.252398
2222.000000	0.252323
2223.000000	0.252550
2224.000000	0.252834
2225.000000	0.252685
2226.000000	0.252688
2227.000000	0.252513
2228.000000	0.252562
2229.000000	0.252548
2230.000000	0.253172
2231.000000	0.253776
2232.000000	0.252934
2233.000000	0.252755
2234.000000	0.252096
2235.000000	0.251124
2236.000000	0.250477
2237.000000	0.250090
2238.000000	0.249914
2239.000000	0.249713
2240.000000	0.249677
2241.000000	0.249963
2242.000000	0.249994
2243.000000	0.250037
2244.000000	0.250142
2245.000000	0.250303
2246.000000	0.250730
2247.000000	0.251444
2248.000000	0.251443
2249.000000	0.251506
2250.000000	0.250899
2251.000000	0.249793
2252.000000	0.249223
2253.000000	0.249709
2254.000000	0.250463
2255.000000	0.251088
2256.000000	0.252305
2257.000000	0.253197
2258.000000	0.253098
2259.000000	0.252689
2260.000000	0.251998
2261.000000	0.251426
2262.000000	0.250383
2263.000000	0.250068
2264.000000	0.250424
2265.000000	0.250123
2266.000000	0.249696
2267.000000	0.249224
2268.000000	0.248402
2269.000000	0.247935
2270.000000	0.247518
2271.000000	0.247135
2272.000000	0.246936
2273.000000	0.246885
2274.000000	0.246820
2275.000000	0.247022
2276.000000	0.247635
2277.000000	0.247689
2278.000000	0.248029
2279.000000	0.248420
2280.000000	0.248522
2281.000000	0.248273
2282.000000	0.247840
2283.000000	0.247796
2284.000000	0.247903
2285.000000	0.247584
2286.000000	0.247581
2287.000000	0.247160
2288.000000	0.246134
2289.000000	0.245445
2290.000000	0.244917
2291.000000	0.244736
2292.000000	0.244863
2293.000000	0.244563
2294.000000	0.243982
2295.000000	0.242643
2296.000000	0.242153
2297.000000	0.241903
2298.000000	0.241621
2299.000000	0.241629
2300.000000	0.241386
2301.000000	0.240828
2302.000000	0.240471
2303.000000	0.240400
2304.000000	0.240104
2305.000000	0.239752
2306.000000	0.239360
2307.000000	0.238523
2308.000000	0.238466
2309.000000	0.238622
2310.000000	0.238921
2311.000000	0.239835
2312.000000	0.239811
2313.000000	0.238703
2314.000000	0.237216
2315.000000	0.235865
2316.000000	0.234609
2317.000000	0.234250
2318.000000	0.235264
2319.000000	0.236118
2320.000000	0.236734
2321.000000	0.237026
2322.000000	0.236155
2323.000000	0.234866
2324.000000	0.233666
2325.000000	0.232908
2326.000000	0.232275
2327.000000	0.231581
2328.000000	0.231195
2329.000000	0.230811
2330.000000	0.229798
2331.000000	0.228966
2332.000000	0.229047
2333.000000	0.228510
2334.000000	0.228846
2335.000000	0.229012
2336.000000	0.228076
2337.000000	0.227569
2338.000000	0.227638
2339.000000	0.227249
2340.000000	0.227109
2341.000000	0.226829
2342.000000	0.226207
2343.000000	0.225558
2344.000000	0.224452
2345.000000	0.223666
2346.000000	0.223229
2347.000000	0.222649
2348.000000	0.222235
2349.000000	0.221387
2350.000000	0.220211
2351.000000	0.219281
2352.000000	0.218059
2353.000000	0.218492
2354.000000	0.219393
2355.000000	0.219240
2356.000000	0.219584
2357.000000	0.219136
2358.000000	0.218246
2359.000000	0.219079
2360.000000	0.219170
2361.000000	0.218766
2362.000000	0.218257
2363.000000	0.216517
2364.000000	0.214929
2365.000000	0.214467
2366.000000	0.214817
2367.000000	0.213945
2368.000000	0.212829
2369.000000	0.212014
2370.000000	0.209545
2371.000000	0.208384
2372.000000	0.208009
2373.000000	0.207360
2374.000000	0.207710
2375.000000	0.207385
2376.000000	0.207790
2377.000000	0.208630
2378.000000	0.208922
2379.000000	0.209814
2380.000000	0.209902
2381.000000	0.208702
2382.000000	0.206360
2383.000000	0.205404
2384.000000	0.205369
2385.000000	0.204137
2386.000000	0.204916
2387.000000	0.205506
2388.000000	0.204986
2389.000000	0.205875
2390.000000	0.204724
2391.000000	0.202482
2392.000000	0.200813
2393.000000	0.198489
2394.000000	0.198482
2395.000000	0.199485
2396.000000	0.200002
2397.000000	0.201368
2398.000000	0.200861
2399.000000	0.199579
2400.000000	0.199007
2401.000000	0.199343
2402.000000	0.200696
2403.000000	0.202654
2404.000000	0.205837
2405.000000	0.203689
2406.000000	0.200408
2407.000000	0.199765
2408.000000	0.195744
2409.000000	0.194309
2410.000000	0.195536
2411.000000	0.195627
2412.000000	0.196092
2413.000000	0.197789
2414.000000	0.199215
2415.000000	0.199086
2416.000000	0.198687
2417.000000	0.197342
2418.000000	0.198085
2419.000000	0.197990
2420.000000	0.197898
2421.000000	0.199316
2422.000000	0.196202
2423.000000	0.194793
2424.000000	0.195736
2425.000000	0.193649
2426.000000	0.193134
2427.000000	0.194377
2428.000000	0.194296
2429.000000	0.196705
2430.000000	0.200545
2431.000000	0.200875
2432.000000	0.198442
2433.000000	0.195218
2434.000000	0.194373
2435.000000	0.195016
2436.000000	0.196471
2437.000000	0.200200
2438.000000	0.199312
2439.000000	0.196035
2440.000000	0.196610
2441.000000	0.193489
2442.000000	0.189682
2443.000000	0.186617
2444.000000	0.181021
2445.000000	0.180120
2446.000000	0.180019
2447.000000	0.179653
2448.000000	0.179629
2449.000000	0.178017
2450.000000	0.179469
2451.000000	0.186536
2452.000000	0.194153
2453.000000	0.193417
2454.000000	0.192736
2455.000000	0.190991
2456.000000	0.183482
2457.000000	0.183335
2458.000000	0.188711
2459.000000	0.193423
2460.000000	0.200347
2461.000000	0.208771
2462.000000	0.209738
2463.000000	0.201239
2464.000000	0.196411
2465.000000	0.192207
2466.000000	0.185327
2467.000000	0.187261
2468.000000	0.188656
2469.000000	0.184133
2470.000000	0.190758
2471.000000	0.194060
2472.000000	0.195321
2473.000000	0.207405
2474.000000	0.211161
2475.000000	0.216980
2476.000000	0.218643
2477.000000	0.215120
2478.000000	0.213078
2479.000000	0.202734
2480.000000	0.204924
2481.000000	0.205028
2482.000000	0.204952
2483.000000	0.207113
2484.000000	0.200440
2485.000000	0.206558
2486.000000	0.201182
2487.000000	0.207933
2488.000000	0.220530
2489.000000	0.198380
2490.000000	0.188159
2491.000000	0.192334
2492.000000	0.182403
2493.000000	0.188429
2494.000000	0.190115
2495.000000	0.162946
2496.000000	0.147433
2497.000000	0.132769
2498.000000	0.132019
2499.000000	0.153504
2500.000000	0.165079
