# Wavelength	Hexa90_00001.asd.rts.txt
350.000000	0.365890
351.000000	0.361664
352.000000	0.360642
353.000000	0.358873
354.000000	0.358537
355.000000	0.362791
356.000000	0.366864
357.000000	0.369521
358.000000	0.364978
359.000000	0.362805
360.000000	0.364277
361.000000	0.367294
362.000000	0.367403
363.000000	0.367834
364.000000	0.369893
365.000000	0.372830
366.000000	0.373351
367.000000	0.371579
368.000000	0.371624
369.000000	0.373669
370.000000	0.375464
371.000000	0.374644
372.000000	0.375412
373.000000	0.376748
374.000000	0.378031
375.000000	0.377758
376.000000	0.378157
377.000000	0.379222
378.000000	0.379304
379.000000	0.378852
380.000000	0.378768
381.000000	0.381002
382.000000	0.381526
383.000000	0.381078
384.000000	0.381145
385.000000	0.382006
386.000000	0.383422
387.000000	0.384863
388.000000	0.384761
389.000000	0.384444
390.000000	0.384519
391.000000	0.384858
392.000000	0.385482
393.000000	0.386021
394.000000	0.386416
395.000000	0.387888
396.000000	0.389245
397.000000	0.389738
398.000000	0.389108
399.000000	0.389284
400.000000	0.390171
401.000000	0.390592
402.000000	0.391220
403.000000	0.391586
404.000000	0.391646
405.000000	0.392582
406.000000	0.393673
407.000000	0.394411
408.000000	0.394332
409.000000	0.394506
410.000000	0.395074
411.000000	0.395590
412.000000	0.395692
413.000000	0.395867
414.000000	0.396617
415.000000	0.397064
416.000000	0.397335
417.000000	0.397645
418.000000	0.398268
419.000000	0.398670
420.000000	0.398882
421.000000	0.399390
422.000000	0.399914
423.000000	0.400240
424.000000	0.400380
425.000000	0.400865
426.000000	0.401417
427.000000	0.401741
428.000000	0.401906
429.000000	0.402223
430.000000	0.402698
431.000000	0.402892
432.000000	0.403188
433.000000	0.403488
434.000000	0.403675
435.000000	0.403909
436.000000	0.404137
437.000000	0.404280
438.000000	0.404545
439.000000	0.404739
440.000000	0.404949
441.000000	0.405288
442.000000	0.405593
443.000000	0.405727
444.000000	0.405849
445.000000	0.406123
446.000000	0.406606
447.000000	0.406986
448.000000	0.407179
449.000000	0.407437
450.000000	0.407885
451.000000	0.408132
452.000000	0.408344
453.000000	0.408520
454.000000	0.408869
455.000000	0.409184
456.000000	0.409529
457.000000	0.409779
458.000000	0.410204
459.000000	0.410683
460.000000	0.411102
461.000000	0.411186
462.000000	0.411389
463.000000	0.411670
464.000000	0.411996
465.000000	0.412258
466.000000	0.412415
467.000000	0.412702
468.000000	0.413019
469.000000	0.413209
470.000000	0.413411
471.000000	0.413653
472.000000	0.413879
473.000000	0.414102
474.000000	0.414355
475.000000	0.414449
476.000000	0.414619
477.000000	0.414996
478.000000	0.415156
479.000000	0.415434
480.000000	0.415845
481.000000	0.416026
482.000000	0.416275
483.000000	0.416537
484.000000	0.416888
485.000000	0.417098
486.000000	0.417336
487.000000	0.417497
488.000000	0.417690
489.000000	0.417991
490.000000	0.418417
491.000000	0.418719
492.000000	0.419029
493.000000	0.419318
494.000000	0.419510
495.000000	0.419753
496.000000	0.420085
497.000000	0.420514
498.000000	0.420840
499.000000	0.421123
500.000000	0.421408
501.000000	0.421648
502.000000	0.421944
503.000000	0.422306
504.000000	0.422586
505.000000	0.422825
506.000000	0.423093
507.000000	0.423354
508.000000	0.423648
509.000000	0.423944
510.000000	0.424331
511.000000	0.424674
512.000000	0.424991
513.000000	0.425322
514.000000	0.425665
515.000000	0.426036
516.000000	0.426345
517.000000	0.426633
518.000000	0.427001
519.000000	0.427362
520.000000	0.427675
521.000000	0.427967
522.000000	0.428262
523.000000	0.428542
524.000000	0.428864
525.000000	0.429187
526.000000	0.429492
527.000000	0.429773
528.000000	0.430012
529.000000	0.430284
530.000000	0.430575
531.000000	0.430952
532.000000	0.431288
533.000000	0.431515
534.000000	0.431793
535.000000	0.432134
536.000000	0.432476
537.000000	0.432828
538.000000	0.433166
539.000000	0.433437
540.000000	0.433695
541.000000	0.433956
542.000000	0.434274
543.000000	0.434560
544.000000	0.434871
545.000000	0.435134
546.000000	0.435423
547.000000	0.435769
548.000000	0.436175
549.000000	0.436462
550.000000	0.436762
551.000000	0.437105
552.000000	0.437411
553.000000	0.437722
554.000000	0.438037
555.000000	0.438373
556.000000	0.438780
557.000000	0.439122
558.000000	0.439528
559.000000	0.439862
560.000000	0.440164
561.000000	0.440548
562.000000	0.440918
563.000000	0.441216
564.000000	0.441542
565.000000	0.441842
566.000000	0.442205
567.000000	0.442572
568.000000	0.442881
569.000000	0.443217
570.000000	0.443544
571.000000	0.443843
572.000000	0.444159
573.000000	0.444509
574.000000	0.444839
575.000000	0.445170
576.000000	0.445530
577.000000	0.445842
578.000000	0.446154
579.000000	0.446513
580.000000	0.446856
581.000000	0.447154
582.000000	0.447434
583.000000	0.447723
584.000000	0.448045
585.000000	0.448423
586.000000	0.448791
587.000000	0.449141
588.000000	0.449490
589.000000	0.449892
590.000000	0.450300
591.000000	0.450670
592.000000	0.450986
593.000000	0.451304
594.000000	0.451623
595.000000	0.451891
596.000000	0.452083
597.000000	0.452284
598.000000	0.452461
599.000000	0.452583
600.000000	0.452787
601.000000	0.453041
602.000000	0.453249
603.000000	0.453404
604.000000	0.453540
605.000000	0.453724
606.000000	0.453853
607.000000	0.453940
608.000000	0.454070
609.000000	0.454270
610.000000	0.454522
611.000000	0.454787
612.000000	0.455015
613.000000	0.455216
614.000000	0.455443
615.000000	0.455604
616.000000	0.455728
617.000000	0.455809
618.000000	0.455974
619.000000	0.456159
620.000000	0.456315
621.000000	0.456499
622.000000	0.456704
623.000000	0.456921
624.000000	0.457134
625.000000	0.457328
626.000000	0.457556
627.000000	0.457847
628.000000	0.458195
629.000000	0.458619
630.000000	0.458917
631.000000	0.459218
632.000000	0.459503
633.000000	0.459780
634.000000	0.460029
635.000000	0.460234
636.000000	0.460408
637.000000	0.460531
638.000000	0.460618
639.000000	0.460704
640.000000	0.460863
641.000000	0.460947
642.000000	0.461062
643.000000	0.461230
644.000000	0.461439
645.000000	0.461554
646.000000	0.461685
647.000000	0.461862
648.000000	0.461973
649.000000	0.462115
650.000000	0.462289
651.000000	0.462476
652.000000	0.462622
653.000000	0.462785
654.000000	0.462946
655.000000	0.463140
656.000000	0.463377
657.000000	0.463573
658.000000	0.463802
659.000000	0.464041
660.000000	0.464255
661.000000	0.464478
662.000000	0.464640
663.000000	0.464820
664.000000	0.465014
665.000000	0.465189
666.000000	0.465362
667.000000	0.465516
668.000000	0.465717
669.000000	0.465955
670.000000	0.466199
671.000000	0.466332
672.000000	0.466463
673.000000	0.466621
674.000000	0.466800
675.000000	0.466987
676.000000	0.467190
677.000000	0.467434
678.000000	0.467617
679.000000	0.467769
680.000000	0.467936
681.000000	0.468086
682.000000	0.468305
683.000000	0.468486
684.000000	0.468690
685.000000	0.468845
686.000000	0.468999
687.000000	0.469156
688.000000	0.469331
689.000000	0.469494
690.000000	0.469676
691.000000	0.469890
692.000000	0.470053
693.000000	0.470246
694.000000	0.470449
695.000000	0.470680
696.000000	0.470901
697.000000	0.471065
698.000000	0.471280
699.000000	0.471495
700.000000	0.471679
701.000000	0.471910
702.000000	0.472150
703.000000	0.472340
704.000000	0.472465
705.000000	0.472635
706.000000	0.472809
707.000000	0.473021
708.000000	0.473185
709.000000	0.473328
710.000000	0.473510
711.000000	0.473680
712.000000	0.473829
713.000000	0.473991
714.000000	0.474175
715.000000	0.474332
716.000000	0.474495
717.000000	0.474685
718.000000	0.474893
719.000000	0.475084
720.000000	0.475256
721.000000	0.475424
722.000000	0.475545
723.000000	0.475699
724.000000	0.475841
725.000000	0.475916
726.000000	0.476063
727.000000	0.476230
728.000000	0.476385
729.000000	0.476532
730.000000	0.476617
731.000000	0.476773
732.000000	0.476930
733.000000	0.477100
734.000000	0.477207
735.000000	0.477295
736.000000	0.477507
737.000000	0.477618
738.000000	0.477635
739.000000	0.477748
740.000000	0.477815
741.000000	0.477869
742.000000	0.477973
743.000000	0.478102
744.000000	0.478269
745.000000	0.478375
746.000000	0.478491
747.000000	0.478583
748.000000	0.478733
749.000000	0.478914
750.000000	0.479039
751.000000	0.479127
752.000000	0.479187
753.000000	0.479263
754.000000	0.479385
755.000000	0.479501
756.000000	0.479623
757.000000	0.479712
758.000000	0.479894
759.000000	0.480100
760.000000	0.480184
761.000000	0.480296
762.000000	0.480370
763.000000	0.480404
764.000000	0.480552
765.000000	0.480616
766.000000	0.480678
767.000000	0.480824
768.000000	0.480972
769.000000	0.481090
770.000000	0.481183
771.000000	0.481290
772.000000	0.481473
773.000000	0.481578
774.000000	0.481600
775.000000	0.481673
776.000000	0.481790
777.000000	0.481897
778.000000	0.482010
779.000000	0.482081
780.000000	0.482118
781.000000	0.482144
782.000000	0.482130
783.000000	0.482222
784.000000	0.482298
785.000000	0.482402
786.000000	0.482450
787.000000	0.482430
788.000000	0.482504
789.000000	0.482614
790.000000	0.482700
791.000000	0.482768
792.000000	0.482843
793.000000	0.482882
794.000000	0.482880
795.000000	0.482944
796.000000	0.483003
797.000000	0.483022
798.000000	0.483020
799.000000	0.483113
800.000000	0.483242
801.000000	0.483314
802.000000	0.483374
803.000000	0.483470
804.000000	0.483630
805.000000	0.483632
806.000000	0.483501
807.000000	0.483456
808.000000	0.483559
809.000000	0.483702
810.000000	0.483845
811.000000	0.483940
812.000000	0.483988
813.000000	0.484018
814.000000	0.484043
815.000000	0.484093
816.000000	0.484020
817.000000	0.483954
818.000000	0.483918
819.000000	0.483934
820.000000	0.484018
821.000000	0.484091
822.000000	0.484181
823.000000	0.484219
824.000000	0.484158
825.000000	0.484162
826.000000	0.484192
827.000000	0.484168
828.000000	0.484119
829.000000	0.484054
830.000000	0.483977
831.000000	0.483976
832.000000	0.483920
833.000000	0.483926
834.000000	0.483985
835.000000	0.484092
836.000000	0.484073
837.000000	0.484046
838.000000	0.484042
839.000000	0.483954
840.000000	0.483894
841.000000	0.483884
842.000000	0.483853
843.000000	0.483821
844.000000	0.483834
845.000000	0.483865
846.000000	0.483923
847.000000	0.483927
848.000000	0.483867
849.000000	0.483827
850.000000	0.483884
851.000000	0.483874
852.000000	0.483815
853.000000	0.483806
854.000000	0.483677
855.000000	0.483619
856.000000	0.483583
857.000000	0.483420
858.000000	0.483404
859.000000	0.483466
860.000000	0.483328
861.000000	0.483261
862.000000	0.483280
863.000000	0.483197
864.000000	0.483164
865.000000	0.483113
866.000000	0.483046
867.000000	0.482979
868.000000	0.482894
869.000000	0.482740
870.000000	0.482633
871.000000	0.482489
872.000000	0.482335
873.000000	0.482149
874.000000	0.482144
875.000000	0.482069
876.000000	0.481927
877.000000	0.481721
878.000000	0.481498
879.000000	0.481392
880.000000	0.481232
881.000000	0.481050
882.000000	0.480932
883.000000	0.480912
884.000000	0.480869
885.000000	0.480717
886.000000	0.480472
887.000000	0.480231
888.000000	0.480059
889.000000	0.479932
890.000000	0.479749
891.000000	0.479730
892.000000	0.479649
893.000000	0.479509
894.000000	0.479476
895.000000	0.479305
896.000000	0.479083
897.000000	0.478850
898.000000	0.478626
899.000000	0.478354
900.000000	0.478120
901.000000	0.477926
902.000000	0.477873
903.000000	0.477800
904.000000	0.477732
905.000000	0.477568
906.000000	0.477419
907.000000	0.477232
908.000000	0.477083
909.000000	0.476895
910.000000	0.476755
911.000000	0.476625
912.000000	0.476475
913.000000	0.476277
914.000000	0.476094
915.000000	0.475951
916.000000	0.475600
917.000000	0.475406
918.000000	0.475254
919.000000	0.475040
920.000000	0.475081
921.000000	0.474995
922.000000	0.474774
923.000000	0.474542
924.000000	0.474201
925.000000	0.473922
926.000000	0.473810
927.000000	0.473632
928.000000	0.473392
929.000000	0.473121
930.000000	0.472885
931.000000	0.472771
932.000000	0.472640
933.000000	0.472460
934.000000	0.472158
935.000000	0.471896
936.000000	0.471729
937.000000	0.471497
938.000000	0.471202
939.000000	0.470992
940.000000	0.470769
941.000000	0.470557
942.000000	0.470272
943.000000	0.470083
944.000000	0.469892
945.000000	0.469779
946.000000	0.469525
947.000000	0.469287
948.000000	0.469144
949.000000	0.468805
950.000000	0.468531
951.000000	0.468292
952.000000	0.467969
953.000000	0.467771
954.000000	0.467604
955.000000	0.467292
956.000000	0.467050
957.000000	0.466900
958.000000	0.466703
959.000000	0.466476
960.000000	0.466275
961.000000	0.466057
962.000000	0.465756
963.000000	0.465388
964.000000	0.465088
965.000000	0.464883
966.000000	0.464597
967.000000	0.464424
968.000000	0.464120
969.000000	0.463734
970.000000	0.463602
971.000000	0.463287
972.000000	0.463018
973.000000	0.462806
974.000000	0.462629
975.000000	0.462399
976.000000	0.462146
977.000000	0.461905
978.000000	0.461661
979.000000	0.461656
980.000000	0.461467
981.000000	0.461217
982.000000	0.460988
983.000000	0.460791
984.000000	0.460694
985.000000	0.460578
986.000000	0.460358
987.000000	0.460237
988.000000	0.460113
989.000000	0.459729
990.000000	0.459508
991.000000	0.459425
992.000000	0.459388
993.000000	0.459431
994.000000	0.459232
995.000000	0.459086
996.000000	0.459085
997.000000	0.459254
998.000000	0.459231
999.000000	0.459040
1000.000000	0.458927
1001.000000	0.459188
1002.000000	0.458996
1003.000000	0.459014
1004.000000	0.458943
1005.000000	0.458752
1006.000000	0.458416
1007.000000	0.458082
1008.000000	0.457869
1009.000000	0.457667
1010.000000	0.457492
1011.000000	0.457799
1012.000000	0.458065
1013.000000	0.457681
1014.000000	0.457471
1015.000000	0.457361
1016.000000	0.457338
1017.000000	0.457331
1018.000000	0.457446
1019.000000	0.457556
1020.000000	0.457869
1021.000000	0.457454
1022.000000	0.456964
1023.000000	0.457069
1024.000000	0.456910
1025.000000	0.457038
1026.000000	0.457209
1027.000000	0.457221
1028.000000	0.457311
1029.000000	0.457319
1030.000000	0.457298
1031.000000	0.457378
1032.000000	0.457543
1033.000000	0.457623
1034.000000	0.457742
1035.000000	0.458226
1036.000000	0.458441
1037.000000	0.458422
1038.000000	0.458309
1039.000000	0.458271
1040.000000	0.458319
1041.000000	0.458285
1042.000000	0.458358
1043.000000	0.458627
1044.000000	0.458862
1045.000000	0.458843
1046.000000	0.458614
1047.000000	0.458794
1048.000000	0.459122
1049.000000	0.459251
1050.000000	0.459657
1051.000000	0.459723
1052.000000	0.459147
1053.000000	0.459019
1054.000000	0.459311
1055.000000	0.459612
1056.000000	0.460116
1057.000000	0.460758
1058.000000	0.461090
1059.000000	0.461014
1060.000000	0.461122
1061.000000	0.461305
1062.000000	0.461567
1063.000000	0.461945
1064.000000	0.462170
1065.000000	0.462224
1066.000000	0.462406
1067.000000	0.462541
1068.000000	0.462632
1069.000000	0.462620
1070.000000	0.462731
1071.000000	0.462975
1072.000000	0.463101
1073.000000	0.463195
1074.000000	0.463641
1075.000000	0.463903
1076.000000	0.464110
1077.000000	0.464356
1078.000000	0.464464
1079.000000	0.464600
1080.000000	0.464625
1081.000000	0.464768
1082.000000	0.465171
1083.000000	0.465413
1084.000000	0.465624
1085.000000	0.465915
1086.000000	0.466218
1087.000000	0.466472
1088.000000	0.466602
1089.000000	0.466764
1090.000000	0.466906
1091.000000	0.466842
1092.000000	0.466993
1093.000000	0.467512
1094.000000	0.467695
1095.000000	0.467713
1096.000000	0.467924
1097.000000	0.468097
1098.000000	0.468301
1099.000000	0.468562
1100.000000	0.468864
1101.000000	0.469080
1102.000000	0.469253
1103.000000	0.469507
1104.000000	0.469685
1105.000000	0.469622
1106.000000	0.469764
1107.000000	0.469981
1108.000000	0.470077
1109.000000	0.470241
1110.000000	0.470440
1111.000000	0.470647
1112.000000	0.470804
1113.000000	0.471019
1114.000000	0.471377
1115.000000	0.471574
1116.000000	0.471706
1117.000000	0.471809
1118.000000	0.471851
1119.000000	0.471804
1120.000000	0.471611
1121.000000	0.471569
1122.000000	0.471705
1123.000000	0.472006
1124.000000	0.472140
1125.000000	0.472290
1126.000000	0.472330
1127.000000	0.472302
1128.000000	0.472232
1129.000000	0.472143
1130.000000	0.472201
1131.000000	0.472304
1132.000000	0.472325
1133.000000	0.472506
1134.000000	0.472623
1135.000000	0.472546
1136.000000	0.472556
1137.000000	0.472707
1138.000000	0.472625
1139.000000	0.472515
1140.000000	0.472543
1141.000000	0.472441
1142.000000	0.472398
1143.000000	0.472367
1144.000000	0.472458
1145.000000	0.472342
1146.000000	0.472136
1147.000000	0.471994
1148.000000	0.471714
1149.000000	0.471551
1150.000000	0.471476
1151.000000	0.471352
1152.000000	0.471154
1153.000000	0.471009
1154.000000	0.470767
1155.000000	0.470591
1156.000000	0.470492
1157.000000	0.470363
1158.000000	0.470239
1159.000000	0.470016
1160.000000	0.469662
1161.000000	0.469378
1162.000000	0.469151
1163.000000	0.469058
1164.000000	0.468884
1165.000000	0.468719
1166.000000	0.468580
1167.000000	0.468358
1168.000000	0.468109
1169.000000	0.467904
1170.000000	0.467737
1171.000000	0.467587
1172.000000	0.467490
1173.000000	0.467424
1174.000000	0.467327
1175.000000	0.467161
1176.000000	0.467000
1177.000000	0.466980
1178.000000	0.466904
1179.000000	0.466827
1180.000000	0.466631
1181.000000	0.466469
1182.000000	0.466301
1183.000000	0.466187
1184.000000	0.466098
1185.000000	0.466035
1186.000000	0.466069
1187.000000	0.465939
1188.000000	0.465746
1189.000000	0.465546
1190.000000	0.465311
1191.000000	0.465151
1192.000000	0.465186
1193.000000	0.465243
1194.000000	0.465168
1195.000000	0.465088
1196.000000	0.464913
1197.000000	0.464775
1198.000000	0.464644
1199.000000	0.464548
1200.000000	0.464489
1201.000000	0.464384
1202.000000	0.464277
1203.000000	0.464196
1204.000000	0.464058
1205.000000	0.463987
1206.000000	0.463857
1207.000000	0.463864
1208.000000	0.463743
1209.000000	0.463637
1210.000000	0.463557
1211.000000	0.463462
1212.000000	0.463355
1213.000000	0.463316
1214.000000	0.463298
1215.000000	0.463258
1216.000000	0.463209
1217.000000	0.463146
1218.000000	0.463060
1219.000000	0.462983
1220.000000	0.462922
1221.000000	0.462887
1222.000000	0.462827
1223.000000	0.462779
1224.000000	0.462717
1225.000000	0.462592
1226.000000	0.462542
1227.000000	0.462429
1228.000000	0.462389
1229.000000	0.462286
1230.000000	0.462133
1231.000000	0.461961
1232.000000	0.461950
1233.000000	0.461991
1234.000000	0.462030
1235.000000	0.462023
1236.000000	0.461898
1237.000000	0.461876
1238.000000	0.461767
1239.000000	0.461715
1240.000000	0.461780
1241.000000	0.461706
1242.000000	0.461591
1243.000000	0.461621
1244.000000	0.461654
1245.000000	0.461781
1246.000000	0.461873
1247.000000	0.461970
1248.000000	0.462080
1249.000000	0.462146
1250.000000	0.462198
1251.000000	0.462261
1252.000000	0.462266
1253.000000	0.462241
1254.000000	0.462225
1255.000000	0.462204
1256.000000	0.462152
1257.000000	0.462088
1258.000000	0.462095
1259.000000	0.461981
1260.000000	0.462030
1261.000000	0.462144
1262.000000	0.462179
1263.000000	0.462271
1264.000000	0.462295
1265.000000	0.462297
1266.000000	0.462247
1267.000000	0.462182
1268.000000	0.462171
1269.000000	0.462064
1270.000000	0.462039
1271.000000	0.462067
1272.000000	0.462095
1273.000000	0.462172
1274.000000	0.462239
1275.000000	0.462247
1276.000000	0.462245
1277.000000	0.462323
1278.000000	0.462299
1279.000000	0.462230
1280.000000	0.462050
1281.000000	0.461902
1282.000000	0.461760
1283.000000	0.461773
1284.000000	0.461812
1285.000000	0.461812
1286.000000	0.461786
1287.000000	0.461793
1288.000000	0.461809
1289.000000	0.461711
1290.000000	0.461561
1291.000000	0.461401
1292.000000	0.461274
1293.000000	0.461233
1294.000000	0.461216
1295.000000	0.461189
1296.000000	0.461085
1297.000000	0.460983
1298.000000	0.460978
1299.000000	0.460960
1300.000000	0.460959
1301.000000	0.460909
1302.000000	0.460754
1303.000000	0.460654
1304.000000	0.460501
1305.000000	0.460398
1306.000000	0.460284
1307.000000	0.460256
1308.000000	0.460217
1309.000000	0.460200
1310.000000	0.460126
1311.000000	0.460101
1312.000000	0.459856
1313.000000	0.459637
1314.000000	0.459464
1315.000000	0.459223
1316.000000	0.459132
1317.000000	0.459045
1318.000000	0.458864
1319.000000	0.458605
1320.000000	0.458316
1321.000000	0.458010
1322.000000	0.457662
1323.000000	0.457400
1324.000000	0.457255
1325.000000	0.456933
1326.000000	0.456543
1327.000000	0.456153
1328.000000	0.455757
1329.000000	0.455299
1330.000000	0.454867
1331.000000	0.454443
1332.000000	0.454034
1333.000000	0.453645
1334.000000	0.453408
1335.000000	0.453120
1336.000000	0.452828
1337.000000	0.452434
1338.000000	0.451901
1339.000000	0.451383
1340.000000	0.450851
1341.000000	0.450326
1342.000000	0.449828
1343.000000	0.449294
1344.000000	0.448748
1345.000000	0.448177
1346.000000	0.447697
1347.000000	0.447053
1348.000000	0.446401
1349.000000	0.445726
1350.000000	0.445122
1351.000000	0.444514
1352.000000	0.443813
1353.000000	0.443141
1354.000000	0.442530
1355.000000	0.441844
1356.000000	0.441323
1357.000000	0.440771
1358.000000	0.440155
1359.000000	0.439575
1360.000000	0.438985
1361.000000	0.438425
1362.000000	0.437887
1363.000000	0.437297
1364.000000	0.436833
1365.000000	0.436420
1366.000000	0.436015
1367.000000	0.435668
1368.000000	0.435265
1369.000000	0.434983
1370.000000	0.434548
1371.000000	0.434029
1372.000000	0.433563
1373.000000	0.433087
1374.000000	0.432646
1375.000000	0.432143
1376.000000	0.431734
1377.000000	0.431306
1378.000000	0.430758
1379.000000	0.430182
1380.000000	0.429561
1381.000000	0.428815
1382.000000	0.428030
1383.000000	0.427289
1384.000000	0.426463
1385.000000	0.425647
1386.000000	0.424899
1387.000000	0.424120
1388.000000	0.423282
1389.000000	0.422413
1390.000000	0.421566
1391.000000	0.420593
1392.000000	0.419594
1393.000000	0.418497
1394.000000	0.417348
1395.000000	0.416181
1396.000000	0.415016
1397.000000	0.413656
1398.000000	0.412163
1399.000000	0.410625
1400.000000	0.408910
1401.000000	0.407166
1402.000000	0.405477
1403.000000	0.403646
1404.000000	0.401760
1405.000000	0.399816
1406.000000	0.397732
1407.000000	0.395669
1408.000000	0.393494
1409.000000	0.391278
1410.000000	0.389093
1411.000000	0.386713
1412.000000	0.384259
1413.000000	0.381880
1414.000000	0.379391
1415.000000	0.376934
1416.000000	0.374487
1417.000000	0.371932
1418.000000	0.369344
1419.000000	0.366793
1420.000000	0.364171
1421.000000	0.361636
1422.000000	0.359108
1423.000000	0.356693
1424.000000	0.354177
1425.000000	0.351650
1426.000000	0.349159
1427.000000	0.346631
1428.000000	0.344212
1429.000000	0.341866
1430.000000	0.339506
1431.000000	0.337254
1432.000000	0.334978
1433.000000	0.332717
1434.000000	0.330490
1435.000000	0.328343
1436.000000	0.326252
1437.000000	0.324213
1438.000000	0.322167
1439.000000	0.320216
1440.000000	0.318303
1441.000000	0.316387
1442.000000	0.314585
1443.000000	0.312814
1444.000000	0.311055
1445.000000	0.309408
1446.000000	0.307806
1447.000000	0.306222
1448.000000	0.304781
1449.000000	0.303391
1450.000000	0.302059
1451.000000	0.300895
1452.000000	0.299720
1453.000000	0.298619
1454.000000	0.297599
1455.000000	0.296590
1456.000000	0.295771
1457.000000	0.295009
1458.000000	0.294240
1459.000000	0.293564
1460.000000	0.292878
1461.000000	0.292216
1462.000000	0.291631
1463.000000	0.291008
1464.000000	0.290438
1465.000000	0.289981
1466.000000	0.289486
1467.000000	0.289021
1468.000000	0.288650
1469.000000	0.288290
1470.000000	0.287851
1471.000000	0.287522
1472.000000	0.287228
1473.000000	0.287008
1474.000000	0.286853
1475.000000	0.286740
1476.000000	0.286635
1477.000000	0.286576
1478.000000	0.286569
1479.000000	0.286570
1480.000000	0.286634
1481.000000	0.286732
1482.000000	0.286896
1483.000000	0.287114
1484.000000	0.287407
1485.000000	0.287710
1486.000000	0.288011
1487.000000	0.288369
1488.000000	0.288816
1489.000000	0.289254
1490.000000	0.289598
1491.000000	0.290046
1492.000000	0.290474
1493.000000	0.290959
1494.000000	0.291495
1495.000000	0.292025
1496.000000	0.292560
1497.000000	0.293124
1498.000000	0.293733
1499.000000	0.294324
1500.000000	0.294940
1501.000000	0.295567
1502.000000	0.296164
1503.000000	0.296789
1504.000000	0.297430
1505.000000	0.298033
1506.000000	0.298660
1507.000000	0.299253
1508.000000	0.299855
1509.000000	0.300486
1510.000000	0.301083
1511.000000	0.301714
1512.000000	0.302300
1513.000000	0.302866
1514.000000	0.303484
1515.000000	0.304031
1516.000000	0.304647
1517.000000	0.305264
1518.000000	0.305828
1519.000000	0.306354
1520.000000	0.306881
1521.000000	0.307335
1522.000000	0.307813
1523.000000	0.308394
1524.000000	0.308913
1525.000000	0.309442
1526.000000	0.309939
1527.000000	0.310413
1528.000000	0.310957
1529.000000	0.311442
1530.000000	0.311840
1531.000000	0.312294
1532.000000	0.312703
1533.000000	0.313070
1534.000000	0.313491
1535.000000	0.313862
1536.000000	0.314108
1537.000000	0.314422
1538.000000	0.314725
1539.000000	0.314945
1540.000000	0.315227
1541.000000	0.315555
1542.000000	0.315845
1543.000000	0.316113
1544.000000	0.316394
1545.000000	0.316676
1546.000000	0.316910
1547.000000	0.317148
1548.000000	0.317366
1549.000000	0.317469
1550.000000	0.317559
1551.000000	0.317715
1552.000000	0.317856
1553.000000	0.317971
1554.000000	0.318088
1555.000000	0.318193
1556.000000	0.318333
1557.000000	0.318504
1558.000000	0.318654
1559.000000	0.318783
1560.000000	0.318847
1561.000000	0.318867
1562.000000	0.318903
1563.000000	0.318974
1564.000000	0.319038
1565.000000	0.319108
1566.000000	0.319090
1567.000000	0.319122
1568.000000	0.319119
1569.000000	0.319154
1570.000000	0.319145
1571.000000	0.319087
1572.000000	0.319030
1573.000000	0.318954
1574.000000	0.318872
1575.000000	0.318825
1576.000000	0.318743
1577.000000	0.318604
1578.000000	0.318485
1579.000000	0.318409
1580.000000	0.318319
1581.000000	0.318332
1582.000000	0.318247
1583.000000	0.318099
1584.000000	0.317935
1585.000000	0.317776
1586.000000	0.317664
1587.000000	0.317592
1588.000000	0.317473
1589.000000	0.317364
1590.000000	0.317235
1591.000000	0.317082
1592.000000	0.316968
1593.000000	0.316914
1594.000000	0.316792
1595.000000	0.316676
1596.000000	0.316588
1597.000000	0.316528
1598.000000	0.316442
1599.000000	0.316422
1600.000000	0.316308
1601.000000	0.316191
1602.000000	0.316070
1603.000000	0.315951
1604.000000	0.315846
1605.000000	0.315766
1606.000000	0.315668
1607.000000	0.315643
1608.000000	0.315544
1609.000000	0.315441
1610.000000	0.315353
1611.000000	0.315249
1612.000000	0.315189
1613.000000	0.315274
1614.000000	0.315278
1615.000000	0.315328
1616.000000	0.315405
1617.000000	0.315434
1618.000000	0.315461
1619.000000	0.315461
1620.000000	0.315523
1621.000000	0.315613
1622.000000	0.315797
1623.000000	0.316056
1624.000000	0.316256
1625.000000	0.316320
1626.000000	0.316425
1627.000000	0.316549
1628.000000	0.316735
1629.000000	0.316958
1630.000000	0.317184
1631.000000	0.317360
1632.000000	0.317539
1633.000000	0.317738
1634.000000	0.317950
1635.000000	0.318191
1636.000000	0.318442
1637.000000	0.318734
1638.000000	0.318986
1639.000000	0.319307
1640.000000	0.319574
1641.000000	0.319843
1642.000000	0.320144
1643.000000	0.320498
1644.000000	0.320818
1645.000000	0.321145
1646.000000	0.321414
1647.000000	0.321670
1648.000000	0.321909
1649.000000	0.322192
1650.000000	0.322533
1651.000000	0.322928
1652.000000	0.323333
1653.000000	0.323738
1654.000000	0.324148
1655.000000	0.324509
1656.000000	0.324801
1657.000000	0.325160
1658.000000	0.325467
1659.000000	0.325809
1660.000000	0.326193
1661.000000	0.326491
1662.000000	0.326835
1663.000000	0.327189
1664.000000	0.327534
1665.000000	0.327873
1666.000000	0.328313
1667.000000	0.328721
1668.000000	0.329102
1669.000000	0.329491
1670.000000	0.329805
1671.000000	0.330174
1672.000000	0.330550
1673.000000	0.330879
1674.000000	0.331246
1675.000000	0.331619
1676.000000	0.331970
1677.000000	0.332280
1678.000000	0.332485
1679.000000	0.332694
1680.000000	0.332873
1681.000000	0.333084
1682.000000	0.333390
1683.000000	0.333691
1684.000000	0.334000
1685.000000	0.334355
1686.000000	0.334615
1687.000000	0.334854
1688.000000	0.335049
1689.000000	0.335256
1690.000000	0.335476
1691.000000	0.335772
1692.000000	0.336022
1693.000000	0.336260
1694.000000	0.336516
1695.000000	0.336834
1696.000000	0.337157
1697.000000	0.337403
1698.000000	0.337632
1699.000000	0.337938
1700.000000	0.338281
1701.000000	0.338673
1702.000000	0.338948
1703.000000	0.339194
1704.000000	0.339482
1705.000000	0.339765
1706.000000	0.340113
1707.000000	0.340425
1708.000000	0.340671
1709.000000	0.340892
1710.000000	0.341187
1711.000000	0.341477
1712.000000	0.341807
1713.000000	0.342085
1714.000000	0.342353
1715.000000	0.342671
1716.000000	0.343019
1717.000000	0.343333
1718.000000	0.343637
1719.000000	0.343928
1720.000000	0.344254
1721.000000	0.344538
1722.000000	0.344788
1723.000000	0.345109
1724.000000	0.345455
1725.000000	0.345829
1726.000000	0.346185
1727.000000	0.346546
1728.000000	0.346839
1729.000000	0.347086
1730.000000	0.347470
1731.000000	0.347823
1732.000000	0.348147
1733.000000	0.348549
1734.000000	0.348847
1735.000000	0.349212
1736.000000	0.349573
1737.000000	0.349932
1738.000000	0.350337
1739.000000	0.350746
1740.000000	0.351133
1741.000000	0.351504
1742.000000	0.351917
1743.000000	0.352339
1744.000000	0.352715
1745.000000	0.353074
1746.000000	0.353441
1747.000000	0.353771
1748.000000	0.354037
1749.000000	0.354282
1750.000000	0.354511
1751.000000	0.354837
1752.000000	0.355244
1753.000000	0.355533
1754.000000	0.355860
1755.000000	0.356160
1756.000000	0.356464
1757.000000	0.356789
1758.000000	0.357137
1759.000000	0.357478
1760.000000	0.357824
1761.000000	0.358176
1762.000000	0.358468
1763.000000	0.358733
1764.000000	0.359024
1765.000000	0.359240
1766.000000	0.359520
1767.000000	0.359803
1768.000000	0.359981
1769.000000	0.360189
1770.000000	0.360485
1771.000000	0.360725
1772.000000	0.360970
1773.000000	0.361194
1774.000000	0.361498
1775.000000	0.361866
1776.000000	0.362240
1777.000000	0.362695
1778.000000	0.363039
1779.000000	0.363287
1780.000000	0.363606
1781.000000	0.363861
1782.000000	0.364225
1783.000000	0.364698
1784.000000	0.365216
1785.000000	0.365666
1786.000000	0.366081
1787.000000	0.366615
1788.000000	0.367133
1789.000000	0.367567
1790.000000	0.368105
1791.000000	0.368527
1792.000000	0.368996
1793.000000	0.369442
1794.000000	0.369826
1795.000000	0.370280
1796.000000	0.370743
1797.000000	0.371205
1798.000000	0.371724
1799.000000	0.372151
1800.000000	0.372592
1801.000000	0.371559
1802.000000	0.372164
1803.000000	0.372744
1804.000000	0.373476
1805.000000	0.374588
1806.000000	0.375214
1807.000000	0.375792
1808.000000	0.376141
1809.000000	0.376009
1810.000000	0.375910
1811.000000	0.376126
1812.000000	0.376562
1813.000000	0.376759
1814.000000	0.377083
1815.000000	0.377344
1816.000000	0.377244
1817.000000	0.377292
1818.000000	0.377444
1819.000000	0.378090
1820.000000	0.378384
1821.000000	0.378797
1822.000000	0.379008
1823.000000	0.379086
1824.000000	0.378955
1825.000000	0.378270
1826.000000	0.378264
1827.000000	0.378307
1828.000000	0.378360
1829.000000	0.378951
1830.000000	0.379296
1831.000000	0.379357
1832.000000	0.379115
1833.000000	0.378983
1834.000000	0.378646
1835.000000	0.378507
1836.000000	0.378435
1837.000000	0.378248
1838.000000	0.377915
1839.000000	0.377577
1840.000000	0.377122
1841.000000	0.376509
1842.000000	0.376101
1843.000000	0.375629
1844.000000	0.375388
1845.000000	0.375415
1846.000000	0.375205
1847.000000	0.374937
1848.000000	0.374340
1849.000000	0.373636
1850.000000	0.373001
1851.000000	0.372515
1852.000000	0.372150
1853.000000	0.371685
1854.000000	0.371250
1855.000000	0.370275
1856.000000	0.368919
1857.000000	0.367471
1858.000000	0.365639
1859.000000	0.364006
1860.000000	0.362474
1861.000000	0.361025
1862.000000	0.359368
1863.000000	0.357840
1864.000000	0.356014
1865.000000	0.353957
1866.000000	0.351814
1867.000000	0.349450
1868.000000	0.347034
1869.000000	0.344593
1870.000000	0.342165
1871.000000	0.339609
1872.000000	0.337019
1873.000000	0.334377
1874.000000	0.331549
1875.000000	0.328769
1876.000000	0.325865
1877.000000	0.322575
1878.000000	0.319084
1879.000000	0.315488
1880.000000	0.311873
1881.000000	0.308238
1882.000000	0.304600
1883.000000	0.300885
1884.000000	0.296972
1885.000000	0.292646
1886.000000	0.288231
1887.000000	0.283746
1888.000000	0.278573
1889.000000	0.273461
1890.000000	0.268828
1891.000000	0.263864
1892.000000	0.259213
1893.000000	0.254830
1894.000000	0.250035
1895.000000	0.245070
1896.000000	0.240145
1897.000000	0.235206
1898.000000	0.229921
1899.000000	0.224844
1900.000000	0.219916
1901.000000	0.214938
1902.000000	0.210097
1903.000000	0.205084
1904.000000	0.200125
1905.000000	0.195436
1906.000000	0.190738
1907.000000	0.186094
1908.000000	0.181635
1909.000000	0.177402
1910.000000	0.173244
1911.000000	0.169078
1912.000000	0.165166
1913.000000	0.161399
1914.000000	0.157757
1915.000000	0.154228
1916.000000	0.150879
1917.000000	0.147680
1918.000000	0.144725
1919.000000	0.141739
1920.000000	0.139101
1921.000000	0.136662
1922.000000	0.134193
1923.000000	0.131980
1924.000000	0.129741
1925.000000	0.127671
1926.000000	0.125969
1927.000000	0.124387
1928.000000	0.122902
1929.000000	0.121650
1930.000000	0.120497
1931.000000	0.119329
1932.000000	0.118368
1933.000000	0.117413
1934.000000	0.116522
1935.000000	0.115777
1936.000000	0.114997
1937.000000	0.114530
1938.000000	0.114057
1939.000000	0.113513
1940.000000	0.112940
1941.000000	0.112534
1942.000000	0.111928
1943.000000	0.111282
1944.000000	0.110810
1945.000000	0.110260
1946.000000	0.109819
1947.000000	0.109655
1948.000000	0.109523
1949.000000	0.109621
1950.000000	0.109675
1951.000000	0.109382
1952.000000	0.108882
1953.000000	0.108333
1954.000000	0.107626
1955.000000	0.107032
1956.000000	0.106880
1957.000000	0.106778
1958.000000	0.106696
1959.000000	0.106605
1960.000000	0.106383
1961.000000	0.106246
1962.000000	0.106051
1963.000000	0.105799
1964.000000	0.105686
1965.000000	0.105572
1966.000000	0.105368
1967.000000	0.105483
1968.000000	0.105575
1969.000000	0.105619
1970.000000	0.105734
1971.000000	0.105758
1972.000000	0.105712
1973.000000	0.105720
1974.000000	0.105837
1975.000000	0.106018
1976.000000	0.106247
1977.000000	0.106465
1978.000000	0.106877
1979.000000	0.107122
1980.000000	0.107219
1981.000000	0.107643
1982.000000	0.108013
1983.000000	0.108397
1984.000000	0.108811
1985.000000	0.109369
1986.000000	0.109721
1987.000000	0.109955
1988.000000	0.110379
1989.000000	0.110761
1990.000000	0.111423
1991.000000	0.112033
1992.000000	0.112393
1993.000000	0.112928
1994.000000	0.113315
1995.000000	0.113763
1996.000000	0.114488
1997.000000	0.115152
1998.000000	0.115852
1999.000000	0.116584
2000.000000	0.117402
2001.000000	0.118166
2002.000000	0.118791
2003.000000	0.119368
2004.000000	0.119940
2005.000000	0.120381
2006.000000	0.121137
2007.000000	0.122050
2008.000000	0.122937
2009.000000	0.123973
2010.000000	0.124953
2011.000000	0.125856
2012.000000	0.126708
2013.000000	0.127486
2014.000000	0.128282
2015.000000	0.129143
2016.000000	0.130171
2017.000000	0.131259
2018.000000	0.132374
2019.000000	0.133393
2020.000000	0.134371
2021.000000	0.135428
2022.000000	0.136524
2023.000000	0.137575
2024.000000	0.138669
2025.000000	0.139730
2026.000000	0.140635
2027.000000	0.141648
2028.000000	0.142782
2029.000000	0.143974
2030.000000	0.145123
2031.000000	0.146066
2032.000000	0.146989
2033.000000	0.148004
2034.000000	0.148954
2035.000000	0.150022
2036.000000	0.150947
2037.000000	0.151776
2038.000000	0.152681
2039.000000	0.153591
2040.000000	0.154688
2041.000000	0.155506
2042.000000	0.156534
2043.000000	0.157655
2044.000000	0.158387
2045.000000	0.159260
2046.000000	0.160258
2047.000000	0.161255
2048.000000	0.162147
2049.000000	0.163272
2050.000000	0.164528
2051.000000	0.165431
2052.000000	0.166207
2053.000000	0.166886
2054.000000	0.167425
2055.000000	0.167996
2056.000000	0.168703
2057.000000	0.169552
2058.000000	0.170445
2059.000000	0.171398
2060.000000	0.172305
2061.000000	0.173212
2062.000000	0.174038
2063.000000	0.174848
2064.000000	0.175650
2065.000000	0.176547
2066.000000	0.177443
2067.000000	0.178575
2068.000000	0.179510
2069.000000	0.180638
2070.000000	0.181820
2071.000000	0.182913
2072.000000	0.184260
2073.000000	0.185445
2074.000000	0.186587
2075.000000	0.187735
2076.000000	0.188833
2077.000000	0.189964
2078.000000	0.191100
2079.000000	0.192155
2080.000000	0.193162
2081.000000	0.194321
2082.000000	0.195462
2083.000000	0.196784
2084.000000	0.198200
2085.000000	0.199544
2086.000000	0.200720
2087.000000	0.201693
2088.000000	0.202686
2089.000000	0.203762
2090.000000	0.204927
2091.000000	0.206255
2092.000000	0.207580
2093.000000	0.209162
2094.000000	0.210379
2095.000000	0.211391
2096.000000	0.212554
2097.000000	0.213617
2098.000000	0.214477
2099.000000	0.215579
2100.000000	0.216997
2101.000000	0.218154
2102.000000	0.219248
2103.000000	0.220541
2104.000000	0.221732
2105.000000	0.222802
2106.000000	0.223817
2107.000000	0.224884
2108.000000	0.225712
2109.000000	0.226764
2110.000000	0.227937
2111.000000	0.228968
2112.000000	0.229981
2113.000000	0.230793
2114.000000	0.231337
2115.000000	0.231962
2116.000000	0.232490
2117.000000	0.232870
2118.000000	0.233828
2119.000000	0.234962
2120.000000	0.235977
2121.000000	0.237353
2122.000000	0.238240
2123.000000	0.238751
2124.000000	0.239391
2125.000000	0.239704
2126.000000	0.240390
2127.000000	0.241262
2128.000000	0.242280
2129.000000	0.243524
2130.000000	0.244794
2131.000000	0.245818
2132.000000	0.246650
2133.000000	0.247290
2134.000000	0.247962
2135.000000	0.248289
2136.000000	0.248470
2137.000000	0.248636
2138.000000	0.248316
2139.000000	0.248596
2140.000000	0.249200
2141.000000	0.249762
2142.000000	0.250632
2143.000000	0.251242
2144.000000	0.251882
2145.000000	0.252592
2146.000000	0.253448
2147.000000	0.254400
2148.000000	0.255060
2149.000000	0.255786
2150.000000	0.256154
2151.000000	0.256361
2152.000000	0.256799
2153.000000	0.256928
2154.000000	0.257286
2155.000000	0.257870
2156.000000	0.258340
2157.000000	0.258888
2158.000000	0.259343
2159.000000	0.259771
2160.000000	0.260216
2161.000000	0.260563
2162.000000	0.261059
2163.000000	0.261661
2164.000000	0.261972
2165.000000	0.262186
2166.000000	0.262271
2167.000000	0.262391
2168.000000	0.262599
2169.000000	0.263140
2170.000000	0.263633
2171.000000	0.263912
2172.000000	0.264083
2173.000000	0.264280
2174.000000	0.264330
2175.000000	0.264455
2176.000000	0.264653
2177.000000	0.264748
2178.000000	0.264744
2179.000000	0.264997
2180.000000	0.265292
2181.000000	0.265750
2182.000000	0.266079
2183.000000	0.266105
2184.000000	0.266022
2185.000000	0.266001
2186.000000	0.265790
2187.000000	0.265823
2188.000000	0.265925
2189.000000	0.265900
2190.000000	0.265747
2191.000000	0.265950
2192.000000	0.266208
2193.000000	0.266412
2194.000000	0.266666
2195.000000	0.267569
2196.000000	0.267919
2197.000000	0.267847
2198.000000	0.268080
2199.000000	0.268288
2200.000000	0.268357
2201.000000	0.268088
2202.000000	0.268456
2203.000000	0.268875
2204.000000	0.269549
2205.000000	0.270346
2206.000000	0.271353
2207.000000	0.272039
2208.000000	0.272111
2209.000000	0.272172
2210.000000	0.272946
2211.000000	0.272531
2212.000000	0.272640
2213.000000	0.273220
2214.000000	0.274068
2215.000000	0.274648
2216.000000	0.276373
2217.000000	0.276452
2218.000000	0.275030
2219.000000	0.274715
2220.000000	0.273966
2221.000000	0.273675
2222.000000	0.274177
2223.000000	0.274767
2224.000000	0.275338
2225.000000	0.276122
2226.000000	0.277207
2227.000000	0.277331
2228.000000	0.277330
2229.000000	0.277123
2230.000000	0.277176
2231.000000	0.276949
2232.000000	0.277446
2233.000000	0.278218
2234.000000	0.278315
2235.000000	0.279470
2236.000000	0.279054
2237.000000	0.277049
2238.000000	0.276341
2239.000000	0.274757
2240.000000	0.274820
2241.000000	0.276883
2242.000000	0.277769
2243.000000	0.279060
2244.000000	0.279881
2245.000000	0.280144
2246.000000	0.280089
2247.000000	0.279465
2248.000000	0.279217
2249.000000	0.278949
2250.000000	0.278408
2251.000000	0.277985
2252.000000	0.277676
2253.000000	0.276509
2254.000000	0.275675
2255.000000	0.275901
2256.000000	0.276076
2257.000000	0.277128
2258.000000	0.278586
2259.000000	0.279222
2260.000000	0.279968
2261.000000	0.279410
2262.000000	0.277756
2263.000000	0.276372
2264.000000	0.273736
2265.000000	0.272602
2266.000000	0.272225
2267.000000	0.271607
2268.000000	0.271697
2269.000000	0.271288
2270.000000	0.270614
2271.000000	0.270135
2272.000000	0.269380
2273.000000	0.268957
2274.000000	0.268577
2275.000000	0.268454
2276.000000	0.268544
2277.000000	0.268994
2278.000000	0.269538
2279.000000	0.269085
2280.000000	0.267835
2281.000000	0.266393
2282.000000	0.265285
2283.000000	0.264520
2284.000000	0.263832
2285.000000	0.263116
2286.000000	0.261775
2287.000000	0.260578
2288.000000	0.259611
2289.000000	0.258841
2290.000000	0.257905
2291.000000	0.256542
2292.000000	0.255149
2293.000000	0.253493
2294.000000	0.251850
2295.000000	0.249745
2296.000000	0.248361
2297.000000	0.247262
2298.000000	0.246335
2299.000000	0.246319
2300.000000	0.245276
2301.000000	0.243435
2302.000000	0.242362
2303.000000	0.240930
2304.000000	0.240026
2305.000000	0.240493
2306.000000	0.239500
2307.000000	0.237672
2308.000000	0.236313
2309.000000	0.234375
2310.000000	0.232978
2311.000000	0.232283
2312.000000	0.230943
2313.000000	0.229661
2314.000000	0.227979
2315.000000	0.226086
2316.000000	0.225120
2317.000000	0.223708
2318.000000	0.222948
2319.000000	0.222731
2320.000000	0.221593
2321.000000	0.220390
2322.000000	0.218676
2323.000000	0.216721
2324.000000	0.215441
2325.000000	0.214283
2326.000000	0.213312
2327.000000	0.212052
2328.000000	0.209528
2329.000000	0.207465
2330.000000	0.205703
2331.000000	0.203382
2332.000000	0.202095
2333.000000	0.200799
2334.000000	0.197984
2335.000000	0.196407
2336.000000	0.194787
2337.000000	0.193547
2338.000000	0.193649
2339.000000	0.192997
2340.000000	0.192180
2341.000000	0.191189
2342.000000	0.189509
2343.000000	0.187641
2344.000000	0.185513
2345.000000	0.183719
2346.000000	0.182095
2347.000000	0.180816
2348.000000	0.180042
2349.000000	0.178493
2350.000000	0.177413
2351.000000	0.175260
2352.000000	0.173063
2353.000000	0.171205
2354.000000	0.168622
2355.000000	0.166717
2356.000000	0.164794
2357.000000	0.163398
2358.000000	0.162888
2359.000000	0.161953
2360.000000	0.160004
2361.000000	0.158865
2362.000000	0.157681
2363.000000	0.154972
2364.000000	0.153803
2365.000000	0.153321
2366.000000	0.151031
2367.000000	0.149960
2368.000000	0.149234
2369.000000	0.147057
2370.000000	0.146061
2371.000000	0.146030
2372.000000	0.145310
2373.000000	0.144853
2374.000000	0.144529
2375.000000	0.143329
2376.000000	0.143046
2377.000000	0.142015
2378.000000	0.140288
2379.000000	0.138637
2380.000000	0.134683
2381.000000	0.132430
2382.000000	0.130784
2383.000000	0.127430
2384.000000	0.127533
2385.000000	0.128114
2386.000000	0.127401
2387.000000	0.128034
2388.000000	0.127316
2389.000000	0.126129
2390.000000	0.124933
2391.000000	0.124482
2392.000000	0.124948
2393.000000	0.123536
2394.000000	0.121562
2395.000000	0.119611
2396.000000	0.117395
2397.000000	0.117191
2398.000000	0.119804
2399.000000	0.121895
2400.000000	0.124491
2401.000000	0.126135
2402.000000	0.125786
2403.000000	0.125603
2404.000000	0.123189
2405.000000	0.121466
2406.000000	0.119112
2407.000000	0.115758
2408.000000	0.114281
2409.000000	0.113359
2410.000000	0.112392
2411.000000	0.111686
2412.000000	0.111291
2413.000000	0.112527
2414.000000	0.115915
2415.000000	0.116004
2416.000000	0.116310
2417.000000	0.115204
2418.000000	0.109400
2419.000000	0.107726
2420.000000	0.105324
2421.000000	0.102637
2422.000000	0.105684
2423.000000	0.107495
2424.000000	0.110324
2425.000000	0.113063
2426.000000	0.111879
2427.000000	0.111807
2428.000000	0.110248
2429.000000	0.108558
2430.000000	0.107445
2431.000000	0.105588
2432.000000	0.106979
2433.000000	0.108028
2434.000000	0.108079
2435.000000	0.109186
2436.000000	0.105916
2437.000000	0.103019
2438.000000	0.103079
2439.000000	0.099605
2440.000000	0.097692
2441.000000	0.098297
2442.000000	0.097888
2443.000000	0.096579
2444.000000	0.096068
2445.000000	0.096194
2446.000000	0.094086
2447.000000	0.095189
2448.000000	0.100730
2449.000000	0.102211
2450.000000	0.106138
2451.000000	0.112663
2452.000000	0.111440
2453.000000	0.109707
2454.000000	0.104265
2455.000000	0.095349
2456.000000	0.089868
2457.000000	0.085113
2458.000000	0.082537
2459.000000	0.081434
2460.000000	0.082278
2461.000000	0.085112
2462.000000	0.085578
2463.000000	0.085214
2464.000000	0.087763
2465.000000	0.091337
2466.000000	0.095996
2467.000000	0.105849
2468.000000	0.112386
2469.000000	0.106942
2470.000000	0.106897
2471.000000	0.103362
2472.000000	0.089462
2473.000000	0.088622
2474.000000	0.088801
2475.000000	0.083601
2476.000000	0.085186
2477.000000	0.091332
2478.000000	0.096959
2479.000000	0.099694
2480.000000	0.101416
2481.000000	0.099282
2482.000000	0.089759
2483.000000	0.079517
2484.000000	0.079671
2485.000000	0.084541
2486.000000	0.087613
2487.000000	0.100866
2488.000000	0.114603
2489.000000	0.114116
2490.000000	0.112186
2491.000000	0.107587
2492.000000	0.101182
2493.000000	0.096571
2494.000000	0.091209
2495.000000	0.080303
2496.000000	0.072915
2497.000000	0.060756
2498.000000	0.061066
2499.000000	0.083013
2500.000000	0.083643
