# Wavelength	hexa10_00000.asd.rts.txt
350.000000	0.194213
351.000000	0.196873
352.000000	0.205179
353.000000	0.207410
354.000000	0.203352
355.000000	0.205188
356.000000	0.207118
357.000000	0.207839
358.000000	0.205006
359.000000	0.203494
360.000000	0.204266
361.000000	0.206437
362.000000	0.206883
363.000000	0.207758
364.000000	0.209457
365.000000	0.209238
366.000000	0.206950
367.000000	0.204825
368.000000	0.208139
369.000000	0.209175
370.000000	0.208590
371.000000	0.209204
372.000000	0.209365
373.000000	0.210396
374.000000	0.212918
375.000000	0.213432
376.000000	0.212502
377.000000	0.211444
378.000000	0.212759
379.000000	0.213608
380.000000	0.214117
381.000000	0.215844
382.000000	0.216794
383.000000	0.216641
384.000000	0.215961
385.000000	0.216057
386.000000	0.217315
387.000000	0.219063
388.000000	0.219036
389.000000	0.219035
390.000000	0.219345
391.000000	0.219508
392.000000	0.219679
393.000000	0.220012
394.000000	0.220651
395.000000	0.222009
396.000000	0.222210
397.000000	0.221397
398.000000	0.222664
399.000000	0.223206
400.000000	0.223161
401.000000	0.223646
402.000000	0.223942
403.000000	0.224349
404.000000	0.225154
405.000000	0.225106
406.000000	0.225448
407.000000	0.226570
408.000000	0.227334
409.000000	0.227490
410.000000	0.227295
411.000000	0.227322
412.000000	0.227597
413.000000	0.228190
414.000000	0.229034
415.000000	0.229249
416.000000	0.229365
417.000000	0.229784
418.000000	0.230483
419.000000	0.230925
420.000000	0.231140
421.000000	0.231643
422.000000	0.231905
423.000000	0.231948
424.000000	0.232070
425.000000	0.232588
426.000000	0.232936
427.000000	0.232832
428.000000	0.233273
429.000000	0.233687
430.000000	0.233909
431.000000	0.234295
432.000000	0.234491
433.000000	0.234581
434.000000	0.234935
435.000000	0.235320
436.000000	0.235569
437.000000	0.235615
438.000000	0.235934
439.000000	0.236169
440.000000	0.236224
441.000000	0.236209
442.000000	0.236225
443.000000	0.236309
444.000000	0.236613
445.000000	0.236847
446.000000	0.237106
447.000000	0.237389
448.000000	0.237607
449.000000	0.237832
450.000000	0.238147
451.000000	0.238627
452.000000	0.238977
453.000000	0.239125
454.000000	0.239476
455.000000	0.239673
456.000000	0.239824
457.000000	0.240034
458.000000	0.240223
459.000000	0.240457
460.000000	0.240810
461.000000	0.241032
462.000000	0.241318
463.000000	0.241608
464.000000	0.241878
465.000000	0.242123
466.000000	0.242362
467.000000	0.242768
468.000000	0.242985
469.000000	0.243012
470.000000	0.243118
471.000000	0.243345
472.000000	0.243562
473.000000	0.243719
474.000000	0.243905
475.000000	0.244138
476.000000	0.244460
477.000000	0.244575
478.000000	0.244658
479.000000	0.244967
480.000000	0.245415
481.000000	0.245495
482.000000	0.245592
483.000000	0.245877
484.000000	0.246179
485.000000	0.246437
486.000000	0.246733
487.000000	0.246782
488.000000	0.246919
489.000000	0.247225
490.000000	0.247601
491.000000	0.247840
492.000000	0.248107
493.000000	0.248481
494.000000	0.248664
495.000000	0.248859
496.000000	0.249167
497.000000	0.249457
498.000000	0.249771
499.000000	0.250143
500.000000	0.250410
501.000000	0.250641
502.000000	0.250898
503.000000	0.251160
504.000000	0.251409
505.000000	0.251640
506.000000	0.251868
507.000000	0.252111
508.000000	0.252452
509.000000	0.252852
510.000000	0.253158
511.000000	0.253426
512.000000	0.253703
513.000000	0.253980
514.000000	0.254290
515.000000	0.254649
516.000000	0.254992
517.000000	0.255240
518.000000	0.255501
519.000000	0.255785
520.000000	0.256085
521.000000	0.256391
522.000000	0.256692
523.000000	0.256953
524.000000	0.257236
525.000000	0.257534
526.000000	0.257847
527.000000	0.258163
528.000000	0.258436
529.000000	0.258681
530.000000	0.258913
531.000000	0.259219
532.000000	0.259538
533.000000	0.259777
534.000000	0.260034
535.000000	0.260312
536.000000	0.260567
537.000000	0.260854
538.000000	0.261154
539.000000	0.261418
540.000000	0.261720
541.000000	0.261989
542.000000	0.262207
543.000000	0.262505
544.000000	0.262837
545.000000	0.263110
546.000000	0.263365
547.000000	0.263648
548.000000	0.263974
549.000000	0.264248
550.000000	0.264586
551.000000	0.264981
552.000000	0.265337
553.000000	0.265632
554.000000	0.265911
555.000000	0.266222
556.000000	0.266591
557.000000	0.266903
558.000000	0.267234
559.000000	0.267561
560.000000	0.267821
561.000000	0.268104
562.000000	0.268426
563.000000	0.268745
564.000000	0.269083
565.000000	0.269376
566.000000	0.269740
567.000000	0.270085
568.000000	0.270362
569.000000	0.270702
570.000000	0.271046
571.000000	0.271382
572.000000	0.271764
573.000000	0.272140
574.000000	0.272465
575.000000	0.272765
576.000000	0.273118
577.000000	0.273422
578.000000	0.273666
579.000000	0.273961
580.000000	0.274264
581.000000	0.274553
582.000000	0.274849
583.000000	0.275172
584.000000	0.275502
585.000000	0.275801
586.000000	0.276141
587.000000	0.276486
588.000000	0.276792
589.000000	0.277168
590.000000	0.277496
591.000000	0.277726
592.000000	0.278006
593.000000	0.278271
594.000000	0.278501
595.000000	0.278722
596.000000	0.278975
597.000000	0.279263
598.000000	0.279481
599.000000	0.279695
600.000000	0.279934
601.000000	0.280136
602.000000	0.280300
603.000000	0.280445
604.000000	0.280600
605.000000	0.280799
606.000000	0.280965
607.000000	0.281100
608.000000	0.281254
609.000000	0.281478
610.000000	0.281737
611.000000	0.281972
612.000000	0.282196
613.000000	0.282376
614.000000	0.282539
615.000000	0.282722
616.000000	0.282840
617.000000	0.282888
618.000000	0.283042
619.000000	0.283206
620.000000	0.283333
621.000000	0.283454
622.000000	0.283558
623.000000	0.283702
624.000000	0.283908
625.000000	0.284053
626.000000	0.284253
627.000000	0.284538
628.000000	0.284811
629.000000	0.285040
630.000000	0.285176
631.000000	0.285449
632.000000	0.285684
633.000000	0.285910
634.000000	0.286158
635.000000	0.286342
636.000000	0.286478
637.000000	0.286582
638.000000	0.286721
639.000000	0.286861
640.000000	0.287022
641.000000	0.287106
642.000000	0.287181
643.000000	0.287274
644.000000	0.287400
645.000000	0.287565
646.000000	0.287758
647.000000	0.287941
648.000000	0.288114
649.000000	0.288309
650.000000	0.288517
651.000000	0.288742
652.000000	0.288919
653.000000	0.289081
654.000000	0.289229
655.000000	0.289404
656.000000	0.289588
657.000000	0.289715
658.000000	0.289884
659.000000	0.290072
660.000000	0.290241
661.000000	0.290396
662.000000	0.290554
663.000000	0.290755
664.000000	0.290942
665.000000	0.291098
666.000000	0.291260
667.000000	0.291434
668.000000	0.291607
669.000000	0.291775
670.000000	0.291942
671.000000	0.292097
672.000000	0.292295
673.000000	0.292499
674.000000	0.292612
675.000000	0.292750
676.000000	0.292931
677.000000	0.293152
678.000000	0.293359
679.000000	0.293550
680.000000	0.293729
681.000000	0.293841
682.000000	0.293996
683.000000	0.294156
684.000000	0.294363
685.000000	0.294539
686.000000	0.294711
687.000000	0.294886
688.000000	0.295037
689.000000	0.295176
690.000000	0.295343
691.000000	0.295509
692.000000	0.295676
693.000000	0.295905
694.000000	0.296143
695.000000	0.296399
696.000000	0.296621
697.000000	0.296750
698.000000	0.296883
699.000000	0.297033
700.000000	0.297200
701.000000	0.297332
702.000000	0.297535
703.000000	0.297795
704.000000	0.297995
705.000000	0.298201
706.000000	0.298384
707.000000	0.298576
708.000000	0.298733
709.000000	0.298813
710.000000	0.298837
711.000000	0.298931
712.000000	0.299036
713.000000	0.299165
714.000000	0.299381
715.000000	0.299535
716.000000	0.299666
717.000000	0.299868
718.000000	0.300041
719.000000	0.300182
720.000000	0.300315
721.000000	0.300443
722.000000	0.300580
723.000000	0.300774
724.000000	0.300925
725.000000	0.301042
726.000000	0.301203
727.000000	0.301350
728.000000	0.301460
729.000000	0.301552
730.000000	0.301606
731.000000	0.301696
732.000000	0.301795
733.000000	0.301919
734.000000	0.302014
735.000000	0.302111
736.000000	0.302297
737.000000	0.302422
738.000000	0.302481
739.000000	0.302582
740.000000	0.302656
741.000000	0.302832
742.000000	0.303010
743.000000	0.303112
744.000000	0.303170
745.000000	0.303197
746.000000	0.303262
747.000000	0.303342
748.000000	0.303458
749.000000	0.303636
750.000000	0.303831
751.000000	0.303952
752.000000	0.304047
753.000000	0.304129
754.000000	0.304155
755.000000	0.304167
756.000000	0.304176
757.000000	0.304149
758.000000	0.304218
759.000000	0.304323
760.000000	0.304368
761.000000	0.304487
762.000000	0.304606
763.000000	0.304687
764.000000	0.304790
765.000000	0.304852
766.000000	0.304916
767.000000	0.305012
768.000000	0.305064
769.000000	0.305100
770.000000	0.305144
771.000000	0.305201
772.000000	0.305314
773.000000	0.305397
774.000000	0.305456
775.000000	0.305517
776.000000	0.305584
777.000000	0.305656
778.000000	0.305815
779.000000	0.305885
780.000000	0.305854
781.000000	0.305845
782.000000	0.305892
783.000000	0.306033
784.000000	0.306112
785.000000	0.306163
786.000000	0.306212
787.000000	0.306266
788.000000	0.306300
789.000000	0.306379
790.000000	0.306461
791.000000	0.306504
792.000000	0.306585
793.000000	0.306638
794.000000	0.306623
795.000000	0.306621
796.000000	0.306622
797.000000	0.306621
798.000000	0.306633
799.000000	0.306679
800.000000	0.306751
801.000000	0.306835
802.000000	0.306893
803.000000	0.306958
804.000000	0.307059
805.000000	0.307083
806.000000	0.307049
807.000000	0.307000
808.000000	0.306857
809.000000	0.306805
810.000000	0.306817
811.000000	0.306843
812.000000	0.306928
813.000000	0.307068
814.000000	0.307180
815.000000	0.307134
816.000000	0.307096
817.000000	0.307100
818.000000	0.307065
819.000000	0.307096
820.000000	0.307106
821.000000	0.307026
822.000000	0.306973
823.000000	0.307010
824.000000	0.307055
825.000000	0.307100
826.000000	0.307162
827.000000	0.307147
828.000000	0.307061
829.000000	0.306976
830.000000	0.306866
831.000000	0.306810
832.000000	0.306761
833.000000	0.306725
834.000000	0.306711
835.000000	0.306744
836.000000	0.306756
837.000000	0.306735
838.000000	0.306696
839.000000	0.306635
840.000000	0.306570
841.000000	0.306496
842.000000	0.306371
843.000000	0.306266
844.000000	0.306189
845.000000	0.306104
846.000000	0.306001
847.000000	0.305949
848.000000	0.305888
849.000000	0.305785
850.000000	0.305692
851.000000	0.305622
852.000000	0.305636
853.000000	0.305766
854.000000	0.305802
855.000000	0.305804
856.000000	0.305728
857.000000	0.305598
858.000000	0.305565
859.000000	0.305573
860.000000	0.305462
861.000000	0.305326
862.000000	0.305203
863.000000	0.305059
864.000000	0.305069
865.000000	0.305122
866.000000	0.305127
867.000000	0.304990
868.000000	0.304836
869.000000	0.304636
870.000000	0.304427
871.000000	0.304237
872.000000	0.304106
873.000000	0.303997
874.000000	0.303950
875.000000	0.303858
876.000000	0.303731
877.000000	0.303561
878.000000	0.303332
879.000000	0.303166
880.000000	0.302979
881.000000	0.302771
882.000000	0.302564
883.000000	0.302384
884.000000	0.302197
885.000000	0.302149
886.000000	0.302043
887.000000	0.301821
888.000000	0.301633
889.000000	0.301446
890.000000	0.301141
891.000000	0.300831
892.000000	0.300693
893.000000	0.300527
894.000000	0.300325
895.000000	0.300045
896.000000	0.299740
897.000000	0.299498
898.000000	0.299388
899.000000	0.299274
900.000000	0.299173
901.000000	0.299061
902.000000	0.298973
903.000000	0.298836
904.000000	0.298649
905.000000	0.298348
906.000000	0.298123
907.000000	0.297886
908.000000	0.297659
909.000000	0.297416
910.000000	0.297121
911.000000	0.296840
912.000000	0.296649
913.000000	0.296489
914.000000	0.296267
915.000000	0.296057
916.000000	0.295894
917.000000	0.295714
918.000000	0.295534
919.000000	0.295362
920.000000	0.295242
921.000000	0.295014
922.000000	0.294742
923.000000	0.294555
924.000000	0.294289
925.000000	0.294063
926.000000	0.293935
927.000000	0.293684
928.000000	0.293323
929.000000	0.292954
930.000000	0.292692
931.000000	0.292451
932.000000	0.292240
933.000000	0.292060
934.000000	0.291798
935.000000	0.291537
936.000000	0.291352
937.000000	0.291159
938.000000	0.290853
939.000000	0.290671
940.000000	0.290492
941.000000	0.290164
942.000000	0.289843
943.000000	0.289634
944.000000	0.289446
945.000000	0.289276
946.000000	0.288997
947.000000	0.288749
948.000000	0.288609
949.000000	0.288265
950.000000	0.287988
951.000000	0.287759
952.000000	0.287399
953.000000	0.287222
954.000000	0.287055
955.000000	0.286680
956.000000	0.286259
957.000000	0.286016
958.000000	0.285827
959.000000	0.285574
960.000000	0.285402
961.000000	0.285169
962.000000	0.284886
963.000000	0.284804
964.000000	0.284618
965.000000	0.284397
966.000000	0.284159
967.000000	0.284029
968.000000	0.283790
969.000000	0.283453
970.000000	0.283253
971.000000	0.283065
972.000000	0.282871
973.000000	0.282585
974.000000	0.282222
975.000000	0.281970
976.000000	0.281838
977.000000	0.281733
978.000000	0.281430
979.000000	0.281256
980.000000	0.280942
981.000000	0.280524
982.000000	0.280425
983.000000	0.280178
984.000000	0.279804
985.000000	0.279713
986.000000	0.279417
987.000000	0.279153
988.000000	0.278989
989.000000	0.278697
990.000000	0.278470
991.000000	0.278329
992.000000	0.278271
993.000000	0.278290
994.000000	0.277951
995.000000	0.277488
996.000000	0.277241
997.000000	0.277188
998.000000	0.277092
999.000000	0.276949
1000.000000	0.276887
1001.000000	0.277263
1002.000000	0.276990
1003.000000	0.276676
1004.000000	0.276482
1005.000000	0.276379
1006.000000	0.276132
1007.000000	0.275957
1008.000000	0.275749
1009.000000	0.275319
1010.000000	0.275068
1011.000000	0.275109
1012.000000	0.275236
1013.000000	0.275289
1014.000000	0.275267
1015.000000	0.275081
1016.000000	0.274919
1017.000000	0.274857
1018.000000	0.274984
1019.000000	0.275026
1020.000000	0.275302
1021.000000	0.275010
1022.000000	0.274554
1023.000000	0.274507
1024.000000	0.274245
1025.000000	0.274239
1026.000000	0.274585
1027.000000	0.274592
1028.000000	0.274646
1029.000000	0.274875
1030.000000	0.274983
1031.000000	0.275097
1032.000000	0.275184
1033.000000	0.275088
1034.000000	0.275042
1035.000000	0.274950
1036.000000	0.274893
1037.000000	0.274940
1038.000000	0.274842
1039.000000	0.274789
1040.000000	0.274645
1041.000000	0.274606
1042.000000	0.274447
1043.000000	0.274565
1044.000000	0.274822
1045.000000	0.274964
1046.000000	0.275082
1047.000000	0.275191
1048.000000	0.275239
1049.000000	0.275295
1050.000000	0.275274
1051.000000	0.275329
1052.000000	0.275343
1053.000000	0.275327
1054.000000	0.275516
1055.000000	0.275789
1056.000000	0.276179
1057.000000	0.276405
1058.000000	0.276696
1059.000000	0.276732
1060.000000	0.276817
1061.000000	0.277192
1062.000000	0.277368
1063.000000	0.277494
1064.000000	0.277680
1065.000000	0.277673
1066.000000	0.277785
1067.000000	0.278038
1068.000000	0.278252
1069.000000	0.278397
1070.000000	0.278535
1071.000000	0.278738
1072.000000	0.278889
1073.000000	0.278939
1074.000000	0.279211
1075.000000	0.279433
1076.000000	0.279727
1077.000000	0.279951
1078.000000	0.280075
1079.000000	0.280250
1080.000000	0.280391
1081.000000	0.280625
1082.000000	0.281046
1083.000000	0.281309
1084.000000	0.281541
1085.000000	0.281853
1086.000000	0.282137
1087.000000	0.282441
1088.000000	0.282796
1089.000000	0.283028
1090.000000	0.283185
1091.000000	0.283179
1092.000000	0.283239
1093.000000	0.283581
1094.000000	0.283780
1095.000000	0.283927
1096.000000	0.284211
1097.000000	0.284559
1098.000000	0.284819
1099.000000	0.285156
1100.000000	0.285399
1101.000000	0.285428
1102.000000	0.285551
1103.000000	0.285569
1104.000000	0.285801
1105.000000	0.286262
1106.000000	0.286522
1107.000000	0.286745
1108.000000	0.286968
1109.000000	0.287153
1110.000000	0.287216
1111.000000	0.287384
1112.000000	0.287681
1113.000000	0.287870
1114.000000	0.287983
1115.000000	0.288153
1116.000000	0.288341
1117.000000	0.288523
1118.000000	0.288724
1119.000000	0.288842
1120.000000	0.288936
1121.000000	0.289020
1122.000000	0.289100
1123.000000	0.289373
1124.000000	0.289554
1125.000000	0.289732
1126.000000	0.289908
1127.000000	0.290014
1128.000000	0.290072
1129.000000	0.290056
1130.000000	0.290190
1131.000000	0.290383
1132.000000	0.290494
1133.000000	0.290714
1134.000000	0.290861
1135.000000	0.290872
1136.000000	0.290918
1137.000000	0.290968
1138.000000	0.290990
1139.000000	0.291042
1140.000000	0.291167
1141.000000	0.291307
1142.000000	0.291410
1143.000000	0.291407
1144.000000	0.291572
1145.000000	0.291633
1146.000000	0.291669
1147.000000	0.291729
1148.000000	0.291744
1149.000000	0.291821
1150.000000	0.291924
1151.000000	0.292026
1152.000000	0.292124
1153.000000	0.292226
1154.000000	0.292298
1155.000000	0.292318
1156.000000	0.292306
1157.000000	0.292348
1158.000000	0.292324
1159.000000	0.292325
1160.000000	0.292369
1161.000000	0.292397
1162.000000	0.292446
1163.000000	0.292609
1164.000000	0.292656
1165.000000	0.292687
1166.000000	0.292764
1167.000000	0.292797
1168.000000	0.292782
1169.000000	0.292782
1170.000000	0.292849
1171.000000	0.292928
1172.000000	0.293024
1173.000000	0.293202
1174.000000	0.293276
1175.000000	0.293249
1176.000000	0.293211
1177.000000	0.293191
1178.000000	0.293201
1179.000000	0.293206
1180.000000	0.293155
1181.000000	0.293179
1182.000000	0.293178
1183.000000	0.293212
1184.000000	0.293291
1185.000000	0.293294
1186.000000	0.293276
1187.000000	0.293288
1188.000000	0.293270
1189.000000	0.293234
1190.000000	0.293274
1191.000000	0.293296
1192.000000	0.293319
1193.000000	0.293482
1194.000000	0.293664
1195.000000	0.293775
1196.000000	0.293852
1197.000000	0.293911
1198.000000	0.293942
1199.000000	0.293970
1200.000000	0.294003
1201.000000	0.293993
1202.000000	0.293912
1203.000000	0.293889
1204.000000	0.293871
1205.000000	0.293866
1206.000000	0.293789
1207.000000	0.293788
1208.000000	0.293689
1209.000000	0.293519
1210.000000	0.293470
1211.000000	0.293458
1212.000000	0.293434
1213.000000	0.293528
1214.000000	0.293551
1215.000000	0.293490
1216.000000	0.293491
1217.000000	0.293493
1218.000000	0.293449
1219.000000	0.293425
1220.000000	0.293427
1221.000000	0.293364
1222.000000	0.293313
1223.000000	0.293324
1224.000000	0.293323
1225.000000	0.293229
1226.000000	0.293224
1227.000000	0.293209
1228.000000	0.293132
1229.000000	0.293058
1230.000000	0.292989
1231.000000	0.292883
1232.000000	0.292815
1233.000000	0.292867
1234.000000	0.292992
1235.000000	0.293018
1236.000000	0.292979
1237.000000	0.292986
1238.000000	0.292898
1239.000000	0.292840
1240.000000	0.292812
1241.000000	0.292785
1242.000000	0.292750
1243.000000	0.292738
1244.000000	0.292730
1245.000000	0.292789
1246.000000	0.292834
1247.000000	0.292897
1248.000000	0.292982
1249.000000	0.293061
1250.000000	0.293112
1251.000000	0.293148
1252.000000	0.293173
1253.000000	0.293226
1254.000000	0.293235
1255.000000	0.293204
1256.000000	0.293193
1257.000000	0.293180
1258.000000	0.293199
1259.000000	0.293205
1260.000000	0.293212
1261.000000	0.293153
1262.000000	0.293107
1263.000000	0.293071
1264.000000	0.293015
1265.000000	0.292982
1266.000000	0.292935
1267.000000	0.292890
1268.000000	0.292820
1269.000000	0.292707
1270.000000	0.292704
1271.000000	0.292625
1272.000000	0.292534
1273.000000	0.292575
1274.000000	0.292543
1275.000000	0.292503
1276.000000	0.292524
1277.000000	0.292592
1278.000000	0.292566
1279.000000	0.292532
1280.000000	0.292486
1281.000000	0.292374
1282.000000	0.292211
1283.000000	0.292178
1284.000000	0.292153
1285.000000	0.292102
1286.000000	0.292041
1287.000000	0.291976
1288.000000	0.291945
1289.000000	0.291886
1290.000000	0.291861
1291.000000	0.291865
1292.000000	0.291868
1293.000000	0.291863
1294.000000	0.291835
1295.000000	0.291856
1296.000000	0.291861
1297.000000	0.291882
1298.000000	0.292025
1299.000000	0.292138
1300.000000	0.292199
1301.000000	0.292253
1302.000000	0.292230
1303.000000	0.292203
1304.000000	0.292169
1305.000000	0.292208
1306.000000	0.292211
1307.000000	0.292250
1308.000000	0.292271
1309.000000	0.292270
1310.000000	0.292269
1311.000000	0.292293
1312.000000	0.292239
1313.000000	0.292213
1314.000000	0.292149
1315.000000	0.291996
1316.000000	0.291974
1317.000000	0.291970
1318.000000	0.291932
1319.000000	0.291869
1320.000000	0.291816
1321.000000	0.291786
1322.000000	0.291767
1323.000000	0.291751
1324.000000	0.291800
1325.000000	0.291770
1326.000000	0.291604
1327.000000	0.291501
1328.000000	0.291455
1329.000000	0.291346
1330.000000	0.291238
1331.000000	0.291170
1332.000000	0.291127
1333.000000	0.291081
1334.000000	0.291140
1335.000000	0.291173
1336.000000	0.291207
1337.000000	0.291208
1338.000000	0.291155
1339.000000	0.291049
1340.000000	0.290974
1341.000000	0.290901
1342.000000	0.290873
1343.000000	0.290808
1344.000000	0.290722
1345.000000	0.290663
1346.000000	0.290662
1347.000000	0.290618
1348.000000	0.290630
1349.000000	0.290604
1350.000000	0.290521
1351.000000	0.290392
1352.000000	0.290280
1353.000000	0.290196
1354.000000	0.290194
1355.000000	0.290270
1356.000000	0.290385
1357.000000	0.290399
1358.000000	0.290418
1359.000000	0.290427
1360.000000	0.290437
1361.000000	0.290488
1362.000000	0.290510
1363.000000	0.290487
1364.000000	0.290499
1365.000000	0.290498
1366.000000	0.290489
1367.000000	0.290482
1368.000000	0.290451
1369.000000	0.290501
1370.000000	0.290466
1371.000000	0.290363
1372.000000	0.290273
1373.000000	0.290157
1374.000000	0.290037
1375.000000	0.290004
1376.000000	0.290109
1377.000000	0.290183
1378.000000	0.290238
1379.000000	0.290261
1380.000000	0.290253
1381.000000	0.290249
1382.000000	0.290234
1383.000000	0.290241
1384.000000	0.290162
1385.000000	0.290033
1386.000000	0.290034
1387.000000	0.290092
1388.000000	0.290088
1389.000000	0.290139
1390.000000	0.290162
1391.000000	0.290039
1392.000000	0.290019
1393.000000	0.290019
1394.000000	0.290101
1395.000000	0.290148
1396.000000	0.290217
1397.000000	0.290219
1398.000000	0.290137
1399.000000	0.290084
1400.000000	0.290009
1401.000000	0.289945
1402.000000	0.289914
1403.000000	0.289880
1404.000000	0.289919
1405.000000	0.289941
1406.000000	0.289936
1407.000000	0.289884
1408.000000	0.289736
1409.000000	0.289650
1410.000000	0.289589
1411.000000	0.289504
1412.000000	0.289448
1413.000000	0.289377
1414.000000	0.289289
1415.000000	0.289229
1416.000000	0.289116
1417.000000	0.289022
1418.000000	0.288904
1419.000000	0.288806
1420.000000	0.288718
1421.000000	0.288689
1422.000000	0.288640
1423.000000	0.288612
1424.000000	0.288510
1425.000000	0.288424
1426.000000	0.288336
1427.000000	0.288292
1428.000000	0.288270
1429.000000	0.288198
1430.000000	0.288148
1431.000000	0.288105
1432.000000	0.288016
1433.000000	0.287927
1434.000000	0.287844
1435.000000	0.287808
1436.000000	0.287765
1437.000000	0.287760
1438.000000	0.287661
1439.000000	0.287529
1440.000000	0.287435
1441.000000	0.287321
1442.000000	0.287257
1443.000000	0.287182
1444.000000	0.287127
1445.000000	0.287056
1446.000000	0.286979
1447.000000	0.286929
1448.000000	0.286865
1449.000000	0.286795
1450.000000	0.286747
1451.000000	0.286712
1452.000000	0.286623
1453.000000	0.286496
1454.000000	0.286366
1455.000000	0.286292
1456.000000	0.286304
1457.000000	0.286344
1458.000000	0.286392
1459.000000	0.286402
1460.000000	0.286346
1461.000000	0.286278
1462.000000	0.286235
1463.000000	0.286142
1464.000000	0.286094
1465.000000	0.286135
1466.000000	0.286124
1467.000000	0.286156
1468.000000	0.286192
1469.000000	0.286229
1470.000000	0.286221
1471.000000	0.286191
1472.000000	0.286164
1473.000000	0.286203
1474.000000	0.286197
1475.000000	0.286232
1476.000000	0.286282
1477.000000	0.286284
1478.000000	0.286291
1479.000000	0.286255
1480.000000	0.286211
1481.000000	0.286160
1482.000000	0.286140
1483.000000	0.286131
1484.000000	0.286131
1485.000000	0.286114
1486.000000	0.286070
1487.000000	0.286053
1488.000000	0.286070
1489.000000	0.286087
1490.000000	0.286024
1491.000000	0.285986
1492.000000	0.285880
1493.000000	0.285840
1494.000000	0.285801
1495.000000	0.285742
1496.000000	0.285693
1497.000000	0.285656
1498.000000	0.285629
1499.000000	0.285572
1500.000000	0.285561
1501.000000	0.285531
1502.000000	0.285451
1503.000000	0.285453
1504.000000	0.285454
1505.000000	0.285454
1506.000000	0.285489
1507.000000	0.285438
1508.000000	0.285399
1509.000000	0.285374
1510.000000	0.285326
1511.000000	0.285348
1512.000000	0.285335
1513.000000	0.285311
1514.000000	0.285354
1515.000000	0.285316
1516.000000	0.285321
1517.000000	0.285354
1518.000000	0.285353
1519.000000	0.285327
1520.000000	0.285339
1521.000000	0.285317
1522.000000	0.285339
1523.000000	0.285425
1524.000000	0.285470
1525.000000	0.285590
1526.000000	0.285681
1527.000000	0.285718
1528.000000	0.285772
1529.000000	0.285760
1530.000000	0.285666
1531.000000	0.285660
1532.000000	0.285681
1533.000000	0.285643
1534.000000	0.285655
1535.000000	0.285658
1536.000000	0.285590
1537.000000	0.285646
1538.000000	0.285694
1539.000000	0.285667
1540.000000	0.285702
1541.000000	0.285785
1542.000000	0.285866
1543.000000	0.285937
1544.000000	0.285993
1545.000000	0.286005
1546.000000	0.285996
1547.000000	0.286029
1548.000000	0.286078
1549.000000	0.286098
1550.000000	0.286091
1551.000000	0.286045
1552.000000	0.285975
1553.000000	0.285906
1554.000000	0.285858
1555.000000	0.285873
1556.000000	0.285919
1557.000000	0.285943
1558.000000	0.285980
1559.000000	0.285976
1560.000000	0.285959
1561.000000	0.285963
1562.000000	0.285938
1563.000000	0.285932
1564.000000	0.285916
1565.000000	0.285881
1566.000000	0.285796
1567.000000	0.285771
1568.000000	0.285744
1569.000000	0.285772
1570.000000	0.285755
1571.000000	0.285706
1572.000000	0.285652
1573.000000	0.285569
1574.000000	0.285534
1575.000000	0.285536
1576.000000	0.285563
1577.000000	0.285618
1578.000000	0.285625
1579.000000	0.285672
1580.000000	0.285729
1581.000000	0.285833
1582.000000	0.285898
1583.000000	0.285976
1584.000000	0.285991
1585.000000	0.286007
1586.000000	0.286077
1587.000000	0.286188
1588.000000	0.286218
1589.000000	0.286250
1590.000000	0.286235
1591.000000	0.286146
1592.000000	0.286110
1593.000000	0.286142
1594.000000	0.286096
1595.000000	0.286062
1596.000000	0.285998
1597.000000	0.285898
1598.000000	0.285816
1599.000000	0.285758
1600.000000	0.285672
1601.000000	0.285659
1602.000000	0.285597
1603.000000	0.285521
1604.000000	0.285464
1605.000000	0.285419
1606.000000	0.285363
1607.000000	0.285370
1608.000000	0.285337
1609.000000	0.285332
1610.000000	0.285284
1611.000000	0.285228
1612.000000	0.285163
1613.000000	0.285185
1614.000000	0.285108
1615.000000	0.285025
1616.000000	0.284974
1617.000000	0.284846
1618.000000	0.284748
1619.000000	0.284662
1620.000000	0.284596
1621.000000	0.284535
1622.000000	0.284563
1623.000000	0.284643
1624.000000	0.284669
1625.000000	0.284588
1626.000000	0.284539
1627.000000	0.284454
1628.000000	0.284514
1629.000000	0.284689
1630.000000	0.284781
1631.000000	0.284857
1632.000000	0.284872
1633.000000	0.284793
1634.000000	0.284814
1635.000000	0.284914
1636.000000	0.284964
1637.000000	0.285081
1638.000000	0.285070
1639.000000	0.285007
1640.000000	0.284966
1641.000000	0.284941
1642.000000	0.284919
1643.000000	0.284942
1644.000000	0.284950
1645.000000	0.284956
1646.000000	0.284873
1647.000000	0.284776
1648.000000	0.284681
1649.000000	0.284590
1650.000000	0.284580
1651.000000	0.284678
1652.000000	0.284725
1653.000000	0.284726
1654.000000	0.284768
1655.000000	0.284762
1656.000000	0.284717
1657.000000	0.284732
1658.000000	0.284756
1659.000000	0.284861
1660.000000	0.284957
1661.000000	0.285020
1662.000000	0.285056
1663.000000	0.285025
1664.000000	0.285031
1665.000000	0.285033
1666.000000	0.285128
1667.000000	0.285196
1668.000000	0.285253
1669.000000	0.285355
1670.000000	0.285305
1671.000000	0.285257
1672.000000	0.285257
1673.000000	0.285174
1674.000000	0.285146
1675.000000	0.285187
1676.000000	0.285208
1677.000000	0.285213
1678.000000	0.285266
1679.000000	0.285292
1680.000000	0.285237
1681.000000	0.285188
1682.000000	0.285112
1683.000000	0.285082
1684.000000	0.285128
1685.000000	0.285225
1686.000000	0.285265
1687.000000	0.285283
1688.000000	0.285221
1689.000000	0.285132
1690.000000	0.285116
1691.000000	0.285179
1692.000000	0.285175
1693.000000	0.285192
1694.000000	0.285189
1695.000000	0.285208
1696.000000	0.285238
1697.000000	0.285186
1698.000000	0.285106
1699.000000	0.285069
1700.000000	0.284998
1701.000000	0.285041
1702.000000	0.285007
1703.000000	0.284954
1704.000000	0.284991
1705.000000	0.285035
1706.000000	0.285145
1707.000000	0.285210
1708.000000	0.285246
1709.000000	0.285235
1710.000000	0.285235
1711.000000	0.285273
1712.000000	0.285372
1713.000000	0.285410
1714.000000	0.285471
1715.000000	0.285520
1716.000000	0.285570
1717.000000	0.285561
1718.000000	0.285470
1719.000000	0.285424
1720.000000	0.285400
1721.000000	0.285371
1722.000000	0.285418
1723.000000	0.285379
1724.000000	0.285284
1725.000000	0.285235
1726.000000	0.285082
1727.000000	0.284995
1728.000000	0.284905
1729.000000	0.284754
1730.000000	0.284703
1731.000000	0.284642
1732.000000	0.284562
1733.000000	0.284567
1734.000000	0.284496
1735.000000	0.284486
1736.000000	0.284502
1737.000000	0.284482
1738.000000	0.284488
1739.000000	0.284494
1740.000000	0.284465
1741.000000	0.284439
1742.000000	0.284429
1743.000000	0.284492
1744.000000	0.284568
1745.000000	0.284553
1746.000000	0.284551
1747.000000	0.284473
1748.000000	0.284384
1749.000000	0.284341
1750.000000	0.284294
1751.000000	0.284336
1752.000000	0.284452
1753.000000	0.284517
1754.000000	0.284584
1755.000000	0.284594
1756.000000	0.284642
1757.000000	0.284724
1758.000000	0.284814
1759.000000	0.284940
1760.000000	0.285020
1761.000000	0.285047
1762.000000	0.285054
1763.000000	0.285044
1764.000000	0.285039
1765.000000	0.284955
1766.000000	0.284961
1767.000000	0.284953
1768.000000	0.284907
1769.000000	0.284994
1770.000000	0.285028
1771.000000	0.284945
1772.000000	0.284939
1773.000000	0.284895
1774.000000	0.284920
1775.000000	0.285064
1776.000000	0.285153
1777.000000	0.285214
1778.000000	0.285290
1779.000000	0.285345
1780.000000	0.285451
1781.000000	0.285571
1782.000000	0.285662
1783.000000	0.285808
1784.000000	0.285864
1785.000000	0.285870
1786.000000	0.285929
1787.000000	0.286048
1788.000000	0.286106
1789.000000	0.286147
1790.000000	0.286079
1791.000000	0.285998
1792.000000	0.285995
1793.000000	0.285970
1794.000000	0.285939
1795.000000	0.285943
1796.000000	0.285953
1797.000000	0.285943
1798.000000	0.285917
1799.000000	0.285902
1800.000000	0.285935
1801.000000	0.285907
1802.000000	0.285959
1803.000000	0.285888
1804.000000	0.286003
1805.000000	0.286440
1806.000000	0.286638
1807.000000	0.286756
1808.000000	0.286844
1809.000000	0.286817
1810.000000	0.286858
1811.000000	0.286819
1812.000000	0.286630
1813.000000	0.286768
1814.000000	0.287106
1815.000000	0.287270
1816.000000	0.287883
1817.000000	0.287782
1818.000000	0.287288
1819.000000	0.286770
1820.000000	0.286090
1821.000000	0.285439
1822.000000	0.285203
1823.000000	0.285319
1824.000000	0.285164
1825.000000	0.284980
1826.000000	0.285044
1827.000000	0.284963
1828.000000	0.285084
1829.000000	0.285546
1830.000000	0.285749
1831.000000	0.285746
1832.000000	0.285394
1833.000000	0.285342
1834.000000	0.285322
1835.000000	0.285267
1836.000000	0.285326
1837.000000	0.285224
1838.000000	0.284839
1839.000000	0.284383
1840.000000	0.284089
1841.000000	0.283789
1842.000000	0.283792
1843.000000	0.284036
1844.000000	0.284249
1845.000000	0.284671
1846.000000	0.284951
1847.000000	0.285120
1848.000000	0.285154
1849.000000	0.284950
1850.000000	0.284941
1851.000000	0.285025
1852.000000	0.285001
1853.000000	0.285137
1854.000000	0.285484
1855.000000	0.285425
1856.000000	0.285046
1857.000000	0.284824
1858.000000	0.284649
1859.000000	0.284299
1860.000000	0.284046
1861.000000	0.284129
1862.000000	0.284012
1863.000000	0.283869
1864.000000	0.283805
1865.000000	0.283804
1866.000000	0.283680
1867.000000	0.283483
1868.000000	0.283254
1869.000000	0.282865
1870.000000	0.282934
1871.000000	0.283113
1872.000000	0.283155
1873.000000	0.283295
1874.000000	0.283555
1875.000000	0.283625
1876.000000	0.283396
1877.000000	0.283061
1878.000000	0.282752
1879.000000	0.282342
1880.000000	0.282131
1881.000000	0.282171
1882.000000	0.281894
1883.000000	0.281694
1884.000000	0.281639
1885.000000	0.281365
1886.000000	0.281108
1887.000000	0.281026
1888.000000	0.280757
1889.000000	0.280302
1890.000000	0.280168
1891.000000	0.279985
1892.000000	0.279792
1893.000000	0.279729
1894.000000	0.279640
1895.000000	0.279392
1896.000000	0.279282
1897.000000	0.279206
1898.000000	0.278763
1899.000000	0.278279
1900.000000	0.277835
1901.000000	0.277157
1902.000000	0.276562
1903.000000	0.276306
1904.000000	0.276211
1905.000000	0.276087
1906.000000	0.275747
1907.000000	0.275436
1908.000000	0.274861
1909.000000	0.274334
1910.000000	0.274025
1911.000000	0.273846
1912.000000	0.273852
1913.000000	0.273739
1914.000000	0.273650
1915.000000	0.273514
1916.000000	0.273363
1917.000000	0.273143
1918.000000	0.273075
1919.000000	0.272784
1920.000000	0.272388
1921.000000	0.272140
1922.000000	0.271862
1923.000000	0.271760
1924.000000	0.271701
1925.000000	0.271614
1926.000000	0.271666
1927.000000	0.271747
1928.000000	0.271646
1929.000000	0.271583
1930.000000	0.271431
1931.000000	0.271188
1932.000000	0.270984
1933.000000	0.271021
1934.000000	0.271137
1935.000000	0.271204
1936.000000	0.271184
1937.000000	0.271048
1938.000000	0.270840
1939.000000	0.270574
1940.000000	0.270170
1941.000000	0.269959
1942.000000	0.269839
1943.000000	0.269576
1944.000000	0.269618
1945.000000	0.269509
1946.000000	0.269351
1947.000000	0.269437
1948.000000	0.269330
1949.000000	0.269376
1950.000000	0.269461
1951.000000	0.269359
1952.000000	0.269209
1953.000000	0.269008
1954.000000	0.268881
1955.000000	0.268864
1956.000000	0.268899
1957.000000	0.269146
1958.000000	0.269214
1959.000000	0.269247
1960.000000	0.269316
1961.000000	0.269186
1962.000000	0.269130
1963.000000	0.269169
1964.000000	0.269284
1965.000000	0.269164
1966.000000	0.269132
1967.000000	0.269460
1968.000000	0.269690
1969.000000	0.269744
1970.000000	0.269950
1971.000000	0.269658
1972.000000	0.269269
1973.000000	0.268979
1974.000000	0.268805
1975.000000	0.268665
1976.000000	0.268688
1977.000000	0.268640
1978.000000	0.268429
1979.000000	0.268662
1980.000000	0.268868
1981.000000	0.269020
1982.000000	0.269349
1983.000000	0.269557
1984.000000	0.269620
1985.000000	0.269643
1986.000000	0.269551
1987.000000	0.269345
1988.000000	0.269216
1989.000000	0.269188
1990.000000	0.269219
1991.000000	0.269165
1992.000000	0.269249
1993.000000	0.269285
1994.000000	0.269392
1995.000000	0.269658
1996.000000	0.269658
1997.000000	0.269745
1998.000000	0.269911
1999.000000	0.269971
2000.000000	0.269908
2001.000000	0.270101
2002.000000	0.270244
2003.000000	0.270240
2004.000000	0.270523
2005.000000	0.270675
2006.000000	0.270834
2007.000000	0.270959
2008.000000	0.270964
2009.000000	0.270761
2010.000000	0.270800
2011.000000	0.270718
2012.000000	0.270689
2013.000000	0.270740
2014.000000	0.270692
2015.000000	0.270631
2016.000000	0.270528
2017.000000	0.270470
2018.000000	0.270528
2019.000000	0.270722
2020.000000	0.270762
2021.000000	0.270769
2022.000000	0.270809
2023.000000	0.270717
2024.000000	0.270389
2025.000000	0.270343
2026.000000	0.270251
2027.000000	0.270120
2028.000000	0.270236
2029.000000	0.270567
2030.000000	0.270889
2031.000000	0.271055
2032.000000	0.271139
2033.000000	0.271240
2034.000000	0.271312
2035.000000	0.271486
2036.000000	0.271415
2037.000000	0.271327
2038.000000	0.271324
2039.000000	0.271233
2040.000000	0.271367
2041.000000	0.271606
2042.000000	0.271784
2043.000000	0.271735
2044.000000	0.271611
2045.000000	0.271318
2046.000000	0.270955
2047.000000	0.270908
2048.000000	0.270935
2049.000000	0.271182
2050.000000	0.271513
2051.000000	0.271620
2052.000000	0.271666
2053.000000	0.271498
2054.000000	0.271263
2055.000000	0.271223
2056.000000	0.271215
2057.000000	0.271171
2058.000000	0.271256
2059.000000	0.271503
2060.000000	0.271531
2061.000000	0.271463
2062.000000	0.271404
2063.000000	0.271315
2064.000000	0.271070
2065.000000	0.270961
2066.000000	0.270808
2067.000000	0.270761
2068.000000	0.270813
2069.000000	0.270973
2070.000000	0.271225
2071.000000	0.271316
2072.000000	0.271302
2073.000000	0.271237
2074.000000	0.271016
2075.000000	0.271053
2076.000000	0.271272
2077.000000	0.271376
2078.000000	0.271671
2079.000000	0.271666
2080.000000	0.271391
2081.000000	0.271317
2082.000000	0.271233
2083.000000	0.271188
2084.000000	0.271209
2085.000000	0.271182
2086.000000	0.270938
2087.000000	0.270723
2088.000000	0.270678
2089.000000	0.270922
2090.000000	0.271189
2091.000000	0.271859
2092.000000	0.272160
2093.000000	0.272385
2094.000000	0.272491
2095.000000	0.272359
2096.000000	0.272492
2097.000000	0.272609
2098.000000	0.272774
2099.000000	0.273035
2100.000000	0.273233
2101.000000	0.273378
2102.000000	0.273461
2103.000000	0.273465
2104.000000	0.273487
2105.000000	0.273372
2106.000000	0.273016
2107.000000	0.272888
2108.000000	0.272629
2109.000000	0.272637
2110.000000	0.272708
2111.000000	0.272919
2112.000000	0.273281
2113.000000	0.273503
2114.000000	0.273869
2115.000000	0.273919
2116.000000	0.273791
2117.000000	0.273674
2118.000000	0.273513
2119.000000	0.273457
2120.000000	0.273535
2121.000000	0.273810
2122.000000	0.273893
2123.000000	0.274006
2124.000000	0.274074
2125.000000	0.274049
2126.000000	0.274017
2127.000000	0.273930
2128.000000	0.274036
2129.000000	0.274086
2130.000000	0.274287
2131.000000	0.274272
2132.000000	0.274383
2133.000000	0.274368
2134.000000	0.274314
2135.000000	0.274509
2136.000000	0.274567
2137.000000	0.274558
2138.000000	0.274497
2139.000000	0.274451
2140.000000	0.274311
2141.000000	0.274228
2142.000000	0.274197
2143.000000	0.273896
2144.000000	0.273477
2145.000000	0.273415
2146.000000	0.273517
2147.000000	0.273954
2148.000000	0.274101
2149.000000	0.274491
2150.000000	0.274484
2151.000000	0.274084
2152.000000	0.273991
2153.000000	0.273844
2154.000000	0.273805
2155.000000	0.273947
2156.000000	0.273941
2157.000000	0.273987
2158.000000	0.273981
2159.000000	0.273897
2160.000000	0.273920
2161.000000	0.273964
2162.000000	0.274070
2163.000000	0.274106
2164.000000	0.274147
2165.000000	0.274234
2166.000000	0.274335
2167.000000	0.274411
2168.000000	0.274376
2169.000000	0.274439
2170.000000	0.274469
2171.000000	0.274268
2172.000000	0.273905
2173.000000	0.273682
2174.000000	0.273171
2175.000000	0.273074
2176.000000	0.273288
2177.000000	0.273411
2178.000000	0.273880
2179.000000	0.274083
2180.000000	0.273989
2181.000000	0.274371
2182.000000	0.274478
2183.000000	0.274413
2184.000000	0.274398
2185.000000	0.274123
2186.000000	0.273521
2187.000000	0.273112
2188.000000	0.272839
2189.000000	0.272612
2190.000000	0.272592
2191.000000	0.272594
2192.000000	0.272424
2193.000000	0.272151
2194.000000	0.272013
2195.000000	0.271789
2196.000000	0.271770
2197.000000	0.271931
2198.000000	0.272095
2199.000000	0.272694
2200.000000	0.272975
2201.000000	0.273031
2202.000000	0.273323
2203.000000	0.273565
2204.000000	0.273191
2205.000000	0.273008
2206.000000	0.273040
2207.000000	0.272873
2208.000000	0.272741
2209.000000	0.272543
2210.000000	0.273050
2211.000000	0.273428
2212.000000	0.273675
2213.000000	0.273559
2214.000000	0.273149
2215.000000	0.272734
2216.000000	0.271729
2217.000000	0.271537
2218.000000	0.271897
2219.000000	0.272151
2220.000000	0.272521
2221.000000	0.272993
2222.000000	0.273504
2223.000000	0.273985
2224.000000	0.274555
2225.000000	0.275776
2226.000000	0.274920
2227.000000	0.273930
2228.000000	0.273515
2229.000000	0.271908
2230.000000	0.272086
2231.000000	0.272978
2232.000000	0.273420
2233.000000	0.274293
2234.000000	0.274233
2235.000000	0.274785
2236.000000	0.274760
2237.000000	0.273979
2238.000000	0.273814
2239.000000	0.273654
2240.000000	0.273709
2241.000000	0.274322
2242.000000	0.274167
2243.000000	0.273583
2244.000000	0.273425
2245.000000	0.272990
2246.000000	0.272885
2247.000000	0.273175
2248.000000	0.273457
2249.000000	0.273776
2250.000000	0.274251
2251.000000	0.274335
2252.000000	0.274286
2253.000000	0.273422
2254.000000	0.272438
2255.000000	0.272330
2256.000000	0.272344
2257.000000	0.273556
2258.000000	0.274097
2259.000000	0.273397
2260.000000	0.272741
2261.000000	0.271793
2262.000000	0.269454
2263.000000	0.269275
2264.000000	0.270191
2265.000000	0.270765
2266.000000	0.272582
2267.000000	0.272830
2268.000000	0.272001
2269.000000	0.271919
2270.000000	0.271534
2271.000000	0.271385
2272.000000	0.271495
2273.000000	0.271909
2274.000000	0.272850
2275.000000	0.273021
2276.000000	0.273123
2277.000000	0.273039
2278.000000	0.272558
2279.000000	0.271711
2280.000000	0.271406
2281.000000	0.271242
2282.000000	0.270843
2283.000000	0.270317
2284.000000	0.270545
2285.000000	0.270851
2286.000000	0.271091
2287.000000	0.271687
2288.000000	0.271770
2289.000000	0.271849
2290.000000	0.271411
2291.000000	0.270929
2292.000000	0.270877
2293.000000	0.270146
2294.000000	0.270000
2295.000000	0.270451
2296.000000	0.270502
2297.000000	0.270615
2298.000000	0.270577
2299.000000	0.270305
2300.000000	0.270156
2301.000000	0.269625
2302.000000	0.269413
2303.000000	0.269602
2304.000000	0.269409
2305.000000	0.269409
2306.000000	0.269241
2307.000000	0.268655
2308.000000	0.268277
2309.000000	0.268040
2310.000000	0.267943
2311.000000	0.268379
2312.000000	0.268306
2313.000000	0.268237
2314.000000	0.268316
2315.000000	0.268399
2316.000000	0.268817
2317.000000	0.268827
2318.000000	0.269285
2319.000000	0.269740
2320.000000	0.269359
2321.000000	0.269336
2322.000000	0.269113
2323.000000	0.269019
2324.000000	0.269155
2325.000000	0.269770
2326.000000	0.270594
2327.000000	0.270136
2328.000000	0.270102
2329.000000	0.269920
2330.000000	0.267810
2331.000000	0.266954
2332.000000	0.267473
2333.000000	0.267831
2334.000000	0.269348
2335.000000	0.269989
2336.000000	0.269487
2337.000000	0.269164
2338.000000	0.268063
2339.000000	0.267706
2340.000000	0.268231
2341.000000	0.268416
2342.000000	0.269081
2343.000000	0.268695
2344.000000	0.266841
2345.000000	0.266340
2346.000000	0.266036
2347.000000	0.265755
2348.000000	0.266451
2349.000000	0.266733
2350.000000	0.266235
2351.000000	0.266248
2352.000000	0.265791
2353.000000	0.267725
2354.000000	0.268657
2355.000000	0.267912
2356.000000	0.268505
2357.000000	0.267276
2358.000000	0.265908
2359.000000	0.267131
2360.000000	0.268265
2361.000000	0.269213
2362.000000	0.269766
2363.000000	0.268488
2364.000000	0.265969
2365.000000	0.264239
2366.000000	0.264090
2367.000000	0.265013
2368.000000	0.266506
2369.000000	0.266826
2370.000000	0.265891
2371.000000	0.263816
2372.000000	0.262336
2373.000000	0.263331
2374.000000	0.262539
2375.000000	0.262086
2376.000000	0.262990
2377.000000	0.262123
2378.000000	0.262794
2379.000000	0.263825
2380.000000	0.263348
2381.000000	0.263008
2382.000000	0.262797
2383.000000	0.263282
2384.000000	0.264152
2385.000000	0.265196
2386.000000	0.266016
2387.000000	0.265247
2388.000000	0.264987
2389.000000	0.264144
2390.000000	0.262420
2391.000000	0.262988
2392.000000	0.262818
2393.000000	0.261456
2394.000000	0.259845
2395.000000	0.257615
2396.000000	0.257161
2397.000000	0.258878
2398.000000	0.262362
2399.000000	0.265515
2400.000000	0.266706
2401.000000	0.267897
2402.000000	0.267720
2403.000000	0.265773
2404.000000	0.263612
2405.000000	0.260330
2406.000000	0.257789
2407.000000	0.257767
2408.000000	0.258912
2409.000000	0.260401
2410.000000	0.261238
2411.000000	0.258725
2412.000000	0.257736
2413.000000	0.258038
2414.000000	0.258584
2415.000000	0.262453
2416.000000	0.265048
2417.000000	0.266742
2418.000000	0.265712
2419.000000	0.263349
2420.000000	0.263254
2421.000000	0.260911
2422.000000	0.257845
2423.000000	0.258683
2424.000000	0.257492
2425.000000	0.256335
2426.000000	0.261392
2427.000000	0.264441
2428.000000	0.265416
2429.000000	0.265780
2430.000000	0.263178
2431.000000	0.259400
2432.000000	0.257422
2433.000000	0.256587
2434.000000	0.255335
2435.000000	0.255672
2436.000000	0.254596
2437.000000	0.257278
2438.000000	0.261784
2439.000000	0.259788
2440.000000	0.260404
2441.000000	0.260160
2442.000000	0.261162
2443.000000	0.267781
2444.000000	0.269353
2445.000000	0.270259
2446.000000	0.270486
2447.000000	0.272272
2448.000000	0.276674
2449.000000	0.279704
2450.000000	0.279418
2451.000000	0.270572
2452.000000	0.266034
2453.000000	0.263596
2454.000000	0.258602
2455.000000	0.260308
2456.000000	0.256825
2457.000000	0.252198
2458.000000	0.257403
2459.000000	0.263070
2460.000000	0.267769
2461.000000	0.267422
2462.000000	0.263143
2463.000000	0.257317
2464.000000	0.254467
2465.000000	0.260908
2466.000000	0.263197
2467.000000	0.267995
2468.000000	0.271525
2469.000000	0.263548
2470.000000	0.261013
2471.000000	0.254197
2472.000000	0.250256
2473.000000	0.256627
2474.000000	0.263167
2475.000000	0.275420
2476.000000	0.272671
2477.000000	0.259030
2478.000000	0.252237
2479.000000	0.245885
2480.000000	0.249244
2481.000000	0.266346
2482.000000	0.281890
2483.000000	0.278139
2484.000000	0.276059
2485.000000	0.289259
2486.000000	0.280369
2487.000000	0.280819
2488.000000	0.296798
2489.000000	0.274884
2490.000000	0.266860
2491.000000	0.271659
2492.000000	0.261690
2493.000000	0.257062
2494.000000	0.261642
2495.000000	0.262937
2496.000000	0.256530
2497.000000	0.251394
2498.000000	0.249667
2499.000000	0.245502
2500.000000	0.246131
