# Wavelength	hexa10_00001.asd.rts.txt
350.000000	0.201742
351.000000	0.201437
352.000000	0.202445
353.000000	0.202535
354.000000	0.202401
355.000000	0.199683
356.000000	0.199538
357.000000	0.202802
358.000000	0.204179
359.000000	0.203227
360.000000	0.202681
361.000000	0.204961
362.000000	0.207563
363.000000	0.209106
364.000000	0.208773
365.000000	0.208414
366.000000	0.207505
367.000000	0.206824
368.000000	0.209026
369.000000	0.208891
370.000000	0.208491
371.000000	0.211024
372.000000	0.209310
373.000000	0.209328
374.000000	0.214110
375.000000	0.214122
376.000000	0.213046
377.000000	0.212609
378.000000	0.213119
379.000000	0.213752
380.000000	0.214198
381.000000	0.215017
382.000000	0.215275
383.000000	0.215380
384.000000	0.215863
385.000000	0.216035
386.000000	0.218073
387.000000	0.221015
388.000000	0.219927
389.000000	0.219435
390.000000	0.219839
391.000000	0.219798
392.000000	0.219972
393.000000	0.220316
394.000000	0.220817
395.000000	0.222091
396.000000	0.222458
397.000000	0.222019
398.000000	0.223551
399.000000	0.224090
400.000000	0.224027
401.000000	0.224892
402.000000	0.225433
403.000000	0.225693
404.000000	0.225982
405.000000	0.225939
406.000000	0.226213
407.000000	0.227004
408.000000	0.227696
409.000000	0.228118
410.000000	0.228341
411.000000	0.228566
412.000000	0.228884
413.000000	0.229204
414.000000	0.229471
415.000000	0.230030
416.000000	0.230477
417.000000	0.230638
418.000000	0.230891
419.000000	0.231319
420.000000	0.231860
421.000000	0.232308
422.000000	0.232532
423.000000	0.232552
424.000000	0.232584
425.000000	0.233203
426.000000	0.233766
427.000000	0.233858
428.000000	0.234296
429.000000	0.234608
430.000000	0.234738
431.000000	0.235184
432.000000	0.235439
433.000000	0.235507
434.000000	0.235717
435.000000	0.236031
436.000000	0.236236
437.000000	0.236199
438.000000	0.236431
439.000000	0.236675
440.000000	0.236872
441.000000	0.237084
442.000000	0.237241
443.000000	0.237340
444.000000	0.237590
445.000000	0.237625
446.000000	0.237759
447.000000	0.238215
448.000000	0.238583
449.000000	0.238816
450.000000	0.238992
451.000000	0.239381
452.000000	0.239698
453.000000	0.239851
454.000000	0.240192
455.000000	0.240465
456.000000	0.240683
457.000000	0.240794
458.000000	0.240997
459.000000	0.241310
460.000000	0.241706
461.000000	0.241881
462.000000	0.242087
463.000000	0.242332
464.000000	0.242713
465.000000	0.242896
466.000000	0.242948
467.000000	0.243336
468.000000	0.243584
469.000000	0.243658
470.000000	0.243813
471.000000	0.244141
472.000000	0.244384
473.000000	0.244464
474.000000	0.244739
475.000000	0.245020
476.000000	0.245308
477.000000	0.245441
478.000000	0.245540
479.000000	0.245801
480.000000	0.246088
481.000000	0.246224
482.000000	0.246463
483.000000	0.246798
484.000000	0.247035
485.000000	0.247238
486.000000	0.247538
487.000000	0.247539
488.000000	0.247722
489.000000	0.248117
490.000000	0.248435
491.000000	0.248708
492.000000	0.249013
493.000000	0.249288
494.000000	0.249445
495.000000	0.249657
496.000000	0.249987
497.000000	0.250299
498.000000	0.250649
499.000000	0.251053
500.000000	0.251273
501.000000	0.251516
502.000000	0.251818
503.000000	0.252055
504.000000	0.252215
505.000000	0.252396
506.000000	0.252681
507.000000	0.252942
508.000000	0.253256
509.000000	0.253609
510.000000	0.253925
511.000000	0.254210
512.000000	0.254515
513.000000	0.254878
514.000000	0.255184
515.000000	0.255477
516.000000	0.255782
517.000000	0.256088
518.000000	0.256411
519.000000	0.256686
520.000000	0.256996
521.000000	0.257312
522.000000	0.257620
523.000000	0.257912
524.000000	0.258222
525.000000	0.258518
526.000000	0.258781
527.000000	0.259065
528.000000	0.259341
529.000000	0.259622
530.000000	0.259892
531.000000	0.260205
532.000000	0.260500
533.000000	0.260773
534.000000	0.261077
535.000000	0.261385
536.000000	0.261623
537.000000	0.261895
538.000000	0.262189
539.000000	0.262441
540.000000	0.262733
541.000000	0.262992
542.000000	0.263202
543.000000	0.263500
544.000000	0.263832
545.000000	0.264098
546.000000	0.264344
547.000000	0.264659
548.000000	0.265034
549.000000	0.265298
550.000000	0.265630
551.000000	0.266019
552.000000	0.266351
553.000000	0.266618
554.000000	0.266864
555.000000	0.267142
556.000000	0.267515
557.000000	0.267815
558.000000	0.268113
559.000000	0.268421
560.000000	0.268689
561.000000	0.269007
562.000000	0.269377
563.000000	0.269715
564.000000	0.270051
565.000000	0.270339
566.000000	0.270717
567.000000	0.271085
568.000000	0.271379
569.000000	0.271722
570.000000	0.272046
571.000000	0.272344
572.000000	0.272680
573.000000	0.272981
574.000000	0.273239
575.000000	0.273526
576.000000	0.273862
577.000000	0.274170
578.000000	0.274463
579.000000	0.274833
580.000000	0.275172
581.000000	0.275453
582.000000	0.275786
583.000000	0.276120
584.000000	0.276444
585.000000	0.276763
586.000000	0.277087
587.000000	0.277398
588.000000	0.277686
589.000000	0.278028
590.000000	0.278371
591.000000	0.278680
592.000000	0.278989
593.000000	0.279269
594.000000	0.279516
595.000000	0.279751
596.000000	0.279934
597.000000	0.280128
598.000000	0.280334
599.000000	0.280494
600.000000	0.280715
601.000000	0.280986
602.000000	0.281174
603.000000	0.281337
604.000000	0.281514
605.000000	0.281676
606.000000	0.281781
607.000000	0.281877
608.000000	0.282075
609.000000	0.282322
610.000000	0.282603
611.000000	0.282899
612.000000	0.283157
613.000000	0.283364
614.000000	0.283550
615.000000	0.283705
616.000000	0.283785
617.000000	0.283803
618.000000	0.283933
619.000000	0.284044
620.000000	0.284123
621.000000	0.284254
622.000000	0.284393
623.000000	0.284564
624.000000	0.284775
625.000000	0.284944
626.000000	0.285152
627.000000	0.285434
628.000000	0.285753
629.000000	0.286073
630.000000	0.286304
631.000000	0.286614
632.000000	0.286864
633.000000	0.287103
634.000000	0.287373
635.000000	0.287586
636.000000	0.287749
637.000000	0.287866
638.000000	0.287997
639.000000	0.288096
640.000000	0.288216
641.000000	0.288326
642.000000	0.288422
643.000000	0.288515
644.000000	0.288624
645.000000	0.288752
646.000000	0.288900
647.000000	0.289033
648.000000	0.289138
649.000000	0.289255
650.000000	0.289397
651.000000	0.289608
652.000000	0.289785
653.000000	0.289962
654.000000	0.290148
655.000000	0.290336
656.000000	0.290528
657.000000	0.290682
658.000000	0.290879
659.000000	0.291113
660.000000	0.291343
661.000000	0.291522
662.000000	0.291674
663.000000	0.291855
664.000000	0.292035
665.000000	0.292165
666.000000	0.292303
667.000000	0.292488
668.000000	0.292699
669.000000	0.292927
670.000000	0.293158
671.000000	0.293328
672.000000	0.293504
673.000000	0.293680
674.000000	0.293819
675.000000	0.293961
676.000000	0.294103
677.000000	0.294242
678.000000	0.294377
679.000000	0.294543
680.000000	0.294750
681.000000	0.294887
682.000000	0.295093
683.000000	0.295310
684.000000	0.295502
685.000000	0.295663
686.000000	0.295824
687.000000	0.295981
688.000000	0.296142
689.000000	0.296320
690.000000	0.296543
691.000000	0.296729
692.000000	0.296898
693.000000	0.297107
694.000000	0.297278
695.000000	0.297467
696.000000	0.297646
697.000000	0.297766
698.000000	0.297891
699.000000	0.298050
700.000000	0.298242
701.000000	0.298365
702.000000	0.298506
703.000000	0.298677
704.000000	0.298839
705.000000	0.299023
706.000000	0.299187
707.000000	0.299354
708.000000	0.299505
709.000000	0.299642
710.000000	0.299790
711.000000	0.299948
712.000000	0.300095
713.000000	0.300256
714.000000	0.300467
715.000000	0.300626
716.000000	0.300760
717.000000	0.300925
718.000000	0.301059
719.000000	0.301170
720.000000	0.301286
721.000000	0.301407
722.000000	0.301543
723.000000	0.301729
724.000000	0.301843
725.000000	0.301946
726.000000	0.302116
727.000000	0.302269
728.000000	0.302435
729.000000	0.302604
730.000000	0.302720
731.000000	0.302874
732.000000	0.303008
733.000000	0.303141
734.000000	0.303277
735.000000	0.303376
736.000000	0.303530
737.000000	0.303633
738.000000	0.303716
739.000000	0.303876
740.000000	0.304004
741.000000	0.304156
742.000000	0.304315
743.000000	0.304440
744.000000	0.304544
745.000000	0.304608
746.000000	0.304716
747.000000	0.304860
748.000000	0.304937
749.000000	0.304985
750.000000	0.305009
751.000000	0.305026
752.000000	0.305084
753.000000	0.305182
754.000000	0.305241
755.000000	0.305340
756.000000	0.305456
757.000000	0.305503
758.000000	0.305554
759.000000	0.305604
760.000000	0.305605
761.000000	0.305731
762.000000	0.305872
763.000000	0.305984
764.000000	0.306138
765.000000	0.306228
766.000000	0.306297
767.000000	0.306389
768.000000	0.306436
769.000000	0.306476
770.000000	0.306529
771.000000	0.306580
772.000000	0.306671
773.000000	0.306734
774.000000	0.306790
775.000000	0.306842
776.000000	0.306893
777.000000	0.306934
778.000000	0.307015
779.000000	0.307014
780.000000	0.306968
781.000000	0.307038
782.000000	0.307176
783.000000	0.307400
784.000000	0.307550
785.000000	0.307633
786.000000	0.307660
787.000000	0.307638
788.000000	0.307574
789.000000	0.307484
790.000000	0.307407
791.000000	0.307443
792.000000	0.307514
793.000000	0.307596
794.000000	0.307678
795.000000	0.307746
796.000000	0.307754
797.000000	0.307707
798.000000	0.307673
799.000000	0.307707
800.000000	0.307764
801.000000	0.307779
802.000000	0.307775
803.000000	0.307763
804.000000	0.307794
805.000000	0.307872
806.000000	0.307929
807.000000	0.307989
808.000000	0.307972
809.000000	0.308046
810.000000	0.308147
811.000000	0.308208
812.000000	0.308328
813.000000	0.308456
814.000000	0.308528
815.000000	0.308486
816.000000	0.308409
817.000000	0.308333
818.000000	0.308207
819.000000	0.308200
820.000000	0.308213
821.000000	0.308157
822.000000	0.308134
823.000000	0.308148
824.000000	0.308130
825.000000	0.308117
826.000000	0.308157
827.000000	0.308173
828.000000	0.308160
829.000000	0.308134
830.000000	0.308040
831.000000	0.307963
832.000000	0.307890
833.000000	0.307857
834.000000	0.307844
835.000000	0.307859
836.000000	0.307866
837.000000	0.307919
838.000000	0.308012
839.000000	0.308047
840.000000	0.308036
841.000000	0.307975
842.000000	0.307840
843.000000	0.307724
844.000000	0.307646
845.000000	0.307562
846.000000	0.307449
847.000000	0.307359
848.000000	0.307296
849.000000	0.307274
850.000000	0.307219
851.000000	0.307152
852.000000	0.307112
853.000000	0.307031
854.000000	0.306899
855.000000	0.306836
856.000000	0.306785
857.000000	0.306684
858.000000	0.306634
859.000000	0.306598
860.000000	0.306556
861.000000	0.306520
862.000000	0.306483
863.000000	0.306357
864.000000	0.306233
865.000000	0.306141
866.000000	0.306092
867.000000	0.305996
868.000000	0.305947
869.000000	0.305865
870.000000	0.305722
871.000000	0.305539
872.000000	0.305332
873.000000	0.305080
874.000000	0.304913
875.000000	0.304871
876.000000	0.304887
877.000000	0.304773
878.000000	0.304545
879.000000	0.304388
880.000000	0.304255
881.000000	0.304133
882.000000	0.304013
883.000000	0.303853
884.000000	0.303552
885.000000	0.303332
886.000000	0.303085
887.000000	0.302802
888.000000	0.302625
889.000000	0.302458
890.000000	0.302177
891.000000	0.301904
892.000000	0.301740
893.000000	0.301543
894.000000	0.301369
895.000000	0.301238
896.000000	0.301057
897.000000	0.300860
898.000000	0.300705
899.000000	0.300481
900.000000	0.300276
901.000000	0.300093
902.000000	0.299941
903.000000	0.299823
904.000000	0.299718
905.000000	0.299504
906.000000	0.299286
907.000000	0.299001
908.000000	0.298699
909.000000	0.298380
910.000000	0.298107
911.000000	0.297861
912.000000	0.297643
913.000000	0.297532
914.000000	0.297333
915.000000	0.297102
916.000000	0.296925
917.000000	0.296725
918.000000	0.296562
919.000000	0.296453
920.000000	0.296344
921.000000	0.296128
922.000000	0.295884
923.000000	0.295737
924.000000	0.295530
925.000000	0.295294
926.000000	0.295068
927.000000	0.294758
928.000000	0.294453
929.000000	0.294160
930.000000	0.293862
931.000000	0.293513
932.000000	0.293232
933.000000	0.293043
934.000000	0.292751
935.000000	0.292468
936.000000	0.292273
937.000000	0.292084
938.000000	0.291811
939.000000	0.291584
940.000000	0.291328
941.000000	0.291026
942.000000	0.290810
943.000000	0.290658
944.000000	0.290438
945.000000	0.290289
946.000000	0.290003
947.000000	0.289724
948.000000	0.289553
949.000000	0.289156
950.000000	0.288804
951.000000	0.288518
952.000000	0.288183
953.000000	0.287854
954.000000	0.287567
955.000000	0.287273
956.000000	0.286992
957.000000	0.286892
958.000000	0.286822
959.000000	0.286658
960.000000	0.286541
961.000000	0.286374
962.000000	0.286143
963.000000	0.286005
964.000000	0.285714
965.000000	0.285423
966.000000	0.285170
967.000000	0.284928
968.000000	0.284651
969.000000	0.284353
970.000000	0.284171
971.000000	0.283884
972.000000	0.283609
973.000000	0.283339
974.000000	0.283066
975.000000	0.282772
976.000000	0.282518
977.000000	0.282322
978.000000	0.282064
979.000000	0.281909
980.000000	0.281621
981.000000	0.281315
982.000000	0.281134
983.000000	0.280895
984.000000	0.280654
985.000000	0.280567
986.000000	0.280369
987.000000	0.280263
988.000000	0.280218
989.000000	0.279875
990.000000	0.279669
991.000000	0.279549
992.000000	0.279388
993.000000	0.279366
994.000000	0.279076
995.000000	0.278697
996.000000	0.278459
997.000000	0.278462
998.000000	0.278311
999.000000	0.278050
1000.000000	0.278187
1001.000000	0.278450
1002.000000	0.278255
1003.000000	0.277844
1004.000000	0.277623
1005.000000	0.277182
1006.000000	0.276860
1007.000000	0.276736
1008.000000	0.276843
1009.000000	0.276722
1010.000000	0.276351
1011.000000	0.276251
1012.000000	0.276287
1013.000000	0.276202
1014.000000	0.276081
1015.000000	0.275992
1016.000000	0.275922
1017.000000	0.275786
1018.000000	0.275806
1019.000000	0.275743
1020.000000	0.275871
1021.000000	0.275562
1022.000000	0.275031
1023.000000	0.274970
1024.000000	0.274811
1025.000000	0.275014
1026.000000	0.275173
1027.000000	0.275209
1028.000000	0.275335
1029.000000	0.275167
1030.000000	0.275131
1031.000000	0.275133
1032.000000	0.274883
1033.000000	0.274873
1034.000000	0.274873
1035.000000	0.274938
1036.000000	0.275019
1037.000000	0.275175
1038.000000	0.275166
1039.000000	0.275162
1040.000000	0.275305
1041.000000	0.275315
1042.000000	0.275497
1043.000000	0.275677
1044.000000	0.275642
1045.000000	0.275576
1046.000000	0.275477
1047.000000	0.275532
1048.000000	0.275654
1049.000000	0.275684
1050.000000	0.275730
1051.000000	0.275818
1052.000000	0.275776
1053.000000	0.275850
1054.000000	0.276267
1055.000000	0.276576
1056.000000	0.276984
1057.000000	0.277199
1058.000000	0.277227
1059.000000	0.277254
1060.000000	0.277397
1061.000000	0.277656
1062.000000	0.278009
1063.000000	0.278245
1064.000000	0.278385
1065.000000	0.278179
1066.000000	0.278376
1067.000000	0.278734
1068.000000	0.278903
1069.000000	0.279060
1070.000000	0.279314
1071.000000	0.279582
1072.000000	0.279803
1073.000000	0.280231
1074.000000	0.280557
1075.000000	0.280592
1076.000000	0.280709
1077.000000	0.280866
1078.000000	0.281043
1079.000000	0.281183
1080.000000	0.281333
1081.000000	0.281495
1082.000000	0.281679
1083.000000	0.281927
1084.000000	0.282323
1085.000000	0.282636
1086.000000	0.282974
1087.000000	0.283237
1088.000000	0.283277
1089.000000	0.283420
1090.000000	0.283561
1091.000000	0.283656
1092.000000	0.283816
1093.000000	0.284203
1094.000000	0.284440
1095.000000	0.284540
1096.000000	0.284878
1097.000000	0.285387
1098.000000	0.285692
1099.000000	0.285991
1100.000000	0.286278
1101.000000	0.286317
1102.000000	0.286491
1103.000000	0.286764
1104.000000	0.287037
1105.000000	0.287323
1106.000000	0.287576
1107.000000	0.287816
1108.000000	0.288003
1109.000000	0.288234
1110.000000	0.288328
1111.000000	0.288486
1112.000000	0.288635
1113.000000	0.288824
1114.000000	0.289019
1115.000000	0.289237
1116.000000	0.289570
1117.000000	0.289712
1118.000000	0.289750
1119.000000	0.289786
1120.000000	0.289681
1121.000000	0.289680
1122.000000	0.289810
1123.000000	0.290076
1124.000000	0.290203
1125.000000	0.290390
1126.000000	0.290637
1127.000000	0.290763
1128.000000	0.290837
1129.000000	0.290872
1130.000000	0.290998
1131.000000	0.291118
1132.000000	0.291195
1133.000000	0.291378
1134.000000	0.291503
1135.000000	0.291483
1136.000000	0.291536
1137.000000	0.291622
1138.000000	0.291683
1139.000000	0.291817
1140.000000	0.291984
1141.000000	0.292143
1142.000000	0.292282
1143.000000	0.292366
1144.000000	0.292531
1145.000000	0.292531
1146.000000	0.292518
1147.000000	0.292574
1148.000000	0.292512
1149.000000	0.292649
1150.000000	0.292977
1151.000000	0.293138
1152.000000	0.293266
1153.000000	0.293394
1154.000000	0.293408
1155.000000	0.293440
1156.000000	0.293522
1157.000000	0.293561
1158.000000	0.293447
1159.000000	0.293447
1160.000000	0.293472
1161.000000	0.293520
1162.000000	0.293699
1163.000000	0.293959
1164.000000	0.293982
1165.000000	0.294021
1166.000000	0.294070
1167.000000	0.293988
1168.000000	0.293954
1169.000000	0.294017
1170.000000	0.294032
1171.000000	0.294041
1172.000000	0.294068
1173.000000	0.294079
1174.000000	0.294075
1175.000000	0.294013
1176.000000	0.293957
1177.000000	0.293986
1178.000000	0.293984
1179.000000	0.293954
1180.000000	0.293898
1181.000000	0.293915
1182.000000	0.293883
1183.000000	0.293919
1184.000000	0.293988
1185.000000	0.294009
1186.000000	0.294019
1187.000000	0.294034
1188.000000	0.294046
1189.000000	0.294005
1190.000000	0.294004
1191.000000	0.293974
1192.000000	0.293939
1193.000000	0.294034
1194.000000	0.294105
1195.000000	0.294143
1196.000000	0.294172
1197.000000	0.294176
1198.000000	0.294123
1199.000000	0.294123
1200.000000	0.294148
1201.000000	0.294138
1202.000000	0.294146
1203.000000	0.294195
1204.000000	0.294177
1205.000000	0.294177
1206.000000	0.294139
1207.000000	0.294146
1208.000000	0.294127
1209.000000	0.294161
1210.000000	0.294156
1211.000000	0.294132
1212.000000	0.294122
1213.000000	0.294155
1214.000000	0.294151
1215.000000	0.294125
1216.000000	0.294104
1217.000000	0.294018
1218.000000	0.293945
1219.000000	0.293907
1220.000000	0.293898
1221.000000	0.293894
1222.000000	0.293866
1223.000000	0.293868
1224.000000	0.293874
1225.000000	0.293825
1226.000000	0.293779
1227.000000	0.293709
1228.000000	0.293699
1229.000000	0.293652
1230.000000	0.293577
1231.000000	0.293506
1232.000000	0.293536
1233.000000	0.293618
1234.000000	0.293730
1235.000000	0.293778
1236.000000	0.293751
1237.000000	0.293779
1238.000000	0.293728
1239.000000	0.293716
1240.000000	0.293726
1241.000000	0.293781
1242.000000	0.293837
1243.000000	0.293846
1244.000000	0.293893
1245.000000	0.293968
1246.000000	0.293937
1247.000000	0.294002
1248.000000	0.294087
1249.000000	0.294086
1250.000000	0.294048
1251.000000	0.294009
1252.000000	0.293958
1253.000000	0.293890
1254.000000	0.293820
1255.000000	0.293764
1256.000000	0.293676
1257.000000	0.293541
1258.000000	0.293509
1259.000000	0.293456
1260.000000	0.293465
1261.000000	0.293499
1262.000000	0.293515
1263.000000	0.293579
1264.000000	0.293569
1265.000000	0.293588
1266.000000	0.293607
1267.000000	0.293550
1268.000000	0.293522
1269.000000	0.293457
1270.000000	0.293396
1271.000000	0.293333
1272.000000	0.293345
1273.000000	0.293432
1274.000000	0.293403
1275.000000	0.293366
1276.000000	0.293326
1277.000000	0.293370
1278.000000	0.293347
1279.000000	0.293340
1280.000000	0.293308
1281.000000	0.293266
1282.000000	0.293217
1283.000000	0.293278
1284.000000	0.293415
1285.000000	0.293456
1286.000000	0.293464
1287.000000	0.293432
1288.000000	0.293384
1289.000000	0.293326
1290.000000	0.293280
1291.000000	0.293223
1292.000000	0.293198
1293.000000	0.293171
1294.000000	0.293123
1295.000000	0.293116
1296.000000	0.293053
1297.000000	0.292947
1298.000000	0.292933
1299.000000	0.292956
1300.000000	0.293002
1301.000000	0.293050
1302.000000	0.293018
1303.000000	0.293024
1304.000000	0.292993
1305.000000	0.292991
1306.000000	0.292983
1307.000000	0.293051
1308.000000	0.293093
1309.000000	0.293083
1310.000000	0.293111
1311.000000	0.293208
1312.000000	0.293179
1313.000000	0.293140
1314.000000	0.293161
1315.000000	0.293117
1316.000000	0.293147
1317.000000	0.293211
1318.000000	0.293226
1319.000000	0.293192
1320.000000	0.293112
1321.000000	0.292985
1322.000000	0.292917
1323.000000	0.292924
1324.000000	0.292933
1325.000000	0.292912
1326.000000	0.292877
1327.000000	0.292832
1328.000000	0.292819
1329.000000	0.292718
1330.000000	0.292612
1331.000000	0.292505
1332.000000	0.292368
1333.000000	0.292267
1334.000000	0.292267
1335.000000	0.292253
1336.000000	0.292203
1337.000000	0.292170
1338.000000	0.292106
1339.000000	0.292054
1340.000000	0.292015
1341.000000	0.291992
1342.000000	0.291927
1343.000000	0.291855
1344.000000	0.291804
1345.000000	0.291730
1346.000000	0.291777
1347.000000	0.291754
1348.000000	0.291703
1349.000000	0.291653
1350.000000	0.291646
1351.000000	0.291610
1352.000000	0.291564
1353.000000	0.291563
1354.000000	0.291557
1355.000000	0.291547
1356.000000	0.291655
1357.000000	0.291642
1358.000000	0.291614
1359.000000	0.291633
1360.000000	0.291618
1361.000000	0.291617
1362.000000	0.291613
1363.000000	0.291579
1364.000000	0.291549
1365.000000	0.291477
1366.000000	0.291421
1367.000000	0.291367
1368.000000	0.291297
1369.000000	0.291299
1370.000000	0.291274
1371.000000	0.291210
1372.000000	0.291144
1373.000000	0.291110
1374.000000	0.291076
1375.000000	0.291014
1376.000000	0.291081
1377.000000	0.291189
1378.000000	0.291256
1379.000000	0.291286
1380.000000	0.291340
1381.000000	0.291332
1382.000000	0.291255
1383.000000	0.291221
1384.000000	0.291081
1385.000000	0.290924
1386.000000	0.290895
1387.000000	0.290851
1388.000000	0.290803
1389.000000	0.290815
1390.000000	0.290829
1391.000000	0.290841
1392.000000	0.290914
1393.000000	0.290940
1394.000000	0.290955
1395.000000	0.291030
1396.000000	0.291130
1397.000000	0.291166
1398.000000	0.291201
1399.000000	0.291186
1400.000000	0.291064
1401.000000	0.291011
1402.000000	0.291025
1403.000000	0.290976
1404.000000	0.290976
1405.000000	0.290968
1406.000000	0.290887
1407.000000	0.290826
1408.000000	0.290770
1409.000000	0.290760
1410.000000	0.290780
1411.000000	0.290750
1412.000000	0.290683
1413.000000	0.290600
1414.000000	0.290521
1415.000000	0.290492
1416.000000	0.290430
1417.000000	0.290343
1418.000000	0.290209
1419.000000	0.290107
1420.000000	0.290008
1421.000000	0.289995
1422.000000	0.289971
1423.000000	0.289945
1424.000000	0.289837
1425.000000	0.289740
1426.000000	0.289669
1427.000000	0.289639
1428.000000	0.289606
1429.000000	0.289544
1430.000000	0.289486
1431.000000	0.289415
1432.000000	0.289335
1433.000000	0.289305
1434.000000	0.289252
1435.000000	0.289260
1436.000000	0.289218
1437.000000	0.289148
1438.000000	0.289062
1439.000000	0.288980
1440.000000	0.288907
1441.000000	0.288864
1442.000000	0.288821
1443.000000	0.288718
1444.000000	0.288618
1445.000000	0.288522
1446.000000	0.288423
1447.000000	0.288316
1448.000000	0.288232
1449.000000	0.288181
1450.000000	0.288121
1451.000000	0.288060
1452.000000	0.287941
1453.000000	0.287838
1454.000000	0.287745
1455.000000	0.287643
1456.000000	0.287664
1457.000000	0.287735
1458.000000	0.287770
1459.000000	0.287836
1460.000000	0.287896
1461.000000	0.287866
1462.000000	0.287827
1463.000000	0.287750
1464.000000	0.287679
1465.000000	0.287682
1466.000000	0.287613
1467.000000	0.287545
1468.000000	0.287506
1469.000000	0.287464
1470.000000	0.287378
1471.000000	0.287364
1472.000000	0.287338
1473.000000	0.287309
1474.000000	0.287268
1475.000000	0.287239
1476.000000	0.287221
1477.000000	0.287210
1478.000000	0.287201
1479.000000	0.287154
1480.000000	0.287101
1481.000000	0.287033
1482.000000	0.286974
1483.000000	0.286964
1484.000000	0.286971
1485.000000	0.286980
1486.000000	0.287018
1487.000000	0.287044
1488.000000	0.287082
1489.000000	0.287127
1490.000000	0.287067
1491.000000	0.287056
1492.000000	0.287006
1493.000000	0.287009
1494.000000	0.286996
1495.000000	0.286990
1496.000000	0.287032
1497.000000	0.287065
1498.000000	0.287113
1499.000000	0.287136
1500.000000	0.287168
1501.000000	0.287119
1502.000000	0.287045
1503.000000	0.287083
1504.000000	0.287143
1505.000000	0.287160
1506.000000	0.287199
1507.000000	0.287183
1508.000000	0.287178
1509.000000	0.287203
1510.000000	0.287170
1511.000000	0.287149
1512.000000	0.287114
1513.000000	0.287061
1514.000000	0.287038
1515.000000	0.286978
1516.000000	0.286936
1517.000000	0.286865
1518.000000	0.286819
1519.000000	0.286790
1520.000000	0.286793
1521.000000	0.286774
1522.000000	0.286794
1523.000000	0.286894
1524.000000	0.286929
1525.000000	0.286995
1526.000000	0.287076
1527.000000	0.287115
1528.000000	0.287158
1529.000000	0.287159
1530.000000	0.287069
1531.000000	0.287031
1532.000000	0.287027
1533.000000	0.287025
1534.000000	0.287047
1535.000000	0.287034
1536.000000	0.286965
1537.000000	0.286991
1538.000000	0.287042
1539.000000	0.287023
1540.000000	0.287035
1541.000000	0.287084
1542.000000	0.287104
1543.000000	0.287138
1544.000000	0.287172
1545.000000	0.287175
1546.000000	0.287151
1547.000000	0.287128
1548.000000	0.287128
1549.000000	0.287108
1550.000000	0.287051
1551.000000	0.287013
1552.000000	0.287013
1553.000000	0.286999
1554.000000	0.286974
1555.000000	0.287008
1556.000000	0.287046
1557.000000	0.287059
1558.000000	0.287092
1559.000000	0.287103
1560.000000	0.287088
1561.000000	0.287094
1562.000000	0.287066
1563.000000	0.287058
1564.000000	0.287045
1565.000000	0.286995
1566.000000	0.286912
1567.000000	0.286917
1568.000000	0.286882
1569.000000	0.286862
1570.000000	0.286842
1571.000000	0.286811
1572.000000	0.286780
1573.000000	0.286767
1574.000000	0.286752
1575.000000	0.286732
1576.000000	0.286749
1577.000000	0.286772
1578.000000	0.286774
1579.000000	0.286842
1580.000000	0.286887
1581.000000	0.286991
1582.000000	0.287034
1583.000000	0.287049
1584.000000	0.287013
1585.000000	0.286976
1586.000000	0.286981
1587.000000	0.287008
1588.000000	0.286988
1589.000000	0.286964
1590.000000	0.286950
1591.000000	0.286906
1592.000000	0.286916
1593.000000	0.287016
1594.000000	0.287035
1595.000000	0.287087
1596.000000	0.287138
1597.000000	0.287205
1598.000000	0.287198
1599.000000	0.287189
1600.000000	0.287138
1601.000000	0.287074
1602.000000	0.287019
1603.000000	0.287019
1604.000000	0.286957
1605.000000	0.286869
1606.000000	0.286784
1607.000000	0.286719
1608.000000	0.286638
1609.000000	0.286604
1610.000000	0.286525
1611.000000	0.286431
1612.000000	0.286348
1613.000000	0.286337
1614.000000	0.286299
1615.000000	0.286333
1616.000000	0.286336
1617.000000	0.286271
1618.000000	0.286210
1619.000000	0.286096
1620.000000	0.286060
1621.000000	0.286071
1622.000000	0.286155
1623.000000	0.286296
1624.000000	0.286384
1625.000000	0.286377
1626.000000	0.286349
1627.000000	0.286304
1628.000000	0.286301
1629.000000	0.286292
1630.000000	0.286290
1631.000000	0.286246
1632.000000	0.286182
1633.000000	0.286116
1634.000000	0.286072
1635.000000	0.286055
1636.000000	0.286027
1637.000000	0.286029
1638.000000	0.285971
1639.000000	0.285924
1640.000000	0.285886
1641.000000	0.285889
1642.000000	0.285884
1643.000000	0.285928
1644.000000	0.285926
1645.000000	0.285881
1646.000000	0.285843
1647.000000	0.285842
1648.000000	0.285784
1649.000000	0.285761
1650.000000	0.285792
1651.000000	0.285854
1652.000000	0.285941
1653.000000	0.286057
1654.000000	0.286147
1655.000000	0.286169
1656.000000	0.286134
1657.000000	0.286139
1658.000000	0.286123
1659.000000	0.286173
1660.000000	0.286177
1661.000000	0.286080
1662.000000	0.286033
1663.000000	0.285900
1664.000000	0.285878
1665.000000	0.285940
1666.000000	0.286023
1667.000000	0.286076
1668.000000	0.286133
1669.000000	0.286202
1670.000000	0.286187
1671.000000	0.286239
1672.000000	0.286291
1673.000000	0.286253
1674.000000	0.286307
1675.000000	0.286388
1676.000000	0.286413
1677.000000	0.286463
1678.000000	0.286440
1679.000000	0.286414
1680.000000	0.286378
1681.000000	0.286313
1682.000000	0.286298
1683.000000	0.286275
1684.000000	0.286243
1685.000000	0.286267
1686.000000	0.286190
1687.000000	0.286129
1688.000000	0.286097
1689.000000	0.286037
1690.000000	0.285991
1691.000000	0.286035
1692.000000	0.285990
1693.000000	0.285946
1694.000000	0.285957
1695.000000	0.285969
1696.000000	0.285975
1697.000000	0.285945
1698.000000	0.285929
1699.000000	0.285955
1700.000000	0.286018
1701.000000	0.286107
1702.000000	0.286077
1703.000000	0.286021
1704.000000	0.285968
1705.000000	0.285975
1706.000000	0.286064
1707.000000	0.286121
1708.000000	0.286207
1709.000000	0.286198
1710.000000	0.286193
1711.000000	0.286205
1712.000000	0.286229
1713.000000	0.286209
1714.000000	0.286186
1715.000000	0.286202
1716.000000	0.286234
1717.000000	0.286236
1718.000000	0.286217
1719.000000	0.286212
1720.000000	0.286217
1721.000000	0.286240
1722.000000	0.286320
1723.000000	0.286380
1724.000000	0.286467
1725.000000	0.286526
1726.000000	0.286514
1727.000000	0.286488
1728.000000	0.286387
1729.000000	0.286219
1730.000000	0.286110
1731.000000	0.285996
1732.000000	0.285819
1733.000000	0.285792
1734.000000	0.285733
1735.000000	0.285695
1736.000000	0.285667
1737.000000	0.285678
1738.000000	0.285705
1739.000000	0.285804
1740.000000	0.285981
1741.000000	0.286076
1742.000000	0.286181
1743.000000	0.286336
1744.000000	0.286467
1745.000000	0.286559
1746.000000	0.286682
1747.000000	0.286697
1748.000000	0.286685
1749.000000	0.286690
1750.000000	0.286648
1751.000000	0.286691
1752.000000	0.286762
1753.000000	0.286699
1754.000000	0.286649
1755.000000	0.286501
1756.000000	0.286432
1757.000000	0.286424
1758.000000	0.286407
1759.000000	0.286427
1760.000000	0.286423
1761.000000	0.286355
1762.000000	0.286291
1763.000000	0.286221
1764.000000	0.286211
1765.000000	0.286180
1766.000000	0.286207
1767.000000	0.286268
1768.000000	0.286253
1769.000000	0.286301
1770.000000	0.286362
1771.000000	0.286362
1772.000000	0.286375
1773.000000	0.286348
1774.000000	0.286365
1775.000000	0.286473
1776.000000	0.286490
1777.000000	0.286464
1778.000000	0.286425
1779.000000	0.286296
1780.000000	0.286260
1781.000000	0.286235
1782.000000	0.286203
1783.000000	0.286229
1784.000000	0.286210
1785.000000	0.286181
1786.000000	0.286271
1787.000000	0.286419
1788.000000	0.286523
1789.000000	0.286576
1790.000000	0.286513
1791.000000	0.286475
1792.000000	0.286563
1793.000000	0.286604
1794.000000	0.286636
1795.000000	0.286714
1796.000000	0.286789
1797.000000	0.286855
1798.000000	0.286961
1799.000000	0.287003
1800.000000	0.287033
1801.000000	0.286948
1802.000000	0.286960
1803.000000	0.287088
1804.000000	0.287078
1805.000000	0.286923
1806.000000	0.286936
1807.000000	0.287055
1808.000000	0.287012
1809.000000	0.286922
1810.000000	0.286896
1811.000000	0.286838
1812.000000	0.286622
1813.000000	0.286628
1814.000000	0.286845
1815.000000	0.286957
1816.000000	0.287084
1817.000000	0.287060
1818.000000	0.286875
1819.000000	0.287074
1820.000000	0.287484
1821.000000	0.287527
1822.000000	0.287509
1823.000000	0.287470
1824.000000	0.287228
1825.000000	0.286488
1826.000000	0.286230
1827.000000	0.285960
1828.000000	0.285787
1829.000000	0.285964
1830.000000	0.285907
1831.000000	0.285880
1832.000000	0.285875
1833.000000	0.285878
1834.000000	0.285822
1835.000000	0.285832
1836.000000	0.285797
1837.000000	0.285843
1838.000000	0.285887
1839.000000	0.285829
1840.000000	0.285865
1841.000000	0.285789
1842.000000	0.285639
1843.000000	0.285265
1844.000000	0.285146
1845.000000	0.284981
1846.000000	0.284899
1847.000000	0.284851
1848.000000	0.284669
1849.000000	0.284573
1850.000000	0.284362
1851.000000	0.284359
1852.000000	0.284417
1853.000000	0.284587
1854.000000	0.284801
1855.000000	0.284897
1856.000000	0.284955
1857.000000	0.284913
1858.000000	0.284926
1859.000000	0.284725
1860.000000	0.284452
1861.000000	0.284149
1862.000000	0.283848
1863.000000	0.283470
1864.000000	0.283294
1865.000000	0.283261
1866.000000	0.283164
1867.000000	0.283064
1868.000000	0.282919
1869.000000	0.282839
1870.000000	0.282846
1871.000000	0.282962
1872.000000	0.283061
1873.000000	0.283079
1874.000000	0.282924
1875.000000	0.282969
1876.000000	0.282806
1877.000000	0.282569
1878.000000	0.282583
1879.000000	0.282415
1880.000000	0.282380
1881.000000	0.282270
1882.000000	0.281894
1883.000000	0.281708
1884.000000	0.281630
1885.000000	0.281460
1886.000000	0.281232
1887.000000	0.281130
1888.000000	0.280729
1889.000000	0.280273
1890.000000	0.279975
1891.000000	0.279792
1892.000000	0.279530
1893.000000	0.279376
1894.000000	0.279188
1895.000000	0.278810
1896.000000	0.278383
1897.000000	0.278295
1898.000000	0.278030
1899.000000	0.277968
1900.000000	0.278129
1901.000000	0.277951
1902.000000	0.277726
1903.000000	0.277424
1904.000000	0.277037
1905.000000	0.276722
1906.000000	0.276354
1907.000000	0.276059
1908.000000	0.275603
1909.000000	0.275168
1910.000000	0.275028
1911.000000	0.274791
1912.000000	0.274446
1913.000000	0.274311
1914.000000	0.274210
1915.000000	0.273810
1916.000000	0.273702
1917.000000	0.273536
1918.000000	0.273592
1919.000000	0.273319
1920.000000	0.272960
1921.000000	0.272569
1922.000000	0.272150
1923.000000	0.271820
1924.000000	0.271746
1925.000000	0.271660
1926.000000	0.271593
1927.000000	0.271792
1928.000000	0.271692
1929.000000	0.271521
1930.000000	0.271400
1931.000000	0.271235
1932.000000	0.270882
1933.000000	0.270835
1934.000000	0.270973
1935.000000	0.270984
1936.000000	0.270777
1937.000000	0.270557
1938.000000	0.270313
1939.000000	0.270141
1940.000000	0.269969
1941.000000	0.270050
1942.000000	0.270283
1943.000000	0.270443
1944.000000	0.270611
1945.000000	0.270919
1946.000000	0.270899
1947.000000	0.270673
1948.000000	0.270595
1949.000000	0.270432
1950.000000	0.270440
1951.000000	0.270365
1952.000000	0.270472
1953.000000	0.270325
1954.000000	0.270399
1955.000000	0.270395
1956.000000	0.270274
1957.000000	0.270454
1958.000000	0.270366
1959.000000	0.270139
1960.000000	0.270008
1961.000000	0.269736
1962.000000	0.269664
1963.000000	0.269734
1964.000000	0.269988
1965.000000	0.270113
1966.000000	0.270252
1967.000000	0.270150
1968.000000	0.269999
1969.000000	0.269942
1970.000000	0.269856
1971.000000	0.269739
1972.000000	0.269652
1973.000000	0.269441
1974.000000	0.269114
1975.000000	0.269052
1976.000000	0.269134
1977.000000	0.269306
1978.000000	0.269370
1979.000000	0.269643
1980.000000	0.269717
1981.000000	0.269509
1982.000000	0.269410
1983.000000	0.269548
1984.000000	0.269570
1985.000000	0.269742
1986.000000	0.269734
1987.000000	0.269719
1988.000000	0.269593
1989.000000	0.269565
1990.000000	0.269457
1991.000000	0.269415
1992.000000	0.269461
1993.000000	0.269519
1994.000000	0.269832
1995.000000	0.270090
1996.000000	0.270400
1997.000000	0.270528
1998.000000	0.270516
1999.000000	0.270557
2000.000000	0.270607
2001.000000	0.270403
2002.000000	0.270493
2003.000000	0.270662
2004.000000	0.270494
2005.000000	0.270456
2006.000000	0.270454
2007.000000	0.270370
2008.000000	0.270480
2009.000000	0.270957
2010.000000	0.271106
2011.000000	0.270973
2012.000000	0.270909
2013.000000	0.270713
2014.000000	0.270293
2015.000000	0.270314
2016.000000	0.270575
2017.000000	0.270721
2018.000000	0.271058
2019.000000	0.271138
2020.000000	0.271002
2021.000000	0.271054
2022.000000	0.271116
2023.000000	0.271084
2024.000000	0.271190
2025.000000	0.271209
2026.000000	0.270940
2027.000000	0.270704
2028.000000	0.270703
2029.000000	0.270813
2030.000000	0.270951
2031.000000	0.271216
2032.000000	0.271453
2033.000000	0.271394
2034.000000	0.271219
2035.000000	0.270874
2036.000000	0.270660
2037.000000	0.270494
2038.000000	0.270414
2039.000000	0.270568
2040.000000	0.270700
2041.000000	0.270677
2042.000000	0.270516
2043.000000	0.270538
2044.000000	0.270657
2045.000000	0.270825
2046.000000	0.271097
2047.000000	0.271221
2048.000000	0.271230
2049.000000	0.271425
2050.000000	0.271159
2051.000000	0.271160
2052.000000	0.271415
2053.000000	0.271318
2054.000000	0.271258
2055.000000	0.271397
2056.000000	0.271329
2057.000000	0.271443
2058.000000	0.271780
2059.000000	0.272196
2060.000000	0.272384
2061.000000	0.272511
2062.000000	0.272460
2063.000000	0.272271
2064.000000	0.272014
2065.000000	0.271844
2066.000000	0.271702
2067.000000	0.271805
2068.000000	0.271716
2069.000000	0.271985
2070.000000	0.272265
2071.000000	0.272132
2072.000000	0.272252
2073.000000	0.272150
2074.000000	0.271726
2075.000000	0.271686
2076.000000	0.271919
2077.000000	0.271903
2078.000000	0.271988
2079.000000	0.271887
2080.000000	0.271506
2081.000000	0.271395
2082.000000	0.271240
2083.000000	0.271381
2084.000000	0.271713
2085.000000	0.272049
2086.000000	0.272380
2087.000000	0.272530
2088.000000	0.272427
2089.000000	0.272437
2090.000000	0.272370
2091.000000	0.272170
2092.000000	0.272227
2093.000000	0.272363
2094.000000	0.272487
2095.000000	0.272792
2096.000000	0.273081
2097.000000	0.273287
2098.000000	0.273608
2099.000000	0.273824
2100.000000	0.274133
2101.000000	0.274306
2102.000000	0.274307
2103.000000	0.274177
2104.000000	0.274085
2105.000000	0.273948
2106.000000	0.273672
2107.000000	0.273517
2108.000000	0.273256
2109.000000	0.273260
2110.000000	0.273230
2111.000000	0.273316
2112.000000	0.273541
2113.000000	0.273711
2114.000000	0.273906
2115.000000	0.273918
2116.000000	0.273972
2117.000000	0.274082
2118.000000	0.274080
2119.000000	0.274165
2120.000000	0.274082
2121.000000	0.273791
2122.000000	0.273658
2123.000000	0.273373
2124.000000	0.273349
2125.000000	0.273602
2126.000000	0.273695
2127.000000	0.273954
2128.000000	0.274182
2129.000000	0.274202
2130.000000	0.274321
2131.000000	0.274511
2132.000000	0.274544
2133.000000	0.274719
2134.000000	0.275159
2135.000000	0.275518
2136.000000	0.275816
2137.000000	0.275865
2138.000000	0.275721
2139.000000	0.275512
2140.000000	0.274937
2141.000000	0.274726
2142.000000	0.274628
2143.000000	0.274386
2144.000000	0.274494
2145.000000	0.274468
2146.000000	0.274372
2147.000000	0.274533
2148.000000	0.274546
2149.000000	0.274562
2150.000000	0.274342
2151.000000	0.274266
2152.000000	0.274226
2153.000000	0.273704
2154.000000	0.273617
2155.000000	0.273674
2156.000000	0.273873
2157.000000	0.274490
2158.000000	0.274775
2159.000000	0.275245
2160.000000	0.275352
2161.000000	0.274983
2162.000000	0.274954
2163.000000	0.274725
2164.000000	0.274586
2165.000000	0.274608
2166.000000	0.274560
2167.000000	0.274705
2168.000000	0.274699
2169.000000	0.274683
2170.000000	0.274844
2171.000000	0.274900
2172.000000	0.274944
2173.000000	0.274813
2174.000000	0.274576
2175.000000	0.274455
2176.000000	0.274099
2177.000000	0.274126
2178.000000	0.274669
2179.000000	0.274925
2180.000000	0.275153
2181.000000	0.275470
2182.000000	0.275416
2183.000000	0.274860
2184.000000	0.274307
2185.000000	0.274041
2186.000000	0.273518
2187.000000	0.273523
2188.000000	0.273955
2189.000000	0.273983
2190.000000	0.274214
2191.000000	0.274820
2192.000000	0.275012
2193.000000	0.275058
2194.000000	0.274956
2195.000000	0.274608
2196.000000	0.274427
2197.000000	0.273955
2198.000000	0.273813
2199.000000	0.274051
2200.000000	0.274107
2201.000000	0.274273
2202.000000	0.274438
2203.000000	0.274345
2204.000000	0.274385
2205.000000	0.274400
2206.000000	0.274214
2207.000000	0.273624
2208.000000	0.273617
2209.000000	0.273365
2210.000000	0.273858
2211.000000	0.274361
2212.000000	0.274513
2213.000000	0.274537
2214.000000	0.273943
2215.000000	0.273878
2216.000000	0.274173
2217.000000	0.274115
2218.000000	0.274154
2219.000000	0.274006
2220.000000	0.273309
2221.000000	0.273224
2222.000000	0.273159
2223.000000	0.273589
2224.000000	0.274599
2225.000000	0.275591
2226.000000	0.276234
2227.000000	0.276481
2228.000000	0.276916
2229.000000	0.276121
2230.000000	0.275476
2231.000000	0.275390
2232.000000	0.274426
2233.000000	0.274512
2234.000000	0.275213
2235.000000	0.275668
2236.000000	0.275516
2237.000000	0.275137
2238.000000	0.274796
2239.000000	0.273315
2240.000000	0.273297
2241.000000	0.274554
2242.000000	0.274742
2243.000000	0.275028
2244.000000	0.275214
2245.000000	0.274607
2246.000000	0.274566
2247.000000	0.274805
2248.000000	0.274988
2249.000000	0.275429
2250.000000	0.275849
2251.000000	0.275150
2252.000000	0.275151
2253.000000	0.274422
2254.000000	0.273602
2255.000000	0.273931
2256.000000	0.273881
2257.000000	0.274666
2258.000000	0.274835
2259.000000	0.273874
2260.000000	0.273518
2261.000000	0.272883
2262.000000	0.271382
2263.000000	0.271082
2264.000000	0.271521
2265.000000	0.271660
2266.000000	0.272314
2267.000000	0.272446
2268.000000	0.272048
2269.000000	0.272321
2270.000000	0.272969
2271.000000	0.273180
2272.000000	0.273522
2273.000000	0.273967
2274.000000	0.273795
2275.000000	0.274080
2276.000000	0.275122
2277.000000	0.275549
2278.000000	0.275360
2279.000000	0.274566
2280.000000	0.273439
2281.000000	0.272378
2282.000000	0.271795
2283.000000	0.272338
2284.000000	0.272941
2285.000000	0.272627
2286.000000	0.273069
2287.000000	0.273130
2288.000000	0.272462
2289.000000	0.272707
2290.000000	0.272064
2291.000000	0.271236
2292.000000	0.271466
2293.000000	0.271502
2294.000000	0.271476
2295.000000	0.271696
2296.000000	0.271941
2297.000000	0.271787
2298.000000	0.272066
2299.000000	0.273087
2300.000000	0.273081
2301.000000	0.272530
2302.000000	0.272455
2303.000000	0.271913
2304.000000	0.271652
2305.000000	0.272194
2306.000000	0.272033
2307.000000	0.270886
2308.000000	0.271204
2309.000000	0.271913
2310.000000	0.271757
2311.000000	0.271623
2312.000000	0.270780
2313.000000	0.268960
2314.000000	0.267042
2315.000000	0.266745
2316.000000	0.267248
2317.000000	0.267603
2318.000000	0.269592
2319.000000	0.270882
2320.000000	0.270851
2321.000000	0.271611
2322.000000	0.271047
2323.000000	0.270382
2324.000000	0.270218
2325.000000	0.269538
2326.000000	0.269568
2327.000000	0.268709
2328.000000	0.268099
2329.000000	0.268529
2330.000000	0.268027
2331.000000	0.268678
2332.000000	0.270438
2333.000000	0.271186
2334.000000	0.271492
2335.000000	0.271552
2336.000000	0.269820
2337.000000	0.269285
2338.000000	0.269244
2339.000000	0.268732
2340.000000	0.268390
2341.000000	0.267837
2342.000000	0.266462
2343.000000	0.266435
2344.000000	0.267336
2345.000000	0.268081
2346.000000	0.269478
2347.000000	0.270277
2348.000000	0.271227
2349.000000	0.271079
2350.000000	0.269636
2351.000000	0.268964
2352.000000	0.266920
2353.000000	0.265783
2354.000000	0.265501
2355.000000	0.264503
2356.000000	0.265471
2357.000000	0.265222
2358.000000	0.264821
2359.000000	0.266405
2360.000000	0.265980
2361.000000	0.266043
2362.000000	0.266739
2363.000000	0.266587
2364.000000	0.265676
2365.000000	0.265570
2366.000000	0.265873
2367.000000	0.265096
2368.000000	0.265936
2369.000000	0.266798
2370.000000	0.267216
2371.000000	0.268133
2372.000000	0.267459
2373.000000	0.266834
2374.000000	0.266486
2375.000000	0.266055
2376.000000	0.267070
2377.000000	0.267521
2378.000000	0.267752
2379.000000	0.268093
2380.000000	0.266777
2381.000000	0.264720
2382.000000	0.261474
2383.000000	0.258405
2384.000000	0.257093
2385.000000	0.257159
2386.000000	0.259033
2387.000000	0.260960
2388.000000	0.261539
2389.000000	0.261720
2390.000000	0.262113
2391.000000	0.262301
2392.000000	0.264088
2393.000000	0.266927
2394.000000	0.267656
2395.000000	0.269699
2396.000000	0.271252
2397.000000	0.268942
2398.000000	0.268333
2399.000000	0.266184
2400.000000	0.261710
2401.000000	0.261315
2402.000000	0.260039
2403.000000	0.258540
2404.000000	0.259820
2405.000000	0.260103
2406.000000	0.261154
2407.000000	0.262380
2408.000000	0.262632
2409.000000	0.262862
2410.000000	0.263954
2411.000000	0.263968
2412.000000	0.262691
2413.000000	0.262673
2414.000000	0.261520
2415.000000	0.261479
2416.000000	0.264712
2417.000000	0.265938
2418.000000	0.265853
2419.000000	0.266249
2420.000000	0.265110
2421.000000	0.264719
2422.000000	0.264483
2423.000000	0.266701
2424.000000	0.267625
2425.000000	0.262946
2426.000000	0.262789
2427.000000	0.262168
2428.000000	0.259272
2429.000000	0.263962
2430.000000	0.269162
2431.000000	0.271064
2432.000000	0.271294
2433.000000	0.266704
2434.000000	0.262722
2435.000000	0.264370
2436.000000	0.265397
2437.000000	0.267249
2438.000000	0.269100
2439.000000	0.263457
2440.000000	0.260323
2441.000000	0.262865
2442.000000	0.265177
2443.000000	0.267681
2444.000000	0.268977
2445.000000	0.267082
2446.000000	0.266814
2447.000000	0.267183
2448.000000	0.264729
2449.000000	0.261744
2450.000000	0.256176
2451.000000	0.253521
2452.000000	0.253473
2453.000000	0.252225
2454.000000	0.253859
2455.000000	0.256062
2456.000000	0.258622
2457.000000	0.264621
2458.000000	0.269711
2459.000000	0.271579
2460.000000	0.272899
2461.000000	0.274084
2462.000000	0.273145
2463.000000	0.267810
2464.000000	0.265825
2465.000000	0.262102
2466.000000	0.256474
2467.000000	0.262395
2468.000000	0.262673
2469.000000	0.257753
2470.000000	0.257786
2471.000000	0.251865
2472.000000	0.253136
2473.000000	0.256301
2474.000000	0.255459
2475.000000	0.263315
2476.000000	0.256659
2477.000000	0.240725
2478.000000	0.237965
2479.000000	0.229809
2480.000000	0.218981
2481.000000	0.224729
2482.000000	0.236771
2483.000000	0.252651
2484.000000	0.269811
2485.000000	0.273527
2486.000000	0.266140
2487.000000	0.258180
2488.000000	0.243512
2489.000000	0.242225
2490.000000	0.251097
2491.000000	0.247276
2492.000000	0.247339
2493.000000	0.260012
2494.000000	0.270608
2495.000000	0.271849
2496.000000	0.273423
2497.000000	0.274192
2498.000000	0.264363
2499.000000	0.259217
2500.000000	0.259615
