# Wavelength	Hexaidrite_00000.asd.rts.txt
350.000000	0.795014
351.000000	0.791531
352.000000	0.785447
353.000000	0.783841
354.000000	0.792562
355.000000	0.790269
356.000000	0.789297
357.000000	0.794493
358.000000	0.793036
359.000000	0.791239
360.000000	0.789678
361.000000	0.786912
362.000000	0.787027
363.000000	0.787635
364.000000	0.786828
365.000000	0.793362
366.000000	0.794294
367.000000	0.788524
368.000000	0.786952
369.000000	0.788065
370.000000	0.789372
371.000000	0.788208
372.000000	0.785543
373.000000	0.785082
374.000000	0.789097
375.000000	0.789679
376.000000	0.788621
377.000000	0.787449
378.000000	0.788623
379.000000	0.789283
380.000000	0.789426
381.000000	0.792135
382.000000	0.792408
383.000000	0.790207
384.000000	0.787707
385.000000	0.788074
386.000000	0.789655
387.000000	0.791212
388.000000	0.790532
389.000000	0.789806
390.000000	0.790077
391.000000	0.790919
392.000000	0.791079
393.000000	0.791048
394.000000	0.791332
395.000000	0.791638
396.000000	0.792272
397.000000	0.792831
398.000000	0.792240
399.000000	0.791532
400.000000	0.791392
401.000000	0.791879
402.000000	0.792088
403.000000	0.792133
404.000000	0.792537
405.000000	0.792115
406.000000	0.792357
407.000000	0.793534
408.000000	0.793309
409.000000	0.793044
410.000000	0.793058
411.000000	0.793038
412.000000	0.792837
413.000000	0.792721
414.000000	0.793024
415.000000	0.793466
416.000000	0.793716
417.000000	0.793724
418.000000	0.794039
419.000000	0.794038
420.000000	0.793890
421.000000	0.794422
422.000000	0.794621
423.000000	0.794492
424.000000	0.794594
425.000000	0.794766
426.000000	0.794885
427.000000	0.794840
428.000000	0.794736
429.000000	0.794959
430.000000	0.795434
431.000000	0.795375
432.000000	0.795448
433.000000	0.795559
434.000000	0.795627
435.000000	0.795459
436.000000	0.795368
437.000000	0.795565
438.000000	0.795753
439.000000	0.795712
440.000000	0.795709
441.000000	0.795881
442.000000	0.796039
443.000000	0.796020
444.000000	0.796197
445.000000	0.796063
446.000000	0.796108
447.000000	0.796382
448.000000	0.796427
449.000000	0.796421
450.000000	0.796528
451.000000	0.796511
452.000000	0.796496
453.000000	0.796409
454.000000	0.796692
455.000000	0.796787
456.000000	0.796903
457.000000	0.796968
458.000000	0.796987
459.000000	0.796961
460.000000	0.797020
461.000000	0.796946
462.000000	0.797122
463.000000	0.797216
464.000000	0.797232
465.000000	0.797264
466.000000	0.797207
467.000000	0.797259
468.000000	0.797426
469.000000	0.797370
470.000000	0.797282
471.000000	0.797415
472.000000	0.797468
473.000000	0.797375
474.000000	0.797452
475.000000	0.797416
476.000000	0.797575
477.000000	0.797813
478.000000	0.797580
479.000000	0.797573
480.000000	0.797848
481.000000	0.797729
482.000000	0.797816
483.000000	0.797992
484.000000	0.798119
485.000000	0.797954
486.000000	0.797923
487.000000	0.797796
488.000000	0.797814
489.000000	0.797972
490.000000	0.798029
491.000000	0.798035
492.000000	0.798109
493.000000	0.797970
494.000000	0.797844
495.000000	0.797845
496.000000	0.797882
497.000000	0.797922
498.000000	0.797844
499.000000	0.797818
500.000000	0.797769
501.000000	0.797761
502.000000	0.797839
503.000000	0.797772
504.000000	0.797775
505.000000	0.797804
506.000000	0.797796
507.000000	0.797731
508.000000	0.797747
509.000000	0.797775
510.000000	0.797755
511.000000	0.797708
512.000000	0.797697
513.000000	0.797648
514.000000	0.797641
515.000000	0.797717
516.000000	0.797705
517.000000	0.797625
518.000000	0.797643
519.000000	0.797617
520.000000	0.797568
521.000000	0.797502
522.000000	0.797442
523.000000	0.797380
524.000000	0.797358
525.000000	0.797328
526.000000	0.797331
527.000000	0.797370
528.000000	0.797329
529.000000	0.797248
530.000000	0.797134
531.000000	0.797135
532.000000	0.797089
533.000000	0.797077
534.000000	0.797134
535.000000	0.797194
536.000000	0.797199
537.000000	0.797223
538.000000	0.797249
539.000000	0.797196
540.000000	0.797180
541.000000	0.797157
542.000000	0.797176
543.000000	0.797218
544.000000	0.797301
545.000000	0.797255
546.000000	0.797257
547.000000	0.797233
548.000000	0.797245
549.000000	0.797181
550.000000	0.797161
551.000000	0.797215
552.000000	0.797199
553.000000	0.797177
554.000000	0.797168
555.000000	0.797199
556.000000	0.797284
557.000000	0.797225
558.000000	0.797276
559.000000	0.797221
560.000000	0.797070
561.000000	0.797051
562.000000	0.797068
563.000000	0.796947
564.000000	0.796859
565.000000	0.796722
566.000000	0.796765
567.000000	0.796819
568.000000	0.796738
569.000000	0.796714
570.000000	0.796660
571.000000	0.796585
572.000000	0.796662
573.000000	0.796606
574.000000	0.796415
575.000000	0.796354
576.000000	0.796379
577.000000	0.796317
578.000000	0.796233
579.000000	0.796214
580.000000	0.796208
581.000000	0.796183
582.000000	0.796157
583.000000	0.796091
584.000000	0.796022
585.000000	0.796040
586.000000	0.795989
587.000000	0.795913
588.000000	0.795896
589.000000	0.795908
590.000000	0.795946
591.000000	0.795993
592.000000	0.795981
593.000000	0.796029
594.000000	0.796126
595.000000	0.796153
596.000000	0.796193
597.000000	0.796304
598.000000	0.796269
599.000000	0.796158
600.000000	0.796184
601.000000	0.796279
602.000000	0.796364
603.000000	0.796414
604.000000	0.796461
605.000000	0.796554
606.000000	0.796562
607.000000	0.796529
608.000000	0.796605
609.000000	0.796690
610.000000	0.796778
611.000000	0.796873
612.000000	0.796912
613.000000	0.796896
614.000000	0.796910
615.000000	0.796854
616.000000	0.796721
617.000000	0.796469
618.000000	0.796291
619.000000	0.796177
620.000000	0.795994
621.000000	0.795729
622.000000	0.795444
623.000000	0.795166
624.000000	0.794922
625.000000	0.794785
626.000000	0.794664
627.000000	0.794546
628.000000	0.794524
629.000000	0.794750
630.000000	0.794860
631.000000	0.794959
632.000000	0.794994
633.000000	0.795074
634.000000	0.795257
635.000000	0.795450
636.000000	0.795691
637.000000	0.795944
638.000000	0.796168
639.000000	0.796358
640.000000	0.796595
641.000000	0.796597
642.000000	0.796628
643.000000	0.796695
644.000000	0.796734
645.000000	0.796756
646.000000	0.796785
647.000000	0.796770
648.000000	0.796748
649.000000	0.796803
650.000000	0.796881
651.000000	0.796915
652.000000	0.796859
653.000000	0.796828
654.000000	0.796790
655.000000	0.796768
656.000000	0.796788
657.000000	0.796726
658.000000	0.796683
659.000000	0.796673
660.000000	0.796651
661.000000	0.796610
662.000000	0.796544
663.000000	0.796574
664.000000	0.796616
665.000000	0.796631
666.000000	0.796611
667.000000	0.796506
668.000000	0.796532
669.000000	0.796568
670.000000	0.796560
671.000000	0.796591
672.000000	0.796665
673.000000	0.796735
674.000000	0.796751
675.000000	0.796695
676.000000	0.796640
677.000000	0.796698
678.000000	0.796694
679.000000	0.796688
680.000000	0.796744
681.000000	0.796742
682.000000	0.796890
683.000000	0.797038
684.000000	0.797267
685.000000	0.797404
686.000000	0.797511
687.000000	0.797586
688.000000	0.797668
689.000000	0.797743
690.000000	0.797874
691.000000	0.797992
692.000000	0.798007
693.000000	0.798095
694.000000	0.798279
695.000000	0.798480
696.000000	0.798679
697.000000	0.798882
698.000000	0.799059
699.000000	0.799219
700.000000	0.799381
701.000000	0.799449
702.000000	0.799610
703.000000	0.799827
704.000000	0.799893
705.000000	0.800014
706.000000	0.800127
707.000000	0.800309
708.000000	0.800519
709.000000	0.800679
710.000000	0.800801
711.000000	0.800958
712.000000	0.801123
713.000000	0.801333
714.000000	0.801563
715.000000	0.801725
716.000000	0.801863
717.000000	0.802011
718.000000	0.802077
719.000000	0.802124
720.000000	0.802247
721.000000	0.802409
722.000000	0.802463
723.000000	0.802545
724.000000	0.802698
725.000000	0.802783
726.000000	0.802955
727.000000	0.803051
728.000000	0.803122
729.000000	0.803211
730.000000	0.803227
731.000000	0.803319
732.000000	0.803410
733.000000	0.803545
734.000000	0.803624
735.000000	0.803587
736.000000	0.803721
737.000000	0.803780
738.000000	0.803783
739.000000	0.803924
740.000000	0.803909
741.000000	0.803946
742.000000	0.804008
743.000000	0.804010
744.000000	0.804020
745.000000	0.803992
746.000000	0.804047
747.000000	0.804087
748.000000	0.804203
749.000000	0.804385
750.000000	0.804511
751.000000	0.804537
752.000000	0.804610
753.000000	0.804748
754.000000	0.804798
755.000000	0.804810
756.000000	0.804834
757.000000	0.804795
758.000000	0.804790
759.000000	0.804886
760.000000	0.804941
761.000000	0.805112
762.000000	0.805223
763.000000	0.805234
764.000000	0.805392
765.000000	0.805508
766.000000	0.805583
767.000000	0.805642
768.000000	0.805736
769.000000	0.805795
770.000000	0.805824
771.000000	0.805914
772.000000	0.806114
773.000000	0.806216
774.000000	0.806257
775.000000	0.806244
776.000000	0.806222
777.000000	0.806197
778.000000	0.806256
779.000000	0.806334
780.000000	0.806399
781.000000	0.806388
782.000000	0.806347
783.000000	0.806497
784.000000	0.806592
785.000000	0.806657
786.000000	0.806686
787.000000	0.806692
788.000000	0.806781
789.000000	0.806828
790.000000	0.806797
791.000000	0.806819
792.000000	0.806822
793.000000	0.806830
794.000000	0.806884
795.000000	0.806967
796.000000	0.807022
797.000000	0.807037
798.000000	0.807081
799.000000	0.807226
800.000000	0.807385
801.000000	0.807450
802.000000	0.807504
803.000000	0.807496
804.000000	0.807497
805.000000	0.807472
806.000000	0.807402
807.000000	0.807486
808.000000	0.807621
809.000000	0.807767
810.000000	0.807852
811.000000	0.807807
812.000000	0.807734
813.000000	0.807615
814.000000	0.807501
815.000000	0.807561
816.000000	0.807582
817.000000	0.807662
818.000000	0.807713
819.000000	0.807796
820.000000	0.807882
821.000000	0.807829
822.000000	0.807734
823.000000	0.807737
824.000000	0.807723
825.000000	0.807804
826.000000	0.807943
827.000000	0.808047
828.000000	0.808156
829.000000	0.808181
830.000000	0.808039
831.000000	0.807922
832.000000	0.807744
833.000000	0.807773
834.000000	0.807909
835.000000	0.808074
836.000000	0.808073
837.000000	0.807984
838.000000	0.807899
839.000000	0.807804
840.000000	0.807835
841.000000	0.807958
842.000000	0.807997
843.000000	0.807978
844.000000	0.808012
845.000000	0.808064
846.000000	0.808141
847.000000	0.808246
848.000000	0.808353
849.000000	0.808504
850.000000	0.808542
851.000000	0.808524
852.000000	0.808583
853.000000	0.808648
854.000000	0.808583
855.000000	0.808646
856.000000	0.808671
857.000000	0.808453
858.000000	0.808353
859.000000	0.808340
860.000000	0.808337
861.000000	0.808420
862.000000	0.808667
863.000000	0.808920
864.000000	0.809070
865.000000	0.809220
866.000000	0.809427
867.000000	0.809408
868.000000	0.809377
869.000000	0.809246
870.000000	0.809135
871.000000	0.809093
872.000000	0.809178
873.000000	0.809250
874.000000	0.809381
875.000000	0.809375
876.000000	0.809300
877.000000	0.809160
878.000000	0.809026
879.000000	0.809114
880.000000	0.809134
881.000000	0.809127
882.000000	0.809094
883.000000	0.809082
884.000000	0.808992
885.000000	0.809007
886.000000	0.808999
887.000000	0.808995
888.000000	0.809125
889.000000	0.809333
890.000000	0.809308
891.000000	0.809282
892.000000	0.809266
893.000000	0.809148
894.000000	0.809190
895.000000	0.809242
896.000000	0.809136
897.000000	0.808969
898.000000	0.808907
899.000000	0.808816
900.000000	0.808833
901.000000	0.808916
902.000000	0.809113
903.000000	0.809127
904.000000	0.809114
905.000000	0.809063
906.000000	0.809195
907.000000	0.809228
908.000000	0.809230
909.000000	0.809191
910.000000	0.809134
911.000000	0.809111
912.000000	0.809182
913.000000	0.809173
914.000000	0.809171
915.000000	0.809287
916.000000	0.809211
917.000000	0.809115
918.000000	0.809180
919.000000	0.809378
920.000000	0.809383
921.000000	0.809426
922.000000	0.809501
923.000000	0.809420
924.000000	0.809234
925.000000	0.809087
926.000000	0.809128
927.000000	0.809188
928.000000	0.809258
929.000000	0.809248
930.000000	0.809104
931.000000	0.809015
932.000000	0.808866
933.000000	0.808700
934.000000	0.808464
935.000000	0.808198
936.000000	0.808035
937.000000	0.807793
938.000000	0.807487
939.000000	0.807409
940.000000	0.807306
941.000000	0.807060
942.000000	0.806791
943.000000	0.806662
944.000000	0.806463
945.000000	0.806480
946.000000	0.806227
947.000000	0.805917
948.000000	0.805681
949.000000	0.805118
950.000000	0.804682
951.000000	0.804329
952.000000	0.803840
953.000000	0.803301
954.000000	0.802820
955.000000	0.802276
956.000000	0.801726
957.000000	0.801156
958.000000	0.800572
959.000000	0.800268
960.000000	0.799844
961.000000	0.799460
962.000000	0.799086
963.000000	0.798596
964.000000	0.798159
965.000000	0.797754
966.000000	0.797086
967.000000	0.796564
968.000000	0.796179
969.000000	0.795761
970.000000	0.795425
971.000000	0.795191
972.000000	0.795101
973.000000	0.794901
974.000000	0.794508
975.000000	0.794268
976.000000	0.794144
977.000000	0.793998
978.000000	0.793726
979.000000	0.793656
980.000000	0.793371
981.000000	0.793406
982.000000	0.793373
983.000000	0.793260
984.000000	0.793313
985.000000	0.793580
986.000000	0.793671
987.000000	0.793720
988.000000	0.793580
989.000000	0.793333
990.000000	0.793410
991.000000	0.793659
992.000000	0.793890
993.000000	0.794205
994.000000	0.794270
995.000000	0.794400
996.000000	0.794358
997.000000	0.794726
998.000000	0.794978
999.000000	0.795116
1000.000000	0.795434
1001.000000	0.795235
1002.000000	0.795178
1003.000000	0.795116
1004.000000	0.795154
1005.000000	0.795292
1006.000000	0.795112
1007.000000	0.794964
1008.000000	0.794823
1009.000000	0.794972
1010.000000	0.794873
1011.000000	0.795472
1012.000000	0.796444
1013.000000	0.796215
1014.000000	0.796346
1015.000000	0.796870
1016.000000	0.797079
1017.000000	0.797328
1018.000000	0.797943
1019.000000	0.798484
1020.000000	0.799305
1021.000000	0.799097
1022.000000	0.799090
1023.000000	0.799663
1024.000000	0.799577
1025.000000	0.800027
1026.000000	0.800927
1027.000000	0.800985
1028.000000	0.801119
1029.000000	0.801615
1030.000000	0.801992
1031.000000	0.802536
1032.000000	0.803115
1033.000000	0.803372
1034.000000	0.803772
1035.000000	0.804200
1036.000000	0.804695
1037.000000	0.805474
1038.000000	0.805677
1039.000000	0.805846
1040.000000	0.806211
1041.000000	0.806420
1042.000000	0.806401
1043.000000	0.807035
1044.000000	0.807775
1045.000000	0.807923
1046.000000	0.808063
1047.000000	0.808462
1048.000000	0.808652
1049.000000	0.808880
1050.000000	0.809493
1051.000000	0.809750
1052.000000	0.809540
1053.000000	0.809511
1054.000000	0.809947
1055.000000	0.810371
1056.000000	0.810947
1057.000000	0.811518
1058.000000	0.811769
1059.000000	0.811574
1060.000000	0.811812
1061.000000	0.812149
1062.000000	0.812380
1063.000000	0.812943
1064.000000	0.813175
1065.000000	0.812889
1066.000000	0.813005
1067.000000	0.813168
1068.000000	0.813208
1069.000000	0.813224
1070.000000	0.813191
1071.000000	0.813071
1072.000000	0.813103
1073.000000	0.813244
1074.000000	0.813735
1075.000000	0.814067
1076.000000	0.814418
1077.000000	0.814250
1078.000000	0.813868
1079.000000	0.813805
1080.000000	0.813818
1081.000000	0.813692
1082.000000	0.814002
1083.000000	0.814006
1084.000000	0.813701
1085.000000	0.813674
1086.000000	0.813749
1087.000000	0.813815
1088.000000	0.813780
1089.000000	0.813613
1090.000000	0.813345
1091.000000	0.812892
1092.000000	0.812497
1093.000000	0.812535
1094.000000	0.812427
1095.000000	0.812212
1096.000000	0.812305
1097.000000	0.812659
1098.000000	0.812678
1099.000000	0.812680
1100.000000	0.812651
1101.000000	0.812150
1102.000000	0.811872
1103.000000	0.811733
1104.000000	0.811541
1105.000000	0.811241
1106.000000	0.811047
1107.000000	0.810684
1108.000000	0.810442
1109.000000	0.810524
1110.000000	0.810537
1111.000000	0.810437
1112.000000	0.810403
1113.000000	0.810254
1114.000000	0.809987
1115.000000	0.809705
1116.000000	0.809376
1117.000000	0.809103
1118.000000	0.808765
1119.000000	0.808318
1120.000000	0.807889
1121.000000	0.807462
1122.000000	0.807113
1123.000000	0.807237
1124.000000	0.807138
1125.000000	0.806987
1126.000000	0.806683
1127.000000	0.806304
1128.000000	0.805842
1129.000000	0.805314
1130.000000	0.804920
1131.000000	0.804736
1132.000000	0.804070
1133.000000	0.803330
1134.000000	0.802702
1135.000000	0.801722
1136.000000	0.800877
1137.000000	0.800324
1138.000000	0.799361
1139.000000	0.798288
1140.000000	0.797481
1141.000000	0.796592
1142.000000	0.795637
1143.000000	0.794644
1144.000000	0.793796
1145.000000	0.792545
1146.000000	0.791057
1147.000000	0.789592
1148.000000	0.787796
1149.000000	0.786262
1150.000000	0.784769
1151.000000	0.783336
1152.000000	0.781916
1153.000000	0.780462
1154.000000	0.778929
1155.000000	0.777307
1156.000000	0.775557
1157.000000	0.773996
1158.000000	0.772312
1159.000000	0.770724
1160.000000	0.769197
1161.000000	0.767751
1162.000000	0.766446
1163.000000	0.765481
1164.000000	0.764311
1165.000000	0.763168
1166.000000	0.762176
1167.000000	0.761071
1168.000000	0.760033
1169.000000	0.759187
1170.000000	0.758412
1171.000000	0.757759
1172.000000	0.757132
1173.000000	0.756533
1174.000000	0.755941
1175.000000	0.755274
1176.000000	0.754557
1177.000000	0.754112
1178.000000	0.753531
1179.000000	0.752801
1180.000000	0.752004
1181.000000	0.751367
1182.000000	0.750613
1183.000000	0.750031
1184.000000	0.749633
1185.000000	0.749061
1186.000000	0.748542
1187.000000	0.747847
1188.000000	0.747004
1189.000000	0.746133
1190.000000	0.745259
1191.000000	0.744481
1192.000000	0.743870
1193.000000	0.743463
1194.000000	0.742968
1195.000000	0.742439
1196.000000	0.741812
1197.000000	0.741238
1198.000000	0.740677
1199.000000	0.740179
1200.000000	0.739691
1201.000000	0.739253
1202.000000	0.738859
1203.000000	0.738514
1204.000000	0.738240
1205.000000	0.738020
1206.000000	0.737613
1207.000000	0.737330
1208.000000	0.736971
1209.000000	0.736601
1210.000000	0.736348
1211.000000	0.736239
1212.000000	0.735959
1213.000000	0.735728
1214.000000	0.735511
1215.000000	0.735162
1216.000000	0.734880
1217.000000	0.734624
1218.000000	0.734285
1219.000000	0.733954
1220.000000	0.733681
1221.000000	0.733391
1222.000000	0.733046
1223.000000	0.732767
1224.000000	0.732552
1225.000000	0.732240
1226.000000	0.732003
1227.000000	0.731699
1228.000000	0.731479
1229.000000	0.731189
1230.000000	0.730844
1231.000000	0.730456
1232.000000	0.730261
1233.000000	0.730286
1234.000000	0.730396
1235.000000	0.730396
1236.000000	0.730285
1237.000000	0.730290
1238.000000	0.730132
1239.000000	0.730027
1240.000000	0.730012
1241.000000	0.729980
1242.000000	0.729911
1243.000000	0.729866
1244.000000	0.729917
1245.000000	0.730111
1246.000000	0.730082
1247.000000	0.730174
1248.000000	0.730343
1249.000000	0.730418
1250.000000	0.730594
1251.000000	0.730796
1252.000000	0.730885
1253.000000	0.730958
1254.000000	0.731009
1255.000000	0.730971
1256.000000	0.731007
1257.000000	0.731082
1258.000000	0.731268
1259.000000	0.731379
1260.000000	0.731617
1261.000000	0.731851
1262.000000	0.732025
1263.000000	0.732274
1264.000000	0.732429
1265.000000	0.732543
1266.000000	0.732605
1267.000000	0.732597
1268.000000	0.732663
1269.000000	0.732683
1270.000000	0.732832
1271.000000	0.732999
1272.000000	0.733179
1273.000000	0.733482
1274.000000	0.733663
1275.000000	0.733762
1276.000000	0.733902
1277.000000	0.734091
1278.000000	0.733989
1279.000000	0.733957
1280.000000	0.733824
1281.000000	0.733640
1282.000000	0.733498
1283.000000	0.733564
1284.000000	0.733566
1285.000000	0.733571
1286.000000	0.733608
1287.000000	0.733571
1288.000000	0.733569
1289.000000	0.733494
1290.000000	0.733256
1291.000000	0.733012
1292.000000	0.732810
1293.000000	0.732558
1294.000000	0.732266
1295.000000	0.732041
1296.000000	0.731694
1297.000000	0.731248
1298.000000	0.730895
1299.000000	0.730517
1300.000000	0.730151
1301.000000	0.729654
1302.000000	0.728992
1303.000000	0.728452
1304.000000	0.727768
1305.000000	0.727137
1306.000000	0.726479
1307.000000	0.725911
1308.000000	0.725312
1309.000000	0.724710
1310.000000	0.723961
1311.000000	0.723207
1312.000000	0.722291
1313.000000	0.721341
1314.000000	0.720349
1315.000000	0.719232
1316.000000	0.718312
1317.000000	0.717399
1318.000000	0.716372
1319.000000	0.715233
1320.000000	0.714044
1321.000000	0.712780
1322.000000	0.711490
1323.000000	0.710253
1324.000000	0.709072
1325.000000	0.707719
1326.000000	0.706188
1327.000000	0.704662
1328.000000	0.703257
1329.000000	0.701635
1330.000000	0.699925
1331.000000	0.698267
1332.000000	0.696683
1333.000000	0.694979
1334.000000	0.693412
1335.000000	0.691792
1336.000000	0.690046
1337.000000	0.688252
1338.000000	0.686342
1339.000000	0.684372
1340.000000	0.682338
1341.000000	0.680411
1342.000000	0.678483
1343.000000	0.676482
1344.000000	0.674480
1345.000000	0.672319
1346.000000	0.670316
1347.000000	0.668197
1348.000000	0.666085
1349.000000	0.664030
1350.000000	0.662041
1351.000000	0.659943
1352.000000	0.657815
1353.000000	0.655704
1354.000000	0.653689
1355.000000	0.651644
1356.000000	0.649659
1357.000000	0.647607
1358.000000	0.645532
1359.000000	0.643481
1360.000000	0.641494
1361.000000	0.639704
1362.000000	0.637804
1363.000000	0.635834
1364.000000	0.633991
1365.000000	0.632093
1366.000000	0.630329
1367.000000	0.628703
1368.000000	0.626921
1369.000000	0.625307
1370.000000	0.623515
1371.000000	0.621543
1372.000000	0.619631
1373.000000	0.617727
1374.000000	0.615858
1375.000000	0.613958
1376.000000	0.612157
1377.000000	0.610280
1378.000000	0.608193
1379.000000	0.605906
1380.000000	0.603543
1381.000000	0.600990
1382.000000	0.598331
1383.000000	0.595715
1384.000000	0.592820
1385.000000	0.589752
1386.000000	0.586694
1387.000000	0.583626
1388.000000	0.580394
1389.000000	0.577079
1390.000000	0.573842
1391.000000	0.570303
1392.000000	0.566692
1393.000000	0.562877
1394.000000	0.558955
1395.000000	0.554897
1396.000000	0.550758
1397.000000	0.546285
1398.000000	0.541544
1399.000000	0.536845
1400.000000	0.531904
1401.000000	0.526908
1402.000000	0.522046
1403.000000	0.516859
1404.000000	0.511658
1405.000000	0.506392
1406.000000	0.500926
1407.000000	0.495630
1408.000000	0.490153
1409.000000	0.484679
1410.000000	0.479415
1411.000000	0.473885
1412.000000	0.468331
1413.000000	0.462928
1414.000000	0.457419
1415.000000	0.452121
1416.000000	0.446952
1417.000000	0.441731
1418.000000	0.436529
1419.000000	0.431393
1420.000000	0.426256
1421.000000	0.421373
1422.000000	0.416636
1423.000000	0.412181
1424.000000	0.407758
1425.000000	0.403392
1426.000000	0.399150
1427.000000	0.395000
1428.000000	0.391093
1429.000000	0.387365
1430.000000	0.383749
1431.000000	0.380373
1432.000000	0.377049
1433.000000	0.373854
1434.000000	0.370722
1435.000000	0.367737
1436.000000	0.364873
1437.000000	0.362136
1438.000000	0.359415
1439.000000	0.356847
1440.000000	0.354386
1441.000000	0.351942
1442.000000	0.349665
1443.000000	0.347480
1444.000000	0.345397
1445.000000	0.343382
1446.000000	0.341468
1447.000000	0.339637
1448.000000	0.337927
1449.000000	0.336311
1450.000000	0.334773
1451.000000	0.333346
1452.000000	0.331920
1453.000000	0.330632
1454.000000	0.329462
1455.000000	0.328364
1456.000000	0.327497
1457.000000	0.326678
1458.000000	0.325873
1459.000000	0.325153
1460.000000	0.324373
1461.000000	0.323600
1462.000000	0.322876
1463.000000	0.322133
1464.000000	0.321514
1465.000000	0.321001
1466.000000	0.320497
1467.000000	0.320076
1468.000000	0.319700
1469.000000	0.319407
1470.000000	0.319106
1471.000000	0.318943
1472.000000	0.318910
1473.000000	0.318998
1474.000000	0.319165
1475.000000	0.319477
1476.000000	0.319888
1477.000000	0.320383
1478.000000	0.321033
1479.000000	0.321741
1480.000000	0.322518
1481.000000	0.323386
1482.000000	0.324435
1483.000000	0.325486
1484.000000	0.326623
1485.000000	0.327753
1486.000000	0.328884
1487.000000	0.330056
1488.000000	0.331316
1489.000000	0.332518
1490.000000	0.333597
1491.000000	0.334752
1492.000000	0.335847
1493.000000	0.336984
1494.000000	0.338137
1495.000000	0.339242
1496.000000	0.340309
1497.000000	0.341390
1498.000000	0.342499
1499.000000	0.343561
1500.000000	0.344598
1501.000000	0.345599
1502.000000	0.346532
1503.000000	0.347487
1504.000000	0.348458
1505.000000	0.349383
1506.000000	0.350300
1507.000000	0.351162
1508.000000	0.352025
1509.000000	0.352880
1510.000000	0.353655
1511.000000	0.354455
1512.000000	0.355172
1513.000000	0.355827
1514.000000	0.356535
1515.000000	0.357124
1516.000000	0.357752
1517.000000	0.358370
1518.000000	0.358907
1519.000000	0.359426
1520.000000	0.359914
1521.000000	0.360301
1522.000000	0.360773
1523.000000	0.361299
1524.000000	0.361747
1525.000000	0.362247
1526.000000	0.362686
1527.000000	0.363038
1528.000000	0.363385
1529.000000	0.363699
1530.000000	0.363909
1531.000000	0.364211
1532.000000	0.364550
1533.000000	0.364787
1534.000000	0.365027
1535.000000	0.365242
1536.000000	0.365387
1537.000000	0.365618
1538.000000	0.365830
1539.000000	0.365948
1540.000000	0.366072
1541.000000	0.366204
1542.000000	0.366342
1543.000000	0.366486
1544.000000	0.366576
1545.000000	0.366670
1546.000000	0.366738
1547.000000	0.366748
1548.000000	0.366794
1549.000000	0.366814
1550.000000	0.366768
1551.000000	0.366771
1552.000000	0.366791
1553.000000	0.366757
1554.000000	0.366748
1555.000000	0.366765
1556.000000	0.366763
1557.000000	0.366748
1558.000000	0.366778
1559.000000	0.366777
1560.000000	0.366759
1561.000000	0.366799
1562.000000	0.366782
1563.000000	0.366766
1564.000000	0.366768
1565.000000	0.366769
1566.000000	0.366668
1567.000000	0.366636
1568.000000	0.366595
1569.000000	0.366575
1570.000000	0.366568
1571.000000	0.366588
1572.000000	0.366557
1573.000000	0.366511
1574.000000	0.366461
1575.000000	0.366395
1576.000000	0.366364
1577.000000	0.366338
1578.000000	0.366282
1579.000000	0.366292
1580.000000	0.366278
1581.000000	0.366318
1582.000000	0.366304
1583.000000	0.366271
1584.000000	0.366194
1585.000000	0.366143
1586.000000	0.366119
1587.000000	0.366088
1588.000000	0.366070
1589.000000	0.366084
1590.000000	0.366105
1591.000000	0.366154
1592.000000	0.366217
1593.000000	0.366330
1594.000000	0.366420
1595.000000	0.366569
1596.000000	0.366719
1597.000000	0.366906
1598.000000	0.367055
1599.000000	0.367256
1600.000000	0.367372
1601.000000	0.367514
1602.000000	0.367657
1603.000000	0.367781
1604.000000	0.367945
1605.000000	0.368174
1606.000000	0.368376
1607.000000	0.368649
1608.000000	0.368873
1609.000000	0.369130
1610.000000	0.369349
1611.000000	0.369561
1612.000000	0.369812
1613.000000	0.370168
1614.000000	0.370497
1615.000000	0.370919
1616.000000	0.371343
1617.000000	0.371720
1618.000000	0.372084
1619.000000	0.372412
1620.000000	0.372803
1621.000000	0.373222
1622.000000	0.373756
1623.000000	0.374362
1624.000000	0.374887
1625.000000	0.375245
1626.000000	0.375669
1627.000000	0.376086
1628.000000	0.376650
1629.000000	0.377327
1630.000000	0.377960
1631.000000	0.378549
1632.000000	0.379130
1633.000000	0.379695
1634.000000	0.380331
1635.000000	0.381051
1636.000000	0.381753
1637.000000	0.382502
1638.000000	0.383210
1639.000000	0.383973
1640.000000	0.384730
1641.000000	0.385545
1642.000000	0.386356
1643.000000	0.387231
1644.000000	0.388066
1645.000000	0.388902
1646.000000	0.389676
1647.000000	0.390453
1648.000000	0.391212
1649.000000	0.392030
1650.000000	0.392871
1651.000000	0.393778
1652.000000	0.394679
1653.000000	0.395534
1654.000000	0.396411
1655.000000	0.397237
1656.000000	0.397961
1657.000000	0.398736
1658.000000	0.399486
1659.000000	0.400318
1660.000000	0.401123
1661.000000	0.401800
1662.000000	0.402538
1663.000000	0.403226
1664.000000	0.403948
1665.000000	0.404713
1666.000000	0.405554
1667.000000	0.406315
1668.000000	0.407095
1669.000000	0.407905
1670.000000	0.408595
1671.000000	0.409361
1672.000000	0.410142
1673.000000	0.410855
1674.000000	0.411553
1675.000000	0.412306
1676.000000	0.412970
1677.000000	0.413609
1678.000000	0.414216
1679.000000	0.414767
1680.000000	0.415332
1681.000000	0.415887
1682.000000	0.416406
1683.000000	0.416989
1684.000000	0.417529
1685.000000	0.418095
1686.000000	0.418633
1687.000000	0.419189
1688.000000	0.419700
1689.000000	0.420168
1690.000000	0.420686
1691.000000	0.421269
1692.000000	0.421748
1693.000000	0.422277
1694.000000	0.422754
1695.000000	0.423220
1696.000000	0.423655
1697.000000	0.424024
1698.000000	0.424426
1699.000000	0.424859
1700.000000	0.425262
1701.000000	0.425788
1702.000000	0.426165
1703.000000	0.426507
1704.000000	0.426963
1705.000000	0.427401
1706.000000	0.427864
1707.000000	0.428343
1708.000000	0.428807
1709.000000	0.429197
1710.000000	0.429673
1711.000000	0.430174
1712.000000	0.430707
1713.000000	0.431211
1714.000000	0.431781
1715.000000	0.432345
1716.000000	0.432931
1717.000000	0.433463
1718.000000	0.433919
1719.000000	0.434409
1720.000000	0.434919
1721.000000	0.435469
1722.000000	0.436076
1723.000000	0.436706
1724.000000	0.437382
1725.000000	0.438111
1726.000000	0.438825
1727.000000	0.439474
1728.000000	0.440044
1729.000000	0.440524
1730.000000	0.441065
1731.000000	0.441652
1732.000000	0.442257
1733.000000	0.442945
1734.000000	0.443509
1735.000000	0.444134
1736.000000	0.444752
1737.000000	0.445361
1738.000000	0.446036
1739.000000	0.446628
1740.000000	0.447140
1741.000000	0.447679
1742.000000	0.448188
1743.000000	0.448845
1744.000000	0.449581
1745.000000	0.450114
1746.000000	0.450612
1747.000000	0.451077
1748.000000	0.451480
1749.000000	0.451969
1750.000000	0.452383
1751.000000	0.452860
1752.000000	0.453450
1753.000000	0.453895
1754.000000	0.454367
1755.000000	0.454781
1756.000000	0.455211
1757.000000	0.455681
1758.000000	0.456139
1759.000000	0.456570
1760.000000	0.457005
1761.000000	0.457324
1762.000000	0.457742
1763.000000	0.458292
1764.000000	0.458756
1765.000000	0.459174
1766.000000	0.459634
1767.000000	0.459906
1768.000000	0.460273
1769.000000	0.460898
1770.000000	0.461448
1771.000000	0.461924
1772.000000	0.462417
1773.000000	0.462784
1774.000000	0.463279
1775.000000	0.463944
1776.000000	0.464530
1777.000000	0.465107
1778.000000	0.465625
1779.000000	0.466036
1780.000000	0.466592
1781.000000	0.467140
1782.000000	0.467687
1783.000000	0.468355
1784.000000	0.469033
1785.000000	0.469622
1786.000000	0.470309
1787.000000	0.471110
1788.000000	0.471847
1789.000000	0.472475
1790.000000	0.473209
1791.000000	0.473795
1792.000000	0.474394
1793.000000	0.475023
1794.000000	0.475664
1795.000000	0.476287
1796.000000	0.476900
1797.000000	0.477499
1798.000000	0.478002
1799.000000	0.478563
1800.000000	0.479282
1801.000000	0.478105
1802.000000	0.478760
1803.000000	0.478981
1804.000000	0.479569
1805.000000	0.480449
1806.000000	0.481189
1807.000000	0.481985
1808.000000	0.482576
1809.000000	0.482900
1810.000000	0.483570
1811.000000	0.484108
1812.000000	0.484503
1813.000000	0.485052
1814.000000	0.485971
1815.000000	0.486455
1816.000000	0.486725
1817.000000	0.486795
1818.000000	0.486576
1819.000000	0.486776
1820.000000	0.486790
1821.000000	0.486954
1822.000000	0.487135
1823.000000	0.487441
1824.000000	0.487280
1825.000000	0.486711
1826.000000	0.486605
1827.000000	0.486198
1828.000000	0.486008
1829.000000	0.486283
1830.000000	0.486338
1831.000000	0.486148
1832.000000	0.485689
1833.000000	0.485289
1834.000000	0.484816
1835.000000	0.484285
1836.000000	0.483533
1837.000000	0.482899
1838.000000	0.482142
1839.000000	0.481230
1840.000000	0.480364
1841.000000	0.479332
1842.000000	0.478293
1843.000000	0.477100
1844.000000	0.475912
1845.000000	0.474519
1846.000000	0.473334
1847.000000	0.472137
1848.000000	0.470555
1849.000000	0.469134
1850.000000	0.467270
1851.000000	0.465377
1852.000000	0.463131
1853.000000	0.461177
1854.000000	0.459204
1855.000000	0.456740
1856.000000	0.454109
1857.000000	0.450963
1858.000000	0.447698
1859.000000	0.444480
1860.000000	0.441252
1861.000000	0.437790
1862.000000	0.434060
1863.000000	0.430061
1864.000000	0.426076
1865.000000	0.422092
1866.000000	0.417711
1867.000000	0.413137
1868.000000	0.408158
1869.000000	0.402741
1870.000000	0.396978
1871.000000	0.391397
1872.000000	0.385833
1873.000000	0.380215
1874.000000	0.374820
1875.000000	0.369142
1876.000000	0.363178
1877.000000	0.356656
1878.000000	0.350083
1879.000000	0.343118
1880.000000	0.336200
1881.000000	0.329273
1882.000000	0.322329
1883.000000	0.315404
1884.000000	0.308347
1885.000000	0.300781
1886.000000	0.293470
1887.000000	0.286052
1888.000000	0.278561
1889.000000	0.271381
1890.000000	0.264537
1891.000000	0.257684
1892.000000	0.250754
1893.000000	0.243845
1894.000000	0.236850
1895.000000	0.229855
1896.000000	0.223014
1897.000000	0.216152
1898.000000	0.208885
1899.000000	0.202025
1900.000000	0.195307
1901.000000	0.188726
1902.000000	0.182611
1903.000000	0.176566
1904.000000	0.170828
1905.000000	0.165132
1906.000000	0.159560
1907.000000	0.154135
1908.000000	0.149257
1909.000000	0.144391
1910.000000	0.139676
1911.000000	0.135453
1912.000000	0.131148
1913.000000	0.127039
1914.000000	0.123529
1915.000000	0.119920
1916.000000	0.116570
1917.000000	0.113514
1918.000000	0.110816
1919.000000	0.107875
1920.000000	0.105549
1921.000000	0.103742
1922.000000	0.101885
1923.000000	0.100516
1924.000000	0.099220
1925.000000	0.097854
1926.000000	0.096689
1927.000000	0.095829
1928.000000	0.095169
1929.000000	0.094787
1930.000000	0.094608
1931.000000	0.094446
1932.000000	0.094182
1933.000000	0.093969
1934.000000	0.093707
1935.000000	0.093583
1936.000000	0.093496
1937.000000	0.093319
1938.000000	0.093118
1939.000000	0.092929
1940.000000	0.092697
1941.000000	0.092646
1942.000000	0.092436
1943.000000	0.092155
1944.000000	0.091802
1945.000000	0.090994
1946.000000	0.090387
1947.000000	0.089872
1948.000000	0.089224
1949.000000	0.088596
1950.000000	0.087950
1951.000000	0.087349
1952.000000	0.086722
1953.000000	0.086073
1954.000000	0.085698
1955.000000	0.085159
1956.000000	0.084420
1957.000000	0.083842
1958.000000	0.083232
1959.000000	0.082848
1960.000000	0.082511
1961.000000	0.082076
1962.000000	0.081694
1963.000000	0.081324
1964.000000	0.080962
1965.000000	0.080686
1966.000000	0.080620
1967.000000	0.080728
1968.000000	0.080699
1969.000000	0.080569
1970.000000	0.080572
1971.000000	0.080415
1972.000000	0.080150
1973.000000	0.080158
1974.000000	0.080446
1975.000000	0.080619
1976.000000	0.080813
1977.000000	0.081358
1978.000000	0.081661
1979.000000	0.081717
1980.000000	0.082020
1981.000000	0.082331
1982.000000	0.082600
1983.000000	0.083222
1984.000000	0.083688
1985.000000	0.084080
1986.000000	0.084482
1987.000000	0.084864
1988.000000	0.085362
1989.000000	0.086012
1990.000000	0.086809
1991.000000	0.087743
1992.000000	0.088518
1993.000000	0.089039
1994.000000	0.089701
1995.000000	0.090455
1996.000000	0.091389
1997.000000	0.092380
1998.000000	0.093645
1999.000000	0.094749
2000.000000	0.095889
2001.000000	0.096905
2002.000000	0.097849
2003.000000	0.098896
2004.000000	0.099962
2005.000000	0.100974
2006.000000	0.102035
2007.000000	0.103254
2008.000000	0.104417
2009.000000	0.105419
2010.000000	0.106696
2011.000000	0.108156
2012.000000	0.109490
2013.000000	0.110794
2014.000000	0.112357
2015.000000	0.113766
2016.000000	0.114978
2017.000000	0.116267
2018.000000	0.117578
2019.000000	0.118925
2020.000000	0.120170
2021.000000	0.121449
2022.000000	0.122742
2023.000000	0.124057
2024.000000	0.125358
2025.000000	0.126748
2026.000000	0.128168
2027.000000	0.129547
2028.000000	0.130973
2029.000000	0.132410
2030.000000	0.133851
2031.000000	0.135295
2032.000000	0.136787
2033.000000	0.138321
2034.000000	0.139809
2035.000000	0.141419
2036.000000	0.142795
2037.000000	0.144087
2038.000000	0.145459
2039.000000	0.146814
2040.000000	0.148195
2041.000000	0.149435
2042.000000	0.150573
2043.000000	0.151657
2044.000000	0.152652
2045.000000	0.153711
2046.000000	0.154847
2047.000000	0.156093
2048.000000	0.157295
2049.000000	0.158715
2050.000000	0.160216
2051.000000	0.161658
2052.000000	0.163169
2053.000000	0.164544
2054.000000	0.166060
2055.000000	0.167402
2056.000000	0.168759
2057.000000	0.169917
2058.000000	0.170983
2059.000000	0.172270
2060.000000	0.173397
2061.000000	0.174441
2062.000000	0.175465
2063.000000	0.176352
2064.000000	0.177382
2065.000000	0.178522
2066.000000	0.179777
2067.000000	0.181357
2068.000000	0.183000
2069.000000	0.184452
2070.000000	0.185981
2071.000000	0.187343
2072.000000	0.188528
2073.000000	0.189940
2074.000000	0.191271
2075.000000	0.192622
2076.000000	0.193939
2077.000000	0.195389
2078.000000	0.196905
2079.000000	0.198379
2080.000000	0.200020
2081.000000	0.201557
2082.000000	0.203032
2083.000000	0.204470
2084.000000	0.205979
2085.000000	0.207276
2086.000000	0.208739
2087.000000	0.210315
2088.000000	0.211725
2089.000000	0.213462
2090.000000	0.215204
2091.000000	0.217051
2092.000000	0.218783
2093.000000	0.220778
2094.000000	0.222390
2095.000000	0.223727
2096.000000	0.225215
2097.000000	0.226650
2098.000000	0.227822
2099.000000	0.229035
2100.000000	0.230302
2101.000000	0.231455
2102.000000	0.232687
2103.000000	0.234129
2104.000000	0.235358
2105.000000	0.236674
2106.000000	0.238021
2107.000000	0.239356
2108.000000	0.240731
2109.000000	0.242083
2110.000000	0.243245
2111.000000	0.244483
2112.000000	0.245799
2113.000000	0.246621
2114.000000	0.247658
2115.000000	0.248775
2116.000000	0.249897
2117.000000	0.251097
2118.000000	0.252216
2119.000000	0.253284
2120.000000	0.254290
2121.000000	0.255107
2122.000000	0.255997
2123.000000	0.256884
2124.000000	0.257743
2125.000000	0.258578
2126.000000	0.259428
2127.000000	0.260335
2128.000000	0.261249
2129.000000	0.262084
2130.000000	0.262889
2131.000000	0.263695
2132.000000	0.264555
2133.000000	0.265112
2134.000000	0.265475
2135.000000	0.265716
2136.000000	0.265878
2137.000000	0.266410
2138.000000	0.267381
2139.000000	0.268046
2140.000000	0.268851
2141.000000	0.269387
2142.000000	0.269622
2143.000000	0.269800
2144.000000	0.269895
2145.000000	0.270335
2146.000000	0.271021
2147.000000	0.271785
2148.000000	0.272663
2149.000000	0.273331
2150.000000	0.273582
2151.000000	0.273870
2152.000000	0.274064
2153.000000	0.274188
2154.000000	0.274287
2155.000000	0.274314
2156.000000	0.274432
2157.000000	0.274545
2158.000000	0.274823
2159.000000	0.275375
2160.000000	0.275811
2161.000000	0.276232
2162.000000	0.276684
2163.000000	0.277149
2164.000000	0.277343
2165.000000	0.277318
2166.000000	0.277474
2167.000000	0.277394
2168.000000	0.277522
2169.000000	0.278154
2170.000000	0.278478
2171.000000	0.278515
2172.000000	0.278354
2173.000000	0.278279
2174.000000	0.277784
2175.000000	0.277706
2176.000000	0.277770
2177.000000	0.278079
2178.000000	0.278890
2179.000000	0.279384
2180.000000	0.280060
2181.000000	0.280593
2182.000000	0.280268
2183.000000	0.280070
2184.000000	0.280004
2185.000000	0.279834
2186.000000	0.279778
2187.000000	0.280029
2188.000000	0.280106
2189.000000	0.280214
2190.000000	0.280499
2191.000000	0.280712
2192.000000	0.281088
2193.000000	0.281892
2194.000000	0.281997
2195.000000	0.281925
2196.000000	0.281955
2197.000000	0.281062
2198.000000	0.281104
2199.000000	0.282134
2200.000000	0.282657
2201.000000	0.283408
2202.000000	0.284181
2203.000000	0.284865
2204.000000	0.284796
2205.000000	0.285313
2206.000000	0.285385
2207.000000	0.284673
2208.000000	0.284571
2209.000000	0.284279
2210.000000	0.285067
2211.000000	0.285406
2212.000000	0.286242
2213.000000	0.286704
2214.000000	0.286403
2215.000000	0.286693
2216.000000	0.287342
2217.000000	0.287857
2218.000000	0.288453
2219.000000	0.289188
2220.000000	0.290603
2221.000000	0.291031
2222.000000	0.290793
2223.000000	0.290943
2224.000000	0.290793
2225.000000	0.290291
2226.000000	0.290261
2227.000000	0.290852
2228.000000	0.291791
2229.000000	0.291454
2230.000000	0.291169
2231.000000	0.291322
2232.000000	0.291105
2233.000000	0.291671
2234.000000	0.292961
2235.000000	0.294039
2236.000000	0.294308
2237.000000	0.294107
2238.000000	0.293863
2239.000000	0.292508
2240.000000	0.292326
2241.000000	0.292824
2242.000000	0.292782
2243.000000	0.292816
2244.000000	0.292924
2245.000000	0.292890
2246.000000	0.293059
2247.000000	0.293552
2248.000000	0.293748
2249.000000	0.294268
2250.000000	0.293489
2251.000000	0.292629
2252.000000	0.292916
2253.000000	0.292589
2254.000000	0.291890
2255.000000	0.292800
2256.000000	0.292862
2257.000000	0.292676
2258.000000	0.293495
2259.000000	0.292805
2260.000000	0.292198
2261.000000	0.291288
2262.000000	0.290276
2263.000000	0.289043
2264.000000	0.286818
2265.000000	0.286015
2266.000000	0.285947
2267.000000	0.285583
2268.000000	0.286203
2269.000000	0.285891
2270.000000	0.285089
2271.000000	0.284004
2272.000000	0.282110
2273.000000	0.281250
2274.000000	0.280353
2275.000000	0.279666
2276.000000	0.280089
2277.000000	0.279361
2278.000000	0.278207
2279.000000	0.277522
2280.000000	0.275822
2281.000000	0.274882
2282.000000	0.273895
2283.000000	0.271892
2284.000000	0.270744
2285.000000	0.269527
2286.000000	0.268404
2287.000000	0.267962
2288.000000	0.267607
2289.000000	0.266591
2290.000000	0.264871
2291.000000	0.263078
2292.000000	0.261265
2293.000000	0.259626
2294.000000	0.258241
2295.000000	0.257406
2296.000000	0.256526
2297.000000	0.255670
2298.000000	0.254856
2299.000000	0.254685
2300.000000	0.253270
2301.000000	0.251051
2302.000000	0.248968
2303.000000	0.246086
2304.000000	0.243707
2305.000000	0.241573
2306.000000	0.239802
2307.000000	0.238048
2308.000000	0.236796
2309.000000	0.235571
2310.000000	0.234065
2311.000000	0.232843
2312.000000	0.231143
2313.000000	0.229774
2314.000000	0.228241
2315.000000	0.226093
2316.000000	0.223925
2317.000000	0.221554
2318.000000	0.220341
2319.000000	0.219374
2320.000000	0.217623
2321.000000	0.216744
2322.000000	0.214599
2323.000000	0.212183
2324.000000	0.211397
2325.000000	0.209470
2326.000000	0.207867
2327.000000	0.206124
2328.000000	0.203968
2329.000000	0.202919
2330.000000	0.200761
2331.000000	0.198475
2332.000000	0.196398
2333.000000	0.194093
2334.000000	0.192479
2335.000000	0.190709
2336.000000	0.189120
2337.000000	0.186874
2338.000000	0.183507
2339.000000	0.181437
2340.000000	0.180009
2341.000000	0.178342
2342.000000	0.177766
2343.000000	0.176117
2344.000000	0.173821
2345.000000	0.171356
2346.000000	0.167862
2347.000000	0.164902
2348.000000	0.161801
2349.000000	0.159125
2350.000000	0.157369
2351.000000	0.156594
2352.000000	0.156247
2353.000000	0.155485
2354.000000	0.153560
2355.000000	0.151963
2356.000000	0.149975
2357.000000	0.147752
2358.000000	0.146417
2359.000000	0.144879
2360.000000	0.142830
2361.000000	0.140224
2362.000000	0.138023
2363.000000	0.136847
2364.000000	0.135451
2365.000000	0.135358
2366.000000	0.135462
2367.000000	0.134042
2368.000000	0.133751
2369.000000	0.132736
2370.000000	0.129766
2371.000000	0.127229
2372.000000	0.125284
2373.000000	0.124289
2374.000000	0.123420
2375.000000	0.122244
2376.000000	0.120844
2377.000000	0.119564
2378.000000	0.119155
2379.000000	0.119309
2380.000000	0.118218
2381.000000	0.114708
2382.000000	0.110529
2383.000000	0.107133
2384.000000	0.104925
2385.000000	0.104731
2386.000000	0.105099
2387.000000	0.104559
2388.000000	0.105543
2389.000000	0.104988
2390.000000	0.103090
2391.000000	0.103793
2392.000000	0.103383
2393.000000	0.103856
2394.000000	0.106763
2395.000000	0.108681
2396.000000	0.110239
2397.000000	0.110649
2398.000000	0.108931
2399.000000	0.107457
2400.000000	0.104870
2401.000000	0.102904
2402.000000	0.101062
2403.000000	0.097223
2404.000000	0.095689
2405.000000	0.093679
2406.000000	0.094468
2407.000000	0.098296
2408.000000	0.099532
2409.000000	0.100849
2410.000000	0.099782
2411.000000	0.096541
2412.000000	0.094606
2413.000000	0.093609
2414.000000	0.093192
2415.000000	0.092453
2416.000000	0.090541
2417.000000	0.088562
2418.000000	0.086749
2419.000000	0.086307
2420.000000	0.087746
2421.000000	0.087090
2422.000000	0.087434
2423.000000	0.088433
2424.000000	0.085669
2425.000000	0.085025
2426.000000	0.085183
2427.000000	0.082704
2428.000000	0.082216
2429.000000	0.082467
2430.000000	0.084290
2431.000000	0.088760
2432.000000	0.091241
2433.000000	0.093535
2434.000000	0.090429
2435.000000	0.082760
2436.000000	0.082218
2437.000000	0.082638
2438.000000	0.082495
2439.000000	0.087318
2440.000000	0.087934
2441.000000	0.086263
2442.000000	0.089653
2443.000000	0.088603
2444.000000	0.081887
2445.000000	0.079589
2446.000000	0.080352
2447.000000	0.079284
2448.000000	0.083836
2449.000000	0.088693
2450.000000	0.085066
2451.000000	0.083706
2452.000000	0.082447
2453.000000	0.077990
2454.000000	0.075606
2455.000000	0.073558
2456.000000	0.070526
2457.000000	0.070828
2458.000000	0.072367
2459.000000	0.073596
2460.000000	0.080192
2461.000000	0.082826
2462.000000	0.085012
2463.000000	0.085508
2464.000000	0.077498
2465.000000	0.074238
2466.000000	0.067466
2467.000000	0.053954
2468.000000	0.047369
2469.000000	0.046383
2470.000000	0.048631
2471.000000	0.061972
2472.000000	0.076017
2473.000000	0.076592
2474.000000	0.074760
2475.000000	0.074529
2476.000000	0.074331
2477.000000	0.079456
2478.000000	0.084801
2479.000000	0.081989
2480.000000	0.080291
2481.000000	0.074079
2482.000000	0.065971
2483.000000	0.065597
2484.000000	0.050415
2485.000000	0.045268
2486.000000	0.049231
2487.000000	0.040497
2488.000000	0.050600
2489.000000	0.064038
2490.000000	0.066590
2491.000000	0.065837
2492.000000	0.068184
2493.000000	0.068656
2494.000000	0.070244
2495.000000	0.074052
2496.000000	0.079999
2497.000000	0.090139
2498.000000	0.087967
2499.000000	0.089887
2500.000000	0.084386
