# Wavelength	NAu-2-20_HEX-10_FV7-70_00000.asd.rts.txt
350.000000	0.188057
351.000000	0.177963
352.000000	0.164253
353.000000	0.157835
354.000000	0.159255
355.000000	0.145550
356.000000	0.147409
357.000000	0.163672
358.000000	0.167957
359.000000	0.164404
360.000000	0.160710
361.000000	0.163801
362.000000	0.170708
363.000000	0.171560
364.000000	0.164487
365.000000	0.169828
366.000000	0.171905
367.000000	0.167181
368.000000	0.162014
369.000000	0.162329
370.000000	0.165631
371.000000	0.167296
372.000000	0.172305
373.000000	0.174417
374.000000	0.171581
375.000000	0.173876
376.000000	0.173104
377.000000	0.168395
378.000000	0.165674
379.000000	0.167028
380.000000	0.169339
381.000000	0.169020
382.000000	0.170625
383.000000	0.173590
384.000000	0.176435
385.000000	0.176036
386.000000	0.175920
387.000000	0.176790
388.000000	0.176086
389.000000	0.175448
390.000000	0.175946
391.000000	0.177829
392.000000	0.175800
393.000000	0.175613
394.000000	0.180094
395.000000	0.178019
396.000000	0.175216
397.000000	0.174706
398.000000	0.176248
399.000000	0.177430
400.000000	0.178035
401.000000	0.178608
402.000000	0.177103
403.000000	0.176132
404.000000	0.177898
405.000000	0.179692
406.000000	0.179931
407.000000	0.179024
408.000000	0.180546
409.000000	0.181420
410.000000	0.181324
411.000000	0.181359
412.000000	0.181065
413.000000	0.180849
414.000000	0.181208
415.000000	0.182179
416.000000	0.182698
417.000000	0.182442
418.000000	0.182702
419.000000	0.183550
420.000000	0.184390
421.000000	0.183901
422.000000	0.183905
423.000000	0.184485
424.000000	0.185184
425.000000	0.185442
426.000000	0.185347
427.000000	0.185262
428.000000	0.186277
429.000000	0.186777
430.000000	0.186486
431.000000	0.186889
432.000000	0.186847
433.000000	0.186734
434.000000	0.187591
435.000000	0.188169
436.000000	0.188313
437.000000	0.188187
438.000000	0.188429
439.000000	0.188555
440.000000	0.188472
441.000000	0.188670
442.000000	0.188963
443.000000	0.189295
444.000000	0.189801
445.000000	0.190412
446.000000	0.190732
447.000000	0.190369
448.000000	0.190783
449.000000	0.191358
450.000000	0.191596
451.000000	0.191887
452.000000	0.192145
453.000000	0.192356
454.000000	0.192769
455.000000	0.193201
456.000000	0.193538
457.000000	0.193586
458.000000	0.193796
459.000000	0.194297
460.000000	0.195056
461.000000	0.195571
462.000000	0.195530
463.000000	0.195063
464.000000	0.195521
465.000000	0.196010
466.000000	0.196389
467.000000	0.197022
468.000000	0.196937
469.000000	0.196739
470.000000	0.197355
471.000000	0.197718
472.000000	0.198005
473.000000	0.198350
474.000000	0.198266
475.000000	0.198487
476.000000	0.199090
477.000000	0.199140
478.000000	0.199161
479.000000	0.199438
480.000000	0.199879
481.000000	0.200065
482.000000	0.200294
483.000000	0.200683
484.000000	0.201033
485.000000	0.201364
486.000000	0.201752
487.000000	0.201878
488.000000	0.201990
489.000000	0.202164
490.000000	0.202362
491.000000	0.202626
492.000000	0.202927
493.000000	0.203124
494.000000	0.203356
495.000000	0.203668
496.000000	0.203990
497.000000	0.204108
498.000000	0.204212
499.000000	0.204436
500.000000	0.204713
501.000000	0.204848
502.000000	0.204968
503.000000	0.205264
504.000000	0.205430
505.000000	0.205592
506.000000	0.205892
507.000000	0.206115
508.000000	0.206389
509.000000	0.206730
510.000000	0.206991
511.000000	0.207328
512.000000	0.207721
513.000000	0.207961
514.000000	0.208201
515.000000	0.208560
516.000000	0.209052
517.000000	0.209298
518.000000	0.209574
519.000000	0.210035
520.000000	0.210494
521.000000	0.210798
522.000000	0.210991
523.000000	0.211410
524.000000	0.211817
525.000000	0.212210
526.000000	0.212724
527.000000	0.213213
528.000000	0.213744
529.000000	0.214425
530.000000	0.214995
531.000000	0.215601
532.000000	0.216260
533.000000	0.216880
534.000000	0.217434
535.000000	0.217991
536.000000	0.218775
537.000000	0.219554
538.000000	0.220225
539.000000	0.220741
540.000000	0.221366
541.000000	0.221975
542.000000	0.222481
543.000000	0.223096
544.000000	0.223673
545.000000	0.224131
546.000000	0.224726
547.000000	0.225363
548.000000	0.226006
549.000000	0.226564
550.000000	0.227180
551.000000	0.227876
552.000000	0.228584
553.000000	0.229221
554.000000	0.229910
555.000000	0.230730
556.000000	0.231548
557.000000	0.232382
558.000000	0.233301
559.000000	0.234110
560.000000	0.234902
561.000000	0.235771
562.000000	0.236683
563.000000	0.237415
564.000000	0.238119
565.000000	0.238884
566.000000	0.239606
567.000000	0.240288
568.000000	0.240932
569.000000	0.241597
570.000000	0.242202
571.000000	0.242731
572.000000	0.243250
573.000000	0.243735
574.000000	0.244168
575.000000	0.244580
576.000000	0.244972
577.000000	0.245290
578.000000	0.245575
579.000000	0.245961
580.000000	0.246321
581.000000	0.246614
582.000000	0.246952
583.000000	0.247205
584.000000	0.247380
585.000000	0.247558
586.000000	0.247739
587.000000	0.247886
588.000000	0.247969
589.000000	0.248054
590.000000	0.248145
591.000000	0.248241
592.000000	0.248355
593.000000	0.248363
594.000000	0.248292
595.000000	0.248342
596.000000	0.248349
597.000000	0.248331
598.000000	0.248278
599.000000	0.248209
600.000000	0.248162
601.000000	0.248097
602.000000	0.248036
603.000000	0.247916
604.000000	0.247747
605.000000	0.247654
606.000000	0.247580
607.000000	0.247482
608.000000	0.247313
609.000000	0.247172
610.000000	0.247074
611.000000	0.247003
612.000000	0.246916
613.000000	0.246803
614.000000	0.246691
615.000000	0.246563
616.000000	0.246401
617.000000	0.246244
618.000000	0.246285
619.000000	0.246251
620.000000	0.246143
621.000000	0.246115
622.000000	0.246089
623.000000	0.246047
624.000000	0.245987
625.000000	0.245949
626.000000	0.245906
627.000000	0.245896
628.000000	0.246091
629.000000	0.246114
630.000000	0.245953
631.000000	0.246024
632.000000	0.246152
633.000000	0.246250
634.000000	0.246248
635.000000	0.246203
636.000000	0.246160
637.000000	0.246144
638.000000	0.246202
639.000000	0.246308
640.000000	0.246444
641.000000	0.246450
642.000000	0.246550
643.000000	0.246700
644.000000	0.246783
645.000000	0.246847
646.000000	0.246931
647.000000	0.247033
648.000000	0.247131
649.000000	0.247289
650.000000	0.247502
651.000000	0.247727
652.000000	0.247893
653.000000	0.248105
654.000000	0.248467
655.000000	0.248727
656.000000	0.248947
657.000000	0.249171
658.000000	0.249362
659.000000	0.249571
660.000000	0.249820
661.000000	0.250115
662.000000	0.250388
663.000000	0.250675
664.000000	0.250994
665.000000	0.251267
666.000000	0.251533
667.000000	0.251832
668.000000	0.252221
669.000000	0.252618
670.000000	0.252989
671.000000	0.253403
672.000000	0.253859
673.000000	0.254316
674.000000	0.254716
675.000000	0.255145
676.000000	0.255599
677.000000	0.256061
678.000000	0.256469
679.000000	0.256879
680.000000	0.257334
681.000000	0.257758
682.000000	0.258299
683.000000	0.258868
684.000000	0.259321
685.000000	0.259788
686.000000	0.260337
687.000000	0.260952
688.000000	0.261462
689.000000	0.261983
690.000000	0.262631
691.000000	0.263269
692.000000	0.263893
693.000000	0.264545
694.000000	0.265162
695.000000	0.265803
696.000000	0.266469
697.000000	0.267139
698.000000	0.267799
699.000000	0.268511
700.000000	0.269292
701.000000	0.269925
702.000000	0.270571
703.000000	0.271268
704.000000	0.271921
705.000000	0.272643
706.000000	0.273384
707.000000	0.274109
708.000000	0.274821
709.000000	0.275556
710.000000	0.276336
711.000000	0.277011
712.000000	0.277656
713.000000	0.278337
714.000000	0.279057
715.000000	0.279780
716.000000	0.280498
717.000000	0.281192
718.000000	0.281889
719.000000	0.282553
720.000000	0.283185
721.000000	0.283878
722.000000	0.284538
723.000000	0.285205
724.000000	0.285945
725.000000	0.286585
726.000000	0.287230
727.000000	0.287940
728.000000	0.288644
729.000000	0.289382
730.000000	0.290126
731.000000	0.290806
732.000000	0.291433
733.000000	0.292069
734.000000	0.292737
735.000000	0.293344
736.000000	0.293995
737.000000	0.294616
738.000000	0.295123
739.000000	0.295655
740.000000	0.296167
741.000000	0.296712
742.000000	0.297223
743.000000	0.297669
744.000000	0.298149
745.000000	0.298573
746.000000	0.298982
747.000000	0.299361
748.000000	0.299759
749.000000	0.300157
750.000000	0.300532
751.000000	0.301014
752.000000	0.301464
753.000000	0.301856
754.000000	0.302231
755.000000	0.302640
756.000000	0.303054
757.000000	0.303391
758.000000	0.303714
759.000000	0.304082
760.000000	0.304450
761.000000	0.304845
762.000000	0.305205
763.000000	0.305505
764.000000	0.305822
765.000000	0.306074
766.000000	0.306302
767.000000	0.306544
768.000000	0.306748
769.000000	0.306929
770.000000	0.307129
771.000000	0.307425
772.000000	0.307713
773.000000	0.307868
774.000000	0.307909
775.000000	0.307967
776.000000	0.308052
777.000000	0.308150
778.000000	0.308305
779.000000	0.308457
780.000000	0.308585
781.000000	0.308679
782.000000	0.308791
783.000000	0.308953
784.000000	0.309012
785.000000	0.309025
786.000000	0.309102
787.000000	0.309258
788.000000	0.309339
789.000000	0.309460
790.000000	0.309576
791.000000	0.309621
792.000000	0.309690
793.000000	0.309786
794.000000	0.309874
795.000000	0.309817
796.000000	0.309757
797.000000	0.309779
798.000000	0.309930
799.000000	0.310037
800.000000	0.310100
801.000000	0.310172
802.000000	0.310229
803.000000	0.310260
804.000000	0.310280
805.000000	0.310208
806.000000	0.310142
807.000000	0.310143
808.000000	0.310099
809.000000	0.310038
810.000000	0.310009
811.000000	0.310031
812.000000	0.310102
813.000000	0.310089
814.000000	0.310017
815.000000	0.310076
816.000000	0.310042
817.000000	0.310032
818.000000	0.310100
819.000000	0.310100
820.000000	0.310107
821.000000	0.310126
822.000000	0.310216
823.000000	0.310243
824.000000	0.310146
825.000000	0.310024
826.000000	0.309866
827.000000	0.309717
828.000000	0.309633
829.000000	0.309504
830.000000	0.309471
831.000000	0.309535
832.000000	0.309468
833.000000	0.309436
834.000000	0.309403
835.000000	0.309352
836.000000	0.309278
837.000000	0.309192
838.000000	0.309124
839.000000	0.309067
840.000000	0.308928
841.000000	0.308801
842.000000	0.308731
843.000000	0.308600
844.000000	0.308531
845.000000	0.308500
846.000000	0.308399
847.000000	0.308354
848.000000	0.308335
849.000000	0.308303
850.000000	0.308196
851.000000	0.308084
852.000000	0.308024
853.000000	0.307946
854.000000	0.307768
855.000000	0.307658
856.000000	0.307618
857.000000	0.307395
858.000000	0.307185
859.000000	0.307018
860.000000	0.306850
861.000000	0.306744
862.000000	0.306718
863.000000	0.306682
864.000000	0.306598
865.000000	0.306518
866.000000	0.306449
867.000000	0.306216
868.000000	0.306050
869.000000	0.305865
870.000000	0.305591
871.000000	0.305410
872.000000	0.305273
873.000000	0.305106
874.000000	0.305071
875.000000	0.304916
876.000000	0.304663
877.000000	0.304391
878.000000	0.304233
879.000000	0.304115
880.000000	0.303862
881.000000	0.303665
882.000000	0.303443
883.000000	0.303245
884.000000	0.303079
885.000000	0.302779
886.000000	0.302507
887.000000	0.302367
888.000000	0.302232
889.000000	0.302009
890.000000	0.301630
891.000000	0.301296
892.000000	0.301106
893.000000	0.300929
894.000000	0.300795
895.000000	0.300634
896.000000	0.300418
897.000000	0.300190
898.000000	0.300012
899.000000	0.299899
900.000000	0.299807
901.000000	0.299641
902.000000	0.299366
903.000000	0.299195
904.000000	0.299061
905.000000	0.298772
906.000000	0.298644
907.000000	0.298502
908.000000	0.298333
909.000000	0.298139
910.000000	0.297822
911.000000	0.297477
912.000000	0.297210
913.000000	0.296918
914.000000	0.296548
915.000000	0.296243
916.000000	0.296106
917.000000	0.295856
918.000000	0.295668
919.000000	0.295607
920.000000	0.295348
921.000000	0.295020
922.000000	0.294722
923.000000	0.294488
924.000000	0.294138
925.000000	0.293853
926.000000	0.293730
927.000000	0.293549
928.000000	0.293375
929.000000	0.293100
930.000000	0.292649
931.000000	0.292364
932.000000	0.292163
933.000000	0.291955
934.000000	0.291569
935.000000	0.291478
936.000000	0.291486
937.000000	0.291257
938.000000	0.290971
939.000000	0.290819
940.000000	0.290727
941.000000	0.290622
942.000000	0.290562
943.000000	0.290470
944.000000	0.290228
945.000000	0.290091
946.000000	0.289915
947.000000	0.289641
948.000000	0.289192
949.000000	0.288654
950.000000	0.288304
951.000000	0.288080
952.000000	0.287724
953.000000	0.287567
954.000000	0.287483
955.000000	0.287281
956.000000	0.287120
957.000000	0.286855
958.000000	0.286508
959.000000	0.286274
960.000000	0.285989
961.000000	0.285634
962.000000	0.285282
963.000000	0.285155
964.000000	0.284964
965.000000	0.284723
966.000000	0.284444
967.000000	0.284435
968.000000	0.284357
969.000000	0.284079
970.000000	0.283735
971.000000	0.283498
972.000000	0.283339
973.000000	0.283160
974.000000	0.282994
975.000000	0.282660
976.000000	0.282380
977.000000	0.282293
978.000000	0.282079
979.000000	0.281951
980.000000	0.281650
981.000000	0.281288
982.000000	0.281460
983.000000	0.281185
984.000000	0.280503
985.000000	0.280447
986.000000	0.280581
987.000000	0.280476
988.000000	0.279937
989.000000	0.279686
990.000000	0.279687
991.000000	0.279600
992.000000	0.279237
993.000000	0.279475
994.000000	0.279545
995.000000	0.279302
996.000000	0.278794
997.000000	0.278577
998.000000	0.278464
999.000000	0.278390
1000.000000	0.278382
1001.000000	0.278257
1002.000000	0.278238
1003.000000	0.278741
1004.000000	0.278742
1005.000000	0.279294
1006.000000	0.279051
1007.000000	0.278173
1008.000000	0.276874
1009.000000	0.276588
1010.000000	0.276881
1011.000000	0.277599
1012.000000	0.277628
1013.000000	0.276873
1014.000000	0.276019
1015.000000	0.275208
1016.000000	0.275752
1017.000000	0.276109
1018.000000	0.276525
1019.000000	0.277188
1020.000000	0.278299
1021.000000	0.278274
1022.000000	0.278338
1023.000000	0.278242
1024.000000	0.277185
1025.000000	0.276804
1026.000000	0.276447
1027.000000	0.276444
1028.000000	0.276630
1029.000000	0.276818
1030.000000	0.277142
1031.000000	0.276786
1032.000000	0.276810
1033.000000	0.276945
1034.000000	0.276946
1035.000000	0.277058
1036.000000	0.277181
1037.000000	0.277241
1038.000000	0.277194
1039.000000	0.277053
1040.000000	0.277318
1041.000000	0.277945
1042.000000	0.277625
1043.000000	0.277369
1044.000000	0.277667
1045.000000	0.277199
1046.000000	0.277246
1047.000000	0.277462
1048.000000	0.277952
1049.000000	0.277955
1050.000000	0.277954
1051.000000	0.278016
1052.000000	0.277774
1053.000000	0.277854
1054.000000	0.278453
1055.000000	0.278727
1056.000000	0.278824
1057.000000	0.279138
1058.000000	0.279658
1059.000000	0.279855
1060.000000	0.279819
1061.000000	0.279975
1062.000000	0.280042
1063.000000	0.279751
1064.000000	0.279829
1065.000000	0.280252
1066.000000	0.280456
1067.000000	0.280501
1068.000000	0.280793
1069.000000	0.281243
1070.000000	0.281458
1071.000000	0.281750
1072.000000	0.281943
1073.000000	0.282016
1074.000000	0.282055
1075.000000	0.282108
1076.000000	0.282391
1077.000000	0.282405
1078.000000	0.282281
1079.000000	0.282332
1080.000000	0.282341
1081.000000	0.282495
1082.000000	0.282990
1083.000000	0.283233
1084.000000	0.283331
1085.000000	0.283733
1086.000000	0.284277
1087.000000	0.284659
1088.000000	0.284966
1089.000000	0.285428
1090.000000	0.286053
1091.000000	0.286268
1092.000000	0.286082
1093.000000	0.286528
1094.000000	0.286664
1095.000000	0.286071
1096.000000	0.286439
1097.000000	0.287712
1098.000000	0.288019
1099.000000	0.288203
1100.000000	0.288311
1101.000000	0.287677
1102.000000	0.287597
1103.000000	0.287740
1104.000000	0.287945
1105.000000	0.288488
1106.000000	0.288751
1107.000000	0.288935
1108.000000	0.289059
1109.000000	0.289209
1110.000000	0.288945
1111.000000	0.288979
1112.000000	0.289022
1113.000000	0.289250
1114.000000	0.289574
1115.000000	0.289965
1116.000000	0.290633
1117.000000	0.290991
1118.000000	0.291270
1119.000000	0.291451
1120.000000	0.291413
1121.000000	0.291504
1122.000000	0.291769
1123.000000	0.292024
1124.000000	0.291926
1125.000000	0.292110
1126.000000	0.292346
1127.000000	0.292515
1128.000000	0.292722
1129.000000	0.293222
1130.000000	0.293331
1131.000000	0.293203
1132.000000	0.293197
1133.000000	0.293086
1134.000000	0.293202
1135.000000	0.293493
1136.000000	0.293570
1137.000000	0.293604
1138.000000	0.293656
1139.000000	0.293686
1140.000000	0.293776
1141.000000	0.293934
1142.000000	0.294028
1143.000000	0.293940
1144.000000	0.294056
1145.000000	0.294083
1146.000000	0.294041
1147.000000	0.294247
1148.000000	0.294596
1149.000000	0.294711
1150.000000	0.294863
1151.000000	0.294988
1152.000000	0.294855
1153.000000	0.294909
1154.000000	0.295101
1155.000000	0.295198
1156.000000	0.295229
1157.000000	0.295334
1158.000000	0.295521
1159.000000	0.295530
1160.000000	0.295372
1161.000000	0.295350
1162.000000	0.295353
1163.000000	0.295471
1164.000000	0.295418
1165.000000	0.295458
1166.000000	0.295463
1167.000000	0.295227
1168.000000	0.295229
1169.000000	0.295470
1170.000000	0.295540
1171.000000	0.295623
1172.000000	0.295704
1173.000000	0.295691
1174.000000	0.295758
1175.000000	0.295809
1176.000000	0.295882
1177.000000	0.296075
1178.000000	0.296216
1179.000000	0.296481
1180.000000	0.296495
1181.000000	0.296328
1182.000000	0.296330
1183.000000	0.296403
1184.000000	0.296355
1185.000000	0.296401
1186.000000	0.296624
1187.000000	0.296653
1188.000000	0.296577
1189.000000	0.296517
1190.000000	0.296442
1191.000000	0.296473
1192.000000	0.296630
1193.000000	0.296770
1194.000000	0.296896
1195.000000	0.296966
1196.000000	0.296889
1197.000000	0.296881
1198.000000	0.296875
1199.000000	0.296939
1200.000000	0.297038
1201.000000	0.297145
1202.000000	0.297284
1203.000000	0.297377
1204.000000	0.297291
1205.000000	0.297135
1206.000000	0.297089
1207.000000	0.297110
1208.000000	0.297155
1209.000000	0.297399
1210.000000	0.297477
1211.000000	0.297429
1212.000000	0.297481
1213.000000	0.297674
1214.000000	0.297702
1215.000000	0.297648
1216.000000	0.297654
1217.000000	0.297511
1218.000000	0.297418
1219.000000	0.297398
1220.000000	0.297498
1221.000000	0.297509
1222.000000	0.297497
1223.000000	0.297564
1224.000000	0.297612
1225.000000	0.297667
1226.000000	0.297685
1227.000000	0.297647
1228.000000	0.297779
1229.000000	0.297801
1230.000000	0.297738
1231.000000	0.297716
1232.000000	0.297797
1233.000000	0.297911
1234.000000	0.298114
1235.000000	0.298152
1236.000000	0.298037
1237.000000	0.298033
1238.000000	0.297906
1239.000000	0.297812
1240.000000	0.297808
1241.000000	0.297715
1242.000000	0.297616
1243.000000	0.297644
1244.000000	0.297708
1245.000000	0.297848
1246.000000	0.297867
1247.000000	0.297857
1248.000000	0.297932
1249.000000	0.297939
1250.000000	0.297932
1251.000000	0.298068
1252.000000	0.298106
1253.000000	0.298098
1254.000000	0.298102
1255.000000	0.298098
1256.000000	0.298081
1257.000000	0.298131
1258.000000	0.298106
1259.000000	0.297878
1260.000000	0.297870
1261.000000	0.297835
1262.000000	0.297843
1263.000000	0.297975
1264.000000	0.298244
1265.000000	0.298274
1266.000000	0.298218
1267.000000	0.298186
1268.000000	0.297996
1269.000000	0.297848
1270.000000	0.297905
1271.000000	0.298068
1272.000000	0.298141
1273.000000	0.298245
1274.000000	0.298377
1275.000000	0.298312
1276.000000	0.298094
1277.000000	0.298057
1278.000000	0.297784
1279.000000	0.297727
1280.000000	0.297825
1281.000000	0.297807
1282.000000	0.297909
1283.000000	0.298030
1284.000000	0.298020
1285.000000	0.298066
1286.000000	0.298148
1287.000000	0.298215
1288.000000	0.298248
1289.000000	0.298246
1290.000000	0.298236
1291.000000	0.298223
1292.000000	0.298227
1293.000000	0.298290
1294.000000	0.298313
1295.000000	0.298311
1296.000000	0.298299
1297.000000	0.298258
1298.000000	0.298268
1299.000000	0.298286
1300.000000	0.298344
1301.000000	0.298389
1302.000000	0.298384
1303.000000	0.298433
1304.000000	0.298483
1305.000000	0.298656
1306.000000	0.298729
1307.000000	0.298927
1308.000000	0.298947
1309.000000	0.298712
1310.000000	0.298606
1311.000000	0.298505
1312.000000	0.298354
1313.000000	0.298350
1314.000000	0.298426
1315.000000	0.298377
1316.000000	0.298281
1317.000000	0.298372
1318.000000	0.298477
1319.000000	0.298472
1320.000000	0.298569
1321.000000	0.298418
1322.000000	0.298176
1323.000000	0.298256
1324.000000	0.298358
1325.000000	0.298284
1326.000000	0.298210
1327.000000	0.297958
1328.000000	0.297754
1329.000000	0.297643
1330.000000	0.297679
1331.000000	0.297723
1332.000000	0.297963
1333.000000	0.297901
1334.000000	0.297810
1335.000000	0.297742
1336.000000	0.297368
1337.000000	0.297350
1338.000000	0.297537
1339.000000	0.297614
1340.000000	0.297730
1341.000000	0.297884
1342.000000	0.297767
1343.000000	0.297697
1344.000000	0.297751
1345.000000	0.297697
1346.000000	0.297773
1347.000000	0.297730
1348.000000	0.297549
1349.000000	0.297331
1350.000000	0.297303
1351.000000	0.297341
1352.000000	0.297436
1353.000000	0.297670
1354.000000	0.297712
1355.000000	0.297665
1356.000000	0.297702
1357.000000	0.297587
1358.000000	0.297509
1359.000000	0.297517
1360.000000	0.297478
1361.000000	0.297448
1362.000000	0.297336
1363.000000	0.297148
1364.000000	0.297032
1365.000000	0.296840
1366.000000	0.296819
1367.000000	0.296901
1368.000000	0.296990
1369.000000	0.297197
1370.000000	0.297172
1371.000000	0.297115
1372.000000	0.296999
1373.000000	0.296726
1374.000000	0.296544
1375.000000	0.296326
1376.000000	0.296115
1377.000000	0.296110
1378.000000	0.296120
1379.000000	0.296059
1380.000000	0.296118
1381.000000	0.296069
1382.000000	0.295870
1383.000000	0.295709
1384.000000	0.295456
1385.000000	0.295124
1386.000000	0.294936
1387.000000	0.294793
1388.000000	0.294577
1389.000000	0.294423
1390.000000	0.294235
1391.000000	0.293973
1392.000000	0.293830
1393.000000	0.293549
1394.000000	0.293147
1395.000000	0.292887
1396.000000	0.292677
1397.000000	0.292330
1398.000000	0.292021
1399.000000	0.291676
1400.000000	0.291125
1401.000000	0.290648
1402.000000	0.290270
1403.000000	0.289818
1404.000000	0.289433
1405.000000	0.289104
1406.000000	0.288677
1407.000000	0.288385
1408.000000	0.288087
1409.000000	0.287801
1410.000000	0.287717
1411.000000	0.287564
1412.000000	0.287343
1413.000000	0.287204
1414.000000	0.287010
1415.000000	0.286882
1416.000000	0.286767
1417.000000	0.286603
1418.000000	0.286482
1419.000000	0.286404
1420.000000	0.286236
1421.000000	0.286218
1422.000000	0.286267
1423.000000	0.286298
1424.000000	0.286269
1425.000000	0.286241
1426.000000	0.286019
1427.000000	0.285732
1428.000000	0.285579
1429.000000	0.285351
1430.000000	0.285225
1431.000000	0.285204
1432.000000	0.285105
1433.000000	0.284986
1434.000000	0.284950
1435.000000	0.285017
1436.000000	0.285012
1437.000000	0.285003
1438.000000	0.284955
1439.000000	0.284890
1440.000000	0.284892
1441.000000	0.284922
1442.000000	0.285015
1443.000000	0.285089
1444.000000	0.285215
1445.000000	0.285389
1446.000000	0.285556
1447.000000	0.285671
1448.000000	0.285771
1449.000000	0.285918
1450.000000	0.286144
1451.000000	0.286417
1452.000000	0.286581
1453.000000	0.286694
1454.000000	0.286758
1455.000000	0.286913
1456.000000	0.287207
1457.000000	0.287428
1458.000000	0.287652
1459.000000	0.287758
1460.000000	0.287808
1461.000000	0.287972
1462.000000	0.288036
1463.000000	0.288087
1464.000000	0.288231
1465.000000	0.288287
1466.000000	0.288249
1467.000000	0.288225
1468.000000	0.288295
1469.000000	0.288437
1470.000000	0.288510
1471.000000	0.288594
1472.000000	0.288509
1473.000000	0.288455
1474.000000	0.288555
1475.000000	0.288708
1476.000000	0.288874
1477.000000	0.288977
1478.000000	0.288980
1479.000000	0.289063
1480.000000	0.289162
1481.000000	0.289166
1482.000000	0.289155
1483.000000	0.289269
1484.000000	0.289352
1485.000000	0.289439
1486.000000	0.289672
1487.000000	0.289767
1488.000000	0.289727
1489.000000	0.289819
1490.000000	0.289851
1491.000000	0.289900
1492.000000	0.289954
1493.000000	0.290013
1494.000000	0.289971
1495.000000	0.290045
1496.000000	0.290240
1497.000000	0.290327
1498.000000	0.290450
1499.000000	0.290495
1500.000000	0.290508
1501.000000	0.290507
1502.000000	0.290478
1503.000000	0.290581
1504.000000	0.290680
1505.000000	0.290674
1506.000000	0.290711
1507.000000	0.290746
1508.000000	0.290814
1509.000000	0.290891
1510.000000	0.290966
1511.000000	0.291130
1512.000000	0.291173
1513.000000	0.291220
1514.000000	0.291385
1515.000000	0.291413
1516.000000	0.291542
1517.000000	0.291628
1518.000000	0.291567
1519.000000	0.291490
1520.000000	0.291277
1521.000000	0.291119
1522.000000	0.291199
1523.000000	0.291299
1524.000000	0.291399
1525.000000	0.291493
1526.000000	0.291419
1527.000000	0.291359
1528.000000	0.291506
1529.000000	0.291753
1530.000000	0.291941
1531.000000	0.292143
1532.000000	0.292246
1533.000000	0.292158
1534.000000	0.292286
1535.000000	0.292486
1536.000000	0.292422
1537.000000	0.292544
1538.000000	0.292563
1539.000000	0.292323
1540.000000	0.292325
1541.000000	0.292440
1542.000000	0.292393
1543.000000	0.292320
1544.000000	0.292266
1545.000000	0.292209
1546.000000	0.292183
1547.000000	0.292206
1548.000000	0.292246
1549.000000	0.292223
1550.000000	0.292194
1551.000000	0.292234
1552.000000	0.292330
1553.000000	0.292416
1554.000000	0.292434
1555.000000	0.292437
1556.000000	0.292459
1557.000000	0.292387
1558.000000	0.292361
1559.000000	0.292348
1560.000000	0.292286
1561.000000	0.292170
1562.000000	0.292137
1563.000000	0.292165
1564.000000	0.292190
1565.000000	0.292297
1566.000000	0.292258
1567.000000	0.292203
1568.000000	0.292197
1569.000000	0.292248
1570.000000	0.292216
1571.000000	0.292145
1572.000000	0.292189
1573.000000	0.292269
1574.000000	0.292261
1575.000000	0.292342
1576.000000	0.292307
1577.000000	0.292040
1578.000000	0.291984
1579.000000	0.292086
1580.000000	0.292160
1581.000000	0.292376
1582.000000	0.292459
1583.000000	0.292514
1584.000000	0.292494
1585.000000	0.292421
1586.000000	0.292459
1587.000000	0.292508
1588.000000	0.292548
1589.000000	0.292724
1590.000000	0.292749
1591.000000	0.292683
1592.000000	0.292628
1593.000000	0.292523
1594.000000	0.292444
1595.000000	0.292444
1596.000000	0.292418
1597.000000	0.292404
1598.000000	0.292310
1599.000000	0.292179
1600.000000	0.292057
1601.000000	0.291969
1602.000000	0.291949
1603.000000	0.292020
1604.000000	0.292007
1605.000000	0.291973
1606.000000	0.292001
1607.000000	0.292105
1608.000000	0.292170
1609.000000	0.292367
1610.000000	0.292393
1611.000000	0.292288
1612.000000	0.292216
1613.000000	0.292199
1614.000000	0.292155
1615.000000	0.292096
1616.000000	0.292182
1617.000000	0.292336
1618.000000	0.292375
1619.000000	0.292443
1620.000000	0.292474
1621.000000	0.292348
1622.000000	0.292416
1623.000000	0.292679
1624.000000	0.292729
1625.000000	0.292556
1626.000000	0.292508
1627.000000	0.292390
1628.000000	0.292392
1629.000000	0.292590
1630.000000	0.292629
1631.000000	0.292555
1632.000000	0.292431
1633.000000	0.292192
1634.000000	0.292112
1635.000000	0.292118
1636.000000	0.292040
1637.000000	0.292004
1638.000000	0.291960
1639.000000	0.291881
1640.000000	0.291850
1641.000000	0.292030
1642.000000	0.292025
1643.000000	0.291939
1644.000000	0.291882
1645.000000	0.291736
1646.000000	0.291639
1647.000000	0.291628
1648.000000	0.291553
1649.000000	0.291532
1650.000000	0.291541
1651.000000	0.291588
1652.000000	0.291644
1653.000000	0.291657
1654.000000	0.291772
1655.000000	0.291905
1656.000000	0.291887
1657.000000	0.291935
1658.000000	0.291980
1659.000000	0.292010
1660.000000	0.292116
1661.000000	0.292260
1662.000000	0.292328
1663.000000	0.292377
1664.000000	0.292262
1665.000000	0.292019
1666.000000	0.291976
1667.000000	0.291783
1668.000000	0.291713
1669.000000	0.291784
1670.000000	0.291763
1671.000000	0.291830
1672.000000	0.291872
1673.000000	0.291933
1674.000000	0.291888
1675.000000	0.291811
1676.000000	0.291791
1677.000000	0.291701
1678.000000	0.291636
1679.000000	0.291621
1680.000000	0.291591
1681.000000	0.291631
1682.000000	0.291800
1683.000000	0.291948
1684.000000	0.292007
1685.000000	0.292167
1686.000000	0.292200
1687.000000	0.292115
1688.000000	0.292048
1689.000000	0.292012
1690.000000	0.291928
1691.000000	0.291895
1692.000000	0.291934
1693.000000	0.291850
1694.000000	0.291570
1695.000000	0.291513
1696.000000	0.291639
1697.000000	0.291686
1698.000000	0.292069
1699.000000	0.292300
1700.000000	0.292349
1701.000000	0.292460
1702.000000	0.292438
1703.000000	0.292351
1704.000000	0.292242
1705.000000	0.292143
1706.000000	0.292034
1707.000000	0.291995
1708.000000	0.292005
1709.000000	0.291892
1710.000000	0.291795
1711.000000	0.291781
1712.000000	0.291767
1713.000000	0.291769
1714.000000	0.291903
1715.000000	0.292019
1716.000000	0.292229
1717.000000	0.292193
1718.000000	0.291953
1719.000000	0.291875
1720.000000	0.291665
1721.000000	0.291668
1722.000000	0.292013
1723.000000	0.292121
1724.000000	0.292241
1725.000000	0.292247
1726.000000	0.291981
1727.000000	0.291907
1728.000000	0.291783
1729.000000	0.291668
1730.000000	0.291804
1731.000000	0.291778
1732.000000	0.291640
1733.000000	0.291657
1734.000000	0.291609
1735.000000	0.291542
1736.000000	0.291503
1737.000000	0.291400
1738.000000	0.291178
1739.000000	0.291172
1740.000000	0.291251
1741.000000	0.291259
1742.000000	0.291360
1743.000000	0.291434
1744.000000	0.291411
1745.000000	0.291474
1746.000000	0.291598
1747.000000	0.291741
1748.000000	0.291800
1749.000000	0.291846
1750.000000	0.291867
1751.000000	0.291962
1752.000000	0.292085
1753.000000	0.292063
1754.000000	0.292104
1755.000000	0.292208
1756.000000	0.292130
1757.000000	0.291883
1758.000000	0.291824
1759.000000	0.291684
1760.000000	0.291631
1761.000000	0.291793
1762.000000	0.291842
1763.000000	0.291897
1764.000000	0.291835
1765.000000	0.291613
1766.000000	0.291530
1767.000000	0.291263
1768.000000	0.291187
1769.000000	0.291488
1770.000000	0.291569
1771.000000	0.291589
1772.000000	0.291558
1773.000000	0.291352
1774.000000	0.291227
1775.000000	0.291157
1776.000000	0.291094
1777.000000	0.290987
1778.000000	0.290937
1779.000000	0.290929
1780.000000	0.290932
1781.000000	0.290965
1782.000000	0.290874
1783.000000	0.290769
1784.000000	0.290534
1785.000000	0.290460
1786.000000	0.290610
1787.000000	0.290728
1788.000000	0.290616
1789.000000	0.290538
1790.000000	0.290507
1791.000000	0.290444
1792.000000	0.290691
1793.000000	0.290798
1794.000000	0.290767
1795.000000	0.290771
1796.000000	0.290731
1797.000000	0.290766
1798.000000	0.290779
1799.000000	0.290812
1800.000000	0.291038
1801.000000	0.290610
1802.000000	0.290820
1803.000000	0.291198
1804.000000	0.291464
1805.000000	0.291877
1806.000000	0.292199
1807.000000	0.292656
1808.000000	0.292860
1809.000000	0.293015
1810.000000	0.292807
1811.000000	0.292941
1812.000000	0.293329
1813.000000	0.292944
1814.000000	0.292417
1815.000000	0.291952
1816.000000	0.290681
1817.000000	0.289782
1818.000000	0.288863
1819.000000	0.288808
1820.000000	0.288915
1821.000000	0.288752
1822.000000	0.288813
1823.000000	0.289598
1824.000000	0.289381
1825.000000	0.288122
1826.000000	0.287946
1827.000000	0.288063
1828.000000	0.287570
1829.000000	0.287778
1830.000000	0.288848
1831.000000	0.289264
1832.000000	0.289323
1833.000000	0.289710
1834.000000	0.290415
1835.000000	0.290644
1836.000000	0.290585
1837.000000	0.290669
1838.000000	0.290418
1839.000000	0.290445
1840.000000	0.289954
1841.000000	0.289513
1842.000000	0.289592
1843.000000	0.289772
1844.000000	0.289703
1845.000000	0.290183
1846.000000	0.290372
1847.000000	0.290006
1848.000000	0.289498
1849.000000	0.289778
1850.000000	0.289427
1851.000000	0.289329
1852.000000	0.289262
1853.000000	0.289422
1854.000000	0.289435
1855.000000	0.289674
1856.000000	0.290401
1857.000000	0.290314
1858.000000	0.290254
1859.000000	0.290170
1860.000000	0.289522
1861.000000	0.288725
1862.000000	0.288164
1863.000000	0.287684
1864.000000	0.287245
1865.000000	0.286952
1866.000000	0.286630
1867.000000	0.286306
1868.000000	0.285893
1869.000000	0.285264
1870.000000	0.284907
1871.000000	0.284688
1872.000000	0.283774
1873.000000	0.283427
1874.000000	0.283473
1875.000000	0.283212
1876.000000	0.282614
1877.000000	0.282373
1878.000000	0.281799
1879.000000	0.281125
1880.000000	0.280183
1881.000000	0.278906
1882.000000	0.277453
1883.000000	0.275503
1884.000000	0.274303
1885.000000	0.273409
1886.000000	0.272410
1887.000000	0.271822
1888.000000	0.270897
1889.000000	0.269322
1890.000000	0.268261
1891.000000	0.266811
1892.000000	0.265177
1893.000000	0.263965
1894.000000	0.262380
1895.000000	0.260723
1896.000000	0.258998
1897.000000	0.257672
1898.000000	0.256057
1899.000000	0.254642
1900.000000	0.253139
1901.000000	0.251757
1902.000000	0.251216
1903.000000	0.250652
1904.000000	0.250375
1905.000000	0.250359
1906.000000	0.250132
1907.000000	0.249626
1908.000000	0.249477
1909.000000	0.249526
1910.000000	0.249497
1911.000000	0.249191
1912.000000	0.248915
1913.000000	0.249039
1914.000000	0.248816
1915.000000	0.248767
1916.000000	0.248886
1917.000000	0.249011
1918.000000	0.249091
1919.000000	0.249513
1920.000000	0.250044
1921.000000	0.250702
1922.000000	0.250515
1923.000000	0.250541
1924.000000	0.251135
1925.000000	0.251185
1926.000000	0.251530
1927.000000	0.251952
1928.000000	0.251999
1929.000000	0.251630
1930.000000	0.251335
1931.000000	0.251089
1932.000000	0.251018
1933.000000	0.251048
1934.000000	0.251391
1935.000000	0.251594
1936.000000	0.251193
1937.000000	0.251194
1938.000000	0.250835
1939.000000	0.250529
1940.000000	0.250051
1941.000000	0.250702
1942.000000	0.251191
1943.000000	0.251446
1944.000000	0.251974
1945.000000	0.251893
1946.000000	0.251792
1947.000000	0.252116
1948.000000	0.252800
1949.000000	0.253888
1950.000000	0.254484
1951.000000	0.254588
1952.000000	0.254292
1953.000000	0.253810
1954.000000	0.253125
1955.000000	0.252711
1956.000000	0.252399
1957.000000	0.251997
1958.000000	0.251847
1959.000000	0.251938
1960.000000	0.252486
1961.000000	0.253011
1962.000000	0.253195
1963.000000	0.253248
1964.000000	0.253368
1965.000000	0.253099
1966.000000	0.252625
1967.000000	0.252733
1968.000000	0.253250
1969.000000	0.254019
1970.000000	0.254658
1971.000000	0.254815
1972.000000	0.254552
1973.000000	0.254113
1974.000000	0.253006
1975.000000	0.252713
1976.000000	0.252928
1977.000000	0.252540
1978.000000	0.252436
1979.000000	0.252402
1980.000000	0.252250
1981.000000	0.252727
1982.000000	0.253859
1983.000000	0.254948
1984.000000	0.255333
1985.000000	0.255561
1986.000000	0.255623
1987.000000	0.255209
1988.000000	0.254431
1989.000000	0.254645
1990.000000	0.255129
1991.000000	0.255134
1992.000000	0.255527
1993.000000	0.255443
1994.000000	0.254906
1995.000000	0.254567
1996.000000	0.254283
1997.000000	0.254439
1998.000000	0.255110
1999.000000	0.255757
2000.000000	0.256892
2001.000000	0.257526
2002.000000	0.258077
2003.000000	0.258675
2004.000000	0.258455
2005.000000	0.258685
2006.000000	0.259604
2007.000000	0.259759
2008.000000	0.259687
2009.000000	0.259465
2010.000000	0.259583
2011.000000	0.258920
2012.000000	0.258986
2013.000000	0.259733
2014.000000	0.260297
2015.000000	0.260952
2016.000000	0.261658
2017.000000	0.262196
2018.000000	0.262701
2019.000000	0.262592
2020.000000	0.262715
2021.000000	0.262775
2022.000000	0.262697
2023.000000	0.262813
2024.000000	0.262926
2025.000000	0.262989
2026.000000	0.263100
2027.000000	0.263005
2028.000000	0.262938
2029.000000	0.263492
2030.000000	0.264302
2031.000000	0.265345
2032.000000	0.265178
2033.000000	0.265253
2034.000000	0.265324
2035.000000	0.264615
2036.000000	0.264557
2037.000000	0.265390
2038.000000	0.265667
2039.000000	0.265690
2040.000000	0.266390
2041.000000	0.266711
2042.000000	0.267382
2043.000000	0.267542
2044.000000	0.267156
2045.000000	0.266869
2046.000000	0.266506
2047.000000	0.266552
2048.000000	0.267019
2049.000000	0.267472
2050.000000	0.267730
2051.000000	0.268046
2052.000000	0.268690
2053.000000	0.268740
2054.000000	0.268512
2055.000000	0.268752
2056.000000	0.268642
2057.000000	0.268540
2058.000000	0.269203
2059.000000	0.269658
2060.000000	0.269898
2061.000000	0.270171
2062.000000	0.270179
2063.000000	0.269930
2064.000000	0.269564
2065.000000	0.269049
2066.000000	0.268762
2067.000000	0.268441
2068.000000	0.268894
2069.000000	0.269394
2070.000000	0.269383
2071.000000	0.269860
2072.000000	0.269796
2073.000000	0.269722
2074.000000	0.270671
2075.000000	0.271027
2076.000000	0.271366
2077.000000	0.271417
2078.000000	0.270961
2079.000000	0.270849
2080.000000	0.270880
2081.000000	0.270838
2082.000000	0.270797
2083.000000	0.271081
2084.000000	0.271188
2085.000000	0.270990
2086.000000	0.271016
2087.000000	0.271184
2088.000000	0.271262
2089.000000	0.271408
2090.000000	0.271586
2091.000000	0.271984
2092.000000	0.271958
2093.000000	0.271831
2094.000000	0.271707
2095.000000	0.271102
2096.000000	0.271219
2097.000000	0.271920
2098.000000	0.272006
2099.000000	0.272139
2100.000000	0.272250
2101.000000	0.271683
2102.000000	0.271166
2103.000000	0.271058
2104.000000	0.271304
2105.000000	0.271846
2106.000000	0.273101
2107.000000	0.273784
2108.000000	0.274751
2109.000000	0.275070
2110.000000	0.274472
2111.000000	0.274225
2112.000000	0.273629
2113.000000	0.273120
2114.000000	0.273399
2115.000000	0.273769
2116.000000	0.273825
2117.000000	0.273789
2118.000000	0.273252
2119.000000	0.272712
2120.000000	0.272443
2121.000000	0.272380
2122.000000	0.272265
2123.000000	0.272095
2124.000000	0.272300
2125.000000	0.272687
2126.000000	0.273184
2127.000000	0.274303
2128.000000	0.274914
2129.000000	0.275248
2130.000000	0.275783
2131.000000	0.275384
2132.000000	0.274890
2133.000000	0.275119
2134.000000	0.275657
2135.000000	0.275943
2136.000000	0.276642
2137.000000	0.276424
2138.000000	0.275035
2139.000000	0.274170
2140.000000	0.273091
2141.000000	0.272233
2142.000000	0.271309
2143.000000	0.270863
2144.000000	0.270742
2145.000000	0.270967
2146.000000	0.272005
2147.000000	0.272954
2148.000000	0.273573
2149.000000	0.274301
2150.000000	0.274478
2151.000000	0.274373
2152.000000	0.274020
2153.000000	0.273694
2154.000000	0.273469
2155.000000	0.273228
2156.000000	0.272978
2157.000000	0.272839
2158.000000	0.272831
2159.000000	0.272876
2160.000000	0.272923
2161.000000	0.273320
2162.000000	0.273396
2163.000000	0.272691
2164.000000	0.272693
2165.000000	0.273272
2166.000000	0.273268
2167.000000	0.273476
2168.000000	0.274020
2169.000000	0.273833
2170.000000	0.273759
2171.000000	0.273775
2172.000000	0.273828
2173.000000	0.273882
2174.000000	0.273834
2175.000000	0.274091
2176.000000	0.274637
2177.000000	0.275378
2178.000000	0.277090
2179.000000	0.277412
2180.000000	0.276895
2181.000000	0.276658
2182.000000	0.275026
2183.000000	0.273772
2184.000000	0.273899
2185.000000	0.273306
2186.000000	0.271962
2187.000000	0.271331
2188.000000	0.270480
2189.000000	0.270914
2190.000000	0.271263
2191.000000	0.272380
2192.000000	0.273399
2193.000000	0.274511
2194.000000	0.274629
2195.000000	0.274387
2196.000000	0.274953
2197.000000	0.275130
2198.000000	0.275266
2199.000000	0.277343
2200.000000	0.277463
2201.000000	0.274464
2202.000000	0.273723
2203.000000	0.273677
2204.000000	0.273030
2205.000000	0.273356
2206.000000	0.273311
2207.000000	0.272515
2208.000000	0.272751
2209.000000	0.271957
2210.000000	0.271755
2211.000000	0.273165
2212.000000	0.273172
2213.000000	0.273474
2214.000000	0.275493
2215.000000	0.275425
2216.000000	0.273259
2217.000000	0.272786
2218.000000	0.272079
2219.000000	0.271841
2220.000000	0.272079
2221.000000	0.272204
2222.000000	0.272911
2223.000000	0.273183
2224.000000	0.272128
2225.000000	0.274859
2226.000000	0.275326
2227.000000	0.272901
2228.000000	0.272313
2229.000000	0.270078
2230.000000	0.267862
2231.000000	0.267276
2232.000000	0.267979
2233.000000	0.266813
2234.000000	0.265476
2235.000000	0.268036
2236.000000	0.269278
2237.000000	0.270732
2238.000000	0.272024
2239.000000	0.273459
2240.000000	0.273967
2241.000000	0.274339
2242.000000	0.273987
2243.000000	0.272917
2244.000000	0.271872
2245.000000	0.269158
2246.000000	0.268208
2247.000000	0.268238
2248.000000	0.268460
2249.000000	0.270255
2250.000000	0.270807
2251.000000	0.270964
2252.000000	0.270247
2253.000000	0.270173
2254.000000	0.269123
2255.000000	0.265860
2256.000000	0.266517
2257.000000	0.266579
2258.000000	0.266462
2259.000000	0.268006
2260.000000	0.267277
2261.000000	0.267249
2262.000000	0.266816
2263.000000	0.265971
2264.000000	0.265265
2265.000000	0.264316
2266.000000	0.261801
2267.000000	0.261498
2268.000000	0.262615
2269.000000	0.263038
2270.000000	0.264440
2271.000000	0.264650
2272.000000	0.264206
2273.000000	0.264310
2274.000000	0.263654
2275.000000	0.263780
2276.000000	0.265584
2277.000000	0.264190
2278.000000	0.263041
2279.000000	0.263113
2280.000000	0.263173
2281.000000	0.263725
2282.000000	0.264662
2283.000000	0.265604
2284.000000	0.264114
2285.000000	0.263965
2286.000000	0.265490
2287.000000	0.265276
2288.000000	0.265277
2289.000000	0.264840
2290.000000	0.262214
2291.000000	0.259795
2292.000000	0.258222
2293.000000	0.256078
2294.000000	0.254897
2295.000000	0.254824
2296.000000	0.254088
2297.000000	0.253648
2298.000000	0.252665
2299.000000	0.250370
2300.000000	0.250059
2301.000000	0.249919
2302.000000	0.251239
2303.000000	0.255588
2304.000000	0.257382
2305.000000	0.259206
2306.000000	0.260136
2307.000000	0.259231
2308.000000	0.258827
2309.000000	0.258991
2310.000000	0.257516
2311.000000	0.258014
2312.000000	0.257520
2313.000000	0.255916
2314.000000	0.257113
2315.000000	0.256859
2316.000000	0.254585
2317.000000	0.254088
2318.000000	0.252802
2319.000000	0.250581
2320.000000	0.252367
2321.000000	0.254199
2322.000000	0.254291
2323.000000	0.257531
2324.000000	0.260731
2325.000000	0.262088
2326.000000	0.263775
2327.000000	0.263623
2328.000000	0.262876
2329.000000	0.263133
2330.000000	0.262506
2331.000000	0.262137
2332.000000	0.261217
2333.000000	0.259687
2334.000000	0.259915
2335.000000	0.259783
2336.000000	0.258689
2337.000000	0.259136
2338.000000	0.260955
2339.000000	0.261085
2340.000000	0.261851
2341.000000	0.261455
2342.000000	0.259031
2343.000000	0.258333
2344.000000	0.258185
2345.000000	0.257918
2346.000000	0.257125
2347.000000	0.256522
2348.000000	0.256272
2349.000000	0.256748
2350.000000	0.255113
2351.000000	0.256320
2352.000000	0.255985
2353.000000	0.256066
2354.000000	0.256814
2355.000000	0.257104
2356.000000	0.257285
2357.000000	0.254442
2358.000000	0.252523
2359.000000	0.250867
2360.000000	0.251435
2361.000000	0.254980
2362.000000	0.254751
2363.000000	0.255756
2364.000000	0.251446
2365.000000	0.244811
2366.000000	0.246615
2367.000000	0.246663
2368.000000	0.249895
2369.000000	0.256245
2370.000000	0.259324
2371.000000	0.263980
2372.000000	0.267460
2373.000000	0.269374
2374.000000	0.267072
2375.000000	0.260193
2376.000000	0.253602
2377.000000	0.247854
2378.000000	0.244571
2379.000000	0.242512
2380.000000	0.241408
2381.000000	0.240571
2382.000000	0.237931
2383.000000	0.237938
2384.000000	0.238152
2385.000000	0.235948
2386.000000	0.233788
2387.000000	0.232894
2388.000000	0.233646
2389.000000	0.233421
2390.000000	0.234425
2391.000000	0.233356
2392.000000	0.234136
2393.000000	0.237458
2394.000000	0.234385
2395.000000	0.236301
2396.000000	0.233457
2397.000000	0.230674
2398.000000	0.239878
2399.000000	0.239712
2400.000000	0.244655
2401.000000	0.246301
2402.000000	0.237776
2403.000000	0.235456
2404.000000	0.227112
2405.000000	0.223027
2406.000000	0.227259
2407.000000	0.229443
2408.000000	0.230467
2409.000000	0.231082
2410.000000	0.223066
2411.000000	0.211608
2412.000000	0.206901
2413.000000	0.202299
2414.000000	0.203823
2415.000000	0.211417
2416.000000	0.221896
2417.000000	0.232175
2418.000000	0.234609
2419.000000	0.233550
2420.000000	0.229900
2421.000000	0.223376
2422.000000	0.221477
2423.000000	0.224506
2424.000000	0.228791
2425.000000	0.235657
2426.000000	0.242403
2427.000000	0.245879
2428.000000	0.245710
2429.000000	0.235513
2430.000000	0.220753
2431.000000	0.212032
2432.000000	0.207389
2433.000000	0.207866
2434.000000	0.218981
2435.000000	0.229556
2436.000000	0.222727
2437.000000	0.220289
2438.000000	0.222020
2439.000000	0.206560
2440.000000	0.201760
2441.000000	0.201758
2442.000000	0.193842
2443.000000	0.201624
2444.000000	0.212749
2445.000000	0.221631
2446.000000	0.223180
2447.000000	0.217326
2448.000000	0.214826
2449.000000	0.204248
2450.000000	0.209788
2451.000000	0.215040
2452.000000	0.206631
2453.000000	0.214586
2454.000000	0.220918
2455.000000	0.216096
2456.000000	0.217639
2457.000000	0.206860
2458.000000	0.178438
2459.000000	0.168797
2460.000000	0.164370
2461.000000	0.169429
2462.000000	0.194282
2463.000000	0.207306
2464.000000	0.215157
2465.000000	0.221094
2466.000000	0.214081
2467.000000	0.211861
2468.000000	0.205414
2469.000000	0.173944
2470.000000	0.146754
2471.000000	0.129319
2472.000000	0.118927
2473.000000	0.130947
2474.000000	0.141315
2475.000000	0.145817
2476.000000	0.158797
2477.000000	0.177610
2478.000000	0.207330
2479.000000	0.204154
2480.000000	0.176862
2481.000000	0.154132
2482.000000	0.119081
2483.000000	0.114052
2484.000000	0.129731
2485.000000	0.124535
2486.000000	0.129587
2487.000000	0.122146
2488.000000	0.134004
2489.000000	0.155900
2490.000000	0.124688
2491.000000	0.132801
2492.000000	0.104351
2493.000000	0.048922
2494.000000	0.047944
2495.000000	0.041728
2496.000000	0.046298
2497.000000	0.131736
2498.000000	0.137905
2499.000000	0.070415
2500.000000	0.049194
