# Wavelength	NAu-2-10_HEX-20_FV7-70_00002.asd.rts.txt
350.000000	0.177895
351.000000	0.179787
352.000000	0.176209
353.000000	0.170775
354.000000	0.166632
355.000000	0.162682
356.000000	0.158460
357.000000	0.157449
358.000000	0.163745
359.000000	0.163729
360.000000	0.164382
361.000000	0.174008
362.000000	0.178672
363.000000	0.175024
364.000000	0.167393
365.000000	0.179650
366.000000	0.185500
367.000000	0.180279
368.000000	0.177309
369.000000	0.176380
370.000000	0.177299
371.000000	0.179338
372.000000	0.183057
373.000000	0.183582
374.000000	0.179793
375.000000	0.180015
376.000000	0.176939
377.000000	0.170907
378.000000	0.169583
379.000000	0.171633
380.000000	0.175910
381.000000	0.181089
382.000000	0.180244
383.000000	0.178607
384.000000	0.180582
385.000000	0.184588
386.000000	0.186351
387.000000	0.185181
388.000000	0.183566
389.000000	0.184438
390.000000	0.186396
391.000000	0.186350
392.000000	0.185457
393.000000	0.184979
394.000000	0.185653
395.000000	0.187141
396.000000	0.185919
397.000000	0.182789
398.000000	0.184674
399.000000	0.186009
400.000000	0.186150
401.000000	0.186234
402.000000	0.186969
403.000000	0.187100
404.000000	0.186057
405.000000	0.187038
406.000000	0.187466
407.000000	0.186861
408.000000	0.188637
409.000000	0.189222
410.000000	0.188882
411.000000	0.189942
412.000000	0.190024
413.000000	0.189723
414.000000	0.190124
415.000000	0.191081
416.000000	0.191603
417.000000	0.191483
418.000000	0.192353
419.000000	0.192892
420.000000	0.192876
421.000000	0.192937
422.000000	0.192784
423.000000	0.192723
424.000000	0.193193
425.000000	0.193510
426.000000	0.193637
427.000000	0.193753
428.000000	0.194618
429.000000	0.194804
430.000000	0.194318
431.000000	0.195164
432.000000	0.195325
433.000000	0.195037
434.000000	0.195561
435.000000	0.196212
436.000000	0.196471
437.000000	0.196119
438.000000	0.196162
439.000000	0.196586
440.000000	0.197245
441.000000	0.197600
442.000000	0.197748
443.000000	0.197741
444.000000	0.197776
445.000000	0.197939
446.000000	0.198069
447.000000	0.197926
448.000000	0.198556
449.000000	0.199088
450.000000	0.199034
451.000000	0.199451
452.000000	0.199809
453.000000	0.199975
454.000000	0.200430
455.000000	0.201031
456.000000	0.201484
457.000000	0.201347
458.000000	0.201597
459.000000	0.202159
460.000000	0.202731
461.000000	0.202671
462.000000	0.202673
463.000000	0.202934
464.000000	0.203155
465.000000	0.203333
466.000000	0.203546
467.000000	0.204044
468.000000	0.203997
469.000000	0.203825
470.000000	0.204271
471.000000	0.204734
472.000000	0.205000
473.000000	0.205013
474.000000	0.204835
475.000000	0.204972
476.000000	0.205488
477.000000	0.205665
478.000000	0.205804
479.000000	0.206103
480.000000	0.206449
481.000000	0.206666
482.000000	0.206937
483.000000	0.207244
484.000000	0.207494
485.000000	0.207622
486.000000	0.207767
487.000000	0.207941
488.000000	0.208299
489.000000	0.208687
490.000000	0.208696
491.000000	0.208902
492.000000	0.209293
493.000000	0.209601
494.000000	0.209948
495.000000	0.210136
496.000000	0.210092
497.000000	0.210302
498.000000	0.210583
499.000000	0.210875
500.000000	0.211098
501.000000	0.211304
502.000000	0.211534
503.000000	0.211755
504.000000	0.211969
505.000000	0.212169
506.000000	0.212381
507.000000	0.212767
508.000000	0.213050
509.000000	0.213149
510.000000	0.213545
511.000000	0.213865
512.000000	0.214098
513.000000	0.214466
514.000000	0.214739
515.000000	0.215004
516.000000	0.215366
517.000000	0.215686
518.000000	0.216003
519.000000	0.216296
520.000000	0.216576
521.000000	0.216876
522.000000	0.217206
523.000000	0.217536
524.000000	0.217871
525.000000	0.218212
526.000000	0.218595
527.000000	0.218916
528.000000	0.219243
529.000000	0.219689
530.000000	0.220071
531.000000	0.220506
532.000000	0.220985
533.000000	0.221445
534.000000	0.221842
535.000000	0.222197
536.000000	0.222637
537.000000	0.223142
538.000000	0.223624
539.000000	0.223969
540.000000	0.224385
541.000000	0.224796
542.000000	0.225164
543.000000	0.225676
544.000000	0.226068
545.000000	0.226249
546.000000	0.226679
547.000000	0.227082
548.000000	0.227457
549.000000	0.227895
550.000000	0.228332
551.000000	0.228784
552.000000	0.229243
553.000000	0.229761
554.000000	0.230320
555.000000	0.230895
556.000000	0.231448
557.000000	0.231977
558.000000	0.232566
559.000000	0.233099
560.000000	0.233568
561.000000	0.234088
562.000000	0.234704
563.000000	0.235195
564.000000	0.235660
565.000000	0.236140
566.000000	0.236584
567.000000	0.237052
568.000000	0.237551
569.000000	0.238035
570.000000	0.238467
571.000000	0.238854
572.000000	0.239271
573.000000	0.239664
574.000000	0.239993
575.000000	0.240283
576.000000	0.240674
577.000000	0.240982
578.000000	0.241157
579.000000	0.241528
580.000000	0.241873
581.000000	0.242102
582.000000	0.242338
583.000000	0.242608
584.000000	0.242879
585.000000	0.243075
586.000000	0.243223
587.000000	0.243385
588.000000	0.243610
589.000000	0.243779
590.000000	0.243952
591.000000	0.244157
592.000000	0.244310
593.000000	0.244423
594.000000	0.244543
595.000000	0.244777
596.000000	0.244898
597.000000	0.244941
598.000000	0.244968
599.000000	0.245076
600.000000	0.245189
601.000000	0.245169
602.000000	0.245140
603.000000	0.245153
604.000000	0.245228
605.000000	0.245307
606.000000	0.245362
607.000000	0.245402
608.000000	0.245458
609.000000	0.245542
610.000000	0.245631
611.000000	0.245695
612.000000	0.245775
613.000000	0.245859
614.000000	0.245953
615.000000	0.246002
616.000000	0.246045
617.000000	0.246086
618.000000	0.246184
619.000000	0.246276
620.000000	0.246299
621.000000	0.246255
622.000000	0.246237
623.000000	0.246290
624.000000	0.246412
625.000000	0.246472
626.000000	0.246496
627.000000	0.246522
628.000000	0.246606
629.000000	0.246669
630.000000	0.246670
631.000000	0.246820
632.000000	0.246902
633.000000	0.246950
634.000000	0.247014
635.000000	0.247025
636.000000	0.247029
637.000000	0.247070
638.000000	0.247246
639.000000	0.247379
640.000000	0.247466
641.000000	0.247504
642.000000	0.247611
643.000000	0.247787
644.000000	0.247989
645.000000	0.248147
646.000000	0.248280
647.000000	0.248386
648.000000	0.248465
649.000000	0.248606
650.000000	0.248795
651.000000	0.248926
652.000000	0.249036
653.000000	0.249191
654.000000	0.249402
655.000000	0.249618
656.000000	0.249861
657.000000	0.250088
658.000000	0.250213
659.000000	0.250370
660.000000	0.250605
661.000000	0.250845
662.000000	0.251093
663.000000	0.251372
664.000000	0.251629
665.000000	0.251819
666.000000	0.252005
667.000000	0.252237
668.000000	0.252491
669.000000	0.252747
670.000000	0.253001
671.000000	0.253266
672.000000	0.253535
673.000000	0.253781
674.000000	0.253973
675.000000	0.254255
676.000000	0.254592
677.000000	0.254914
678.000000	0.255231
679.000000	0.255535
680.000000	0.255853
681.000000	0.256279
682.000000	0.256688
683.000000	0.256973
684.000000	0.257225
685.000000	0.257540
686.000000	0.257906
687.000000	0.258223
688.000000	0.258476
689.000000	0.258755
690.000000	0.259150
691.000000	0.259592
692.000000	0.259982
693.000000	0.260350
694.000000	0.260719
695.000000	0.261106
696.000000	0.261482
697.000000	0.261808
698.000000	0.262123
699.000000	0.262493
700.000000	0.262943
701.000000	0.263337
702.000000	0.263708
703.000000	0.264077
704.000000	0.264497
705.000000	0.264992
706.000000	0.265467
707.000000	0.265862
708.000000	0.266244
709.000000	0.266671
710.000000	0.267165
711.000000	0.267527
712.000000	0.267922
713.000000	0.268401
714.000000	0.268788
715.000000	0.269194
716.000000	0.269623
717.000000	0.270015
718.000000	0.270400
719.000000	0.270794
720.000000	0.271215
721.000000	0.271623
722.000000	0.271982
723.000000	0.272351
724.000000	0.272773
725.000000	0.273089
726.000000	0.273388
727.000000	0.273715
728.000000	0.274042
729.000000	0.274412
730.000000	0.274795
731.000000	0.275138
732.000000	0.275438
733.000000	0.275751
734.000000	0.276104
735.000000	0.276407
736.000000	0.276749
737.000000	0.277061
738.000000	0.277361
739.000000	0.277703
740.000000	0.277985
741.000000	0.278352
742.000000	0.278684
743.000000	0.278924
744.000000	0.279159
745.000000	0.279333
746.000000	0.279523
747.000000	0.279754
748.000000	0.280067
749.000000	0.280362
750.000000	0.280565
751.000000	0.280834
752.000000	0.281121
753.000000	0.281384
754.000000	0.281555
755.000000	0.281782
756.000000	0.282026
757.000000	0.282173
758.000000	0.282327
759.000000	0.282522
760.000000	0.282704
761.000000	0.282903
762.000000	0.283116
763.000000	0.283299
764.000000	0.283458
765.000000	0.283585
766.000000	0.283715
767.000000	0.283858
768.000000	0.283906
769.000000	0.283945
770.000000	0.284032
771.000000	0.284173
772.000000	0.284318
773.000000	0.284396
774.000000	0.284460
775.000000	0.284520
776.000000	0.284593
777.000000	0.284672
778.000000	0.284760
779.000000	0.284873
780.000000	0.284998
781.000000	0.285068
782.000000	0.285143
783.000000	0.285281
784.000000	0.285367
785.000000	0.285446
786.000000	0.285552
787.000000	0.285662
788.000000	0.285642
789.000000	0.285671
790.000000	0.285753
791.000000	0.285854
792.000000	0.286013
793.000000	0.286137
794.000000	0.286146
795.000000	0.286029
796.000000	0.285927
797.000000	0.285917
798.000000	0.286018
799.000000	0.286072
800.000000	0.286113
801.000000	0.286210
802.000000	0.286218
803.000000	0.286273
804.000000	0.286427
805.000000	0.286394
806.000000	0.286307
807.000000	0.286292
808.000000	0.286326
809.000000	0.286278
810.000000	0.286241
811.000000	0.286277
812.000000	0.286300
813.000000	0.286279
814.000000	0.286267
815.000000	0.286402
816.000000	0.286436
817.000000	0.286441
818.000000	0.286453
819.000000	0.286405
820.000000	0.286423
821.000000	0.286502
822.000000	0.286593
823.000000	0.286578
824.000000	0.286459
825.000000	0.286402
826.000000	0.286343
827.000000	0.286297
828.000000	0.286294
829.000000	0.286234
830.000000	0.286197
831.000000	0.286207
832.000000	0.286114
833.000000	0.286115
834.000000	0.286088
835.000000	0.285970
836.000000	0.285887
837.000000	0.285763
838.000000	0.285660
839.000000	0.285699
840.000000	0.285573
841.000000	0.285476
842.000000	0.285556
843.000000	0.285529
844.000000	0.285518
845.000000	0.285517
846.000000	0.285449
847.000000	0.285389
848.000000	0.285364
849.000000	0.285380
850.000000	0.285228
851.000000	0.285110
852.000000	0.285123
853.000000	0.285102
854.000000	0.284961
855.000000	0.284874
856.000000	0.284875
857.000000	0.284758
858.000000	0.284611
859.000000	0.284451
860.000000	0.284391
861.000000	0.284294
862.000000	0.284155
863.000000	0.283961
864.000000	0.283846
865.000000	0.283783
866.000000	0.283740
867.000000	0.283639
868.000000	0.283491
869.000000	0.283294
870.000000	0.283139
871.000000	0.282925
872.000000	0.282722
873.000000	0.282549
874.000000	0.282519
875.000000	0.282343
876.000000	0.282091
877.000000	0.281916
878.000000	0.281782
879.000000	0.281731
880.000000	0.281624
881.000000	0.281417
882.000000	0.281249
883.000000	0.281140
884.000000	0.280998
885.000000	0.280900
886.000000	0.280713
887.000000	0.280460
888.000000	0.280399
889.000000	0.280267
890.000000	0.279999
891.000000	0.279811
892.000000	0.279663
893.000000	0.279528
894.000000	0.279427
895.000000	0.279092
896.000000	0.278745
897.000000	0.278522
898.000000	0.278460
899.000000	0.278194
900.000000	0.277984
901.000000	0.277863
902.000000	0.277622
903.000000	0.277562
904.000000	0.277484
905.000000	0.277096
906.000000	0.276992
907.000000	0.276856
908.000000	0.276662
909.000000	0.276565
910.000000	0.276405
911.000000	0.276186
912.000000	0.275948
913.000000	0.275607
914.000000	0.275413
915.000000	0.275414
916.000000	0.275327
917.000000	0.274996
918.000000	0.274695
919.000000	0.274608
920.000000	0.274593
921.000000	0.274326
922.000000	0.273937
923.000000	0.273735
924.000000	0.273418
925.000000	0.273174
926.000000	0.273084
927.000000	0.272846
928.000000	0.272806
929.000000	0.272706
930.000000	0.272248
931.000000	0.272055
932.000000	0.271941
933.000000	0.271738
934.000000	0.271263
935.000000	0.270955
936.000000	0.270788
937.000000	0.270556
938.000000	0.270277
939.000000	0.270077
940.000000	0.269910
941.000000	0.269763
942.000000	0.269559
943.000000	0.269340
944.000000	0.269041
945.000000	0.268752
946.000000	0.268662
947.000000	0.268584
948.000000	0.268229
949.000000	0.267888
950.000000	0.267564
951.000000	0.267274
952.000000	0.267154
953.000000	0.266898
954.000000	0.266555
955.000000	0.266205
956.000000	0.266097
957.000000	0.265851
958.000000	0.265495
959.000000	0.265311
960.000000	0.265141
961.000000	0.264912
962.000000	0.264640
963.000000	0.264481
964.000000	0.264158
965.000000	0.263851
966.000000	0.263648
967.000000	0.263539
968.000000	0.263190
969.000000	0.262780
970.000000	0.262760
971.000000	0.262534
972.000000	0.262501
973.000000	0.262595
974.000000	0.262284
975.000000	0.261788
976.000000	0.261514
977.000000	0.261569
978.000000	0.261094
979.000000	0.260951
980.000000	0.260885
981.000000	0.260656
982.000000	0.260542
983.000000	0.260216
984.000000	0.259805
985.000000	0.259787
986.000000	0.259831
987.000000	0.259701
988.000000	0.259303
989.000000	0.259197
990.000000	0.258903
991.000000	0.258711
992.000000	0.258979
993.000000	0.258913
994.000000	0.258659
995.000000	0.258366
996.000000	0.257881
997.000000	0.257853
998.000000	0.257976
999.000000	0.258026
1000.000000	0.257871
1001.000000	0.258458
1002.000000	0.258067
1003.000000	0.257348
1004.000000	0.257061
1005.000000	0.256523
1006.000000	0.256297
1007.000000	0.256336
1008.000000	0.257002
1009.000000	0.257641
1010.000000	0.257632
1011.000000	0.257289
1012.000000	0.257111
1013.000000	0.256328
1014.000000	0.255766
1015.000000	0.255910
1016.000000	0.256102
1017.000000	0.255939
1018.000000	0.255393
1019.000000	0.255313
1020.000000	0.255304
1021.000000	0.255014
1022.000000	0.255359
1023.000000	0.255448
1024.000000	0.254806
1025.000000	0.254986
1026.000000	0.255001
1027.000000	0.254797
1028.000000	0.255898
1029.000000	0.256187
1030.000000	0.255797
1031.000000	0.256069
1032.000000	0.256202
1033.000000	0.256307
1034.000000	0.256276
1035.000000	0.256758
1036.000000	0.256542
1037.000000	0.255411
1038.000000	0.254928
1039.000000	0.254458
1040.000000	0.254636
1041.000000	0.255172
1042.000000	0.255257
1043.000000	0.255443
1044.000000	0.255839
1045.000000	0.255593
1046.000000	0.255288
1047.000000	0.255291
1048.000000	0.255061
1049.000000	0.255162
1050.000000	0.255901
1051.000000	0.256109
1052.000000	0.255987
1053.000000	0.256248
1054.000000	0.256620
1055.000000	0.256965
1056.000000	0.257637
1057.000000	0.258201
1058.000000	0.258133
1059.000000	0.258308
1060.000000	0.258652
1061.000000	0.258665
1062.000000	0.258664
1063.000000	0.258573
1064.000000	0.258685
1065.000000	0.258678
1066.000000	0.258814
1067.000000	0.259147
1068.000000	0.259464
1069.000000	0.259834
1070.000000	0.260015
1071.000000	0.260149
1072.000000	0.260410
1073.000000	0.260622
1074.000000	0.260910
1075.000000	0.261032
1076.000000	0.261370
1077.000000	0.261292
1078.000000	0.260905
1079.000000	0.260918
1080.000000	0.260983
1081.000000	0.261255
1082.000000	0.262152
1083.000000	0.262371
1084.000000	0.262315
1085.000000	0.262586
1086.000000	0.262528
1087.000000	0.262733
1088.000000	0.263522
1089.000000	0.263829
1090.000000	0.263804
1091.000000	0.263699
1092.000000	0.263958
1093.000000	0.264623
1094.000000	0.265016
1095.000000	0.265783
1096.000000	0.265971
1097.000000	0.265594
1098.000000	0.265633
1099.000000	0.265641
1100.000000	0.265757
1101.000000	0.266063
1102.000000	0.266148
1103.000000	0.265914
1104.000000	0.266109
1105.000000	0.266514
1106.000000	0.266817
1107.000000	0.267579
1108.000000	0.267780
1109.000000	0.267418
1110.000000	0.267256
1111.000000	0.267322
1112.000000	0.267200
1113.000000	0.267574
1114.000000	0.268652
1115.000000	0.269020
1116.000000	0.269255
1117.000000	0.269466
1118.000000	0.269345
1119.000000	0.269359
1120.000000	0.269351
1121.000000	0.269529
1122.000000	0.269972
1123.000000	0.270317
1124.000000	0.270570
1125.000000	0.270826
1126.000000	0.270897
1127.000000	0.270903
1128.000000	0.270883
1129.000000	0.270873
1130.000000	0.271026
1131.000000	0.271180
1132.000000	0.271298
1133.000000	0.271665
1134.000000	0.271827
1135.000000	0.271714
1136.000000	0.271772
1137.000000	0.271971
1138.000000	0.271961
1139.000000	0.271851
1140.000000	0.271952
1141.000000	0.271943
1142.000000	0.272074
1143.000000	0.272514
1144.000000	0.272780
1145.000000	0.272736
1146.000000	0.272754
1147.000000	0.272877
1148.000000	0.272926
1149.000000	0.272937
1150.000000	0.273094
1151.000000	0.273123
1152.000000	0.272749
1153.000000	0.272871
1154.000000	0.273381
1155.000000	0.273486
1156.000000	0.273587
1157.000000	0.273676
1158.000000	0.273463
1159.000000	0.273363
1160.000000	0.273363
1161.000000	0.273389
1162.000000	0.273406
1163.000000	0.273561
1164.000000	0.273830
1165.000000	0.273852
1166.000000	0.273874
1167.000000	0.273765
1168.000000	0.273661
1169.000000	0.273458
1170.000000	0.273445
1171.000000	0.273526
1172.000000	0.273614
1173.000000	0.273833
1174.000000	0.273910
1175.000000	0.273815
1176.000000	0.273862
1177.000000	0.274059
1178.000000	0.274116
1179.000000	0.274158
1180.000000	0.274193
1181.000000	0.274196
1182.000000	0.274256
1183.000000	0.274312
1184.000000	0.274295
1185.000000	0.274327
1186.000000	0.274253
1187.000000	0.274298
1188.000000	0.274483
1189.000000	0.274520
1190.000000	0.274564
1191.000000	0.274570
1192.000000	0.274636
1193.000000	0.274694
1194.000000	0.274538
1195.000000	0.274545
1196.000000	0.274592
1197.000000	0.274583
1198.000000	0.274623
1199.000000	0.274691
1200.000000	0.274697
1201.000000	0.274747
1202.000000	0.274856
1203.000000	0.274976
1204.000000	0.275114
1205.000000	0.275229
1206.000000	0.275258
1207.000000	0.275372
1208.000000	0.275367
1209.000000	0.275225
1210.000000	0.275256
1211.000000	0.275411
1212.000000	0.275429
1213.000000	0.275504
1214.000000	0.275497
1215.000000	0.275300
1216.000000	0.275213
1217.000000	0.275158
1218.000000	0.275085
1219.000000	0.275024
1220.000000	0.275043
1221.000000	0.275040
1222.000000	0.274905
1223.000000	0.274895
1224.000000	0.274854
1225.000000	0.274740
1226.000000	0.274798
1227.000000	0.274891
1228.000000	0.274995
1229.000000	0.274984
1230.000000	0.274948
1231.000000	0.274884
1232.000000	0.274731
1233.000000	0.274800
1234.000000	0.275043
1235.000000	0.275100
1236.000000	0.275116
1237.000000	0.275142
1238.000000	0.275001
1239.000000	0.274887
1240.000000	0.274793
1241.000000	0.274661
1242.000000	0.274559
1243.000000	0.274666
1244.000000	0.274787
1245.000000	0.275008
1246.000000	0.275151
1247.000000	0.275218
1248.000000	0.275227
1249.000000	0.275171
1250.000000	0.275199
1251.000000	0.275175
1252.000000	0.275097
1253.000000	0.275048
1254.000000	0.275014
1255.000000	0.274894
1256.000000	0.274837
1257.000000	0.274898
1258.000000	0.274904
1259.000000	0.274737
1260.000000	0.274762
1261.000000	0.274903
1262.000000	0.274940
1263.000000	0.274997
1264.000000	0.275050
1265.000000	0.275121
1266.000000	0.275162
1267.000000	0.275243
1268.000000	0.275269
1269.000000	0.275154
1270.000000	0.275145
1271.000000	0.275133
1272.000000	0.275077
1273.000000	0.275092
1274.000000	0.275017
1275.000000	0.274915
1276.000000	0.274789
1277.000000	0.274785
1278.000000	0.274662
1279.000000	0.274663
1280.000000	0.274796
1281.000000	0.274769
1282.000000	0.274762
1283.000000	0.274788
1284.000000	0.274653
1285.000000	0.274650
1286.000000	0.274760
1287.000000	0.274741
1288.000000	0.274749
1289.000000	0.274636
1290.000000	0.274340
1291.000000	0.274261
1292.000000	0.274376
1293.000000	0.274449
1294.000000	0.274508
1295.000000	0.274613
1296.000000	0.274682
1297.000000	0.274815
1298.000000	0.274995
1299.000000	0.275062
1300.000000	0.275061
1301.000000	0.274943
1302.000000	0.274846
1303.000000	0.274821
1304.000000	0.274818
1305.000000	0.274955
1306.000000	0.274951
1307.000000	0.274969
1308.000000	0.275012
1309.000000	0.274923
1310.000000	0.274938
1311.000000	0.275122
1312.000000	0.275134
1313.000000	0.275043
1314.000000	0.274927
1315.000000	0.274790
1316.000000	0.274770
1317.000000	0.274862
1318.000000	0.275015
1319.000000	0.275072
1320.000000	0.275148
1321.000000	0.275130
1322.000000	0.275039
1323.000000	0.274994
1324.000000	0.274849
1325.000000	0.274765
1326.000000	0.274702
1327.000000	0.274595
1328.000000	0.274669
1329.000000	0.274656
1330.000000	0.274679
1331.000000	0.274654
1332.000000	0.274629
1333.000000	0.274586
1334.000000	0.274503
1335.000000	0.274539
1336.000000	0.274696
1337.000000	0.274709
1338.000000	0.274662
1339.000000	0.274615
1340.000000	0.274466
1341.000000	0.274380
1342.000000	0.274288
1343.000000	0.274175
1344.000000	0.274170
1345.000000	0.274066
1346.000000	0.274028
1347.000000	0.273990
1348.000000	0.273889
1349.000000	0.273850
1350.000000	0.273905
1351.000000	0.274014
1352.000000	0.274188
1353.000000	0.274271
1354.000000	0.274322
1355.000000	0.274310
1356.000000	0.274301
1357.000000	0.274231
1358.000000	0.274126
1359.000000	0.274112
1360.000000	0.274050
1361.000000	0.273937
1362.000000	0.273878
1363.000000	0.273879
1364.000000	0.273772
1365.000000	0.273556
1366.000000	0.273499
1367.000000	0.273449
1368.000000	0.273411
1369.000000	0.273491
1370.000000	0.273520
1371.000000	0.273494
1372.000000	0.273340
1373.000000	0.273198
1374.000000	0.273121
1375.000000	0.272946
1376.000000	0.272962
1377.000000	0.273065
1378.000000	0.272917
1379.000000	0.272774
1380.000000	0.272686
1381.000000	0.272569
1382.000000	0.272549
1383.000000	0.272421
1384.000000	0.272229
1385.000000	0.272131
1386.000000	0.272021
1387.000000	0.271971
1388.000000	0.271946
1389.000000	0.271872
1390.000000	0.271896
1391.000000	0.271850
1392.000000	0.271716
1393.000000	0.271552
1394.000000	0.271237
1395.000000	0.271074
1396.000000	0.271046
1397.000000	0.270860
1398.000000	0.270615
1399.000000	0.270371
1400.000000	0.270058
1401.000000	0.269682
1402.000000	0.269320
1403.000000	0.268930
1404.000000	0.268494
1405.000000	0.268067
1406.000000	0.267746
1407.000000	0.267499
1408.000000	0.267249
1409.000000	0.267097
1410.000000	0.267026
1411.000000	0.266876
1412.000000	0.266660
1413.000000	0.266442
1414.000000	0.266259
1415.000000	0.266122
1416.000000	0.265925
1417.000000	0.265792
1418.000000	0.265610
1419.000000	0.265329
1420.000000	0.265085
1421.000000	0.264996
1422.000000	0.264882
1423.000000	0.264803
1424.000000	0.264748
1425.000000	0.264694
1426.000000	0.264465
1427.000000	0.264234
1428.000000	0.264081
1429.000000	0.263821
1430.000000	0.263748
1431.000000	0.263856
1432.000000	0.263778
1433.000000	0.263654
1434.000000	0.263558
1435.000000	0.263462
1436.000000	0.263342
1437.000000	0.263319
1438.000000	0.263179
1439.000000	0.262825
1440.000000	0.262675
1441.000000	0.262648
1442.000000	0.262622
1443.000000	0.262595
1444.000000	0.262706
1445.000000	0.262846
1446.000000	0.262860
1447.000000	0.262907
1448.000000	0.262965
1449.000000	0.262910
1450.000000	0.262915
1451.000000	0.262980
1452.000000	0.263061
1453.000000	0.263203
1454.000000	0.263181
1455.000000	0.263126
1456.000000	0.263292
1457.000000	0.263433
1458.000000	0.263392
1459.000000	0.263387
1460.000000	0.263318
1461.000000	0.263076
1462.000000	0.263054
1463.000000	0.263129
1464.000000	0.263058
1465.000000	0.263050
1466.000000	0.262996
1467.000000	0.262837
1468.000000	0.262817
1469.000000	0.262980
1470.000000	0.263114
1471.000000	0.263250
1472.000000	0.263300
1473.000000	0.263330
1474.000000	0.263320
1475.000000	0.263363
1476.000000	0.263535
1477.000000	0.263699
1478.000000	0.263790
1479.000000	0.263819
1480.000000	0.263843
1481.000000	0.263865
1482.000000	0.263880
1483.000000	0.263967
1484.000000	0.264097
1485.000000	0.264213
1486.000000	0.264341
1487.000000	0.264421
1488.000000	0.264526
1489.000000	0.264635
1490.000000	0.264646
1491.000000	0.264680
1492.000000	0.264622
1493.000000	0.264629
1494.000000	0.264589
1495.000000	0.264628
1496.000000	0.264786
1497.000000	0.264893
1498.000000	0.265068
1499.000000	0.265060
1500.000000	0.265059
1501.000000	0.265190
1502.000000	0.265259
1503.000000	0.265319
1504.000000	0.265313
1505.000000	0.265243
1506.000000	0.265225
1507.000000	0.265262
1508.000000	0.265468
1509.000000	0.265674
1510.000000	0.265827
1511.000000	0.266001
1512.000000	0.266000
1513.000000	0.265936
1514.000000	0.265968
1515.000000	0.265936
1516.000000	0.265985
1517.000000	0.266052
1518.000000	0.266000
1519.000000	0.265898
1520.000000	0.265812
1521.000000	0.265752
1522.000000	0.265731
1523.000000	0.265756
1524.000000	0.265824
1525.000000	0.265873
1526.000000	0.265872
1527.000000	0.265845
1528.000000	0.265897
1529.000000	0.265961
1530.000000	0.265881
1531.000000	0.265928
1532.000000	0.265986
1533.000000	0.265901
1534.000000	0.266042
1535.000000	0.266260
1536.000000	0.266245
1537.000000	0.266387
1538.000000	0.266542
1539.000000	0.266518
1540.000000	0.266558
1541.000000	0.266669
1542.000000	0.266666
1543.000000	0.266523
1544.000000	0.266449
1545.000000	0.266448
1546.000000	0.266438
1547.000000	0.266565
1548.000000	0.266815
1549.000000	0.266908
1550.000000	0.266816
1551.000000	0.266785
1552.000000	0.266785
1553.000000	0.266706
1554.000000	0.266736
1555.000000	0.266863
1556.000000	0.266799
1557.000000	0.266709
1558.000000	0.266715
1559.000000	0.266691
1560.000000	0.266680
1561.000000	0.266819
1562.000000	0.266802
1563.000000	0.266731
1564.000000	0.266742
1565.000000	0.266690
1566.000000	0.266640
1567.000000	0.266765
1568.000000	0.266734
1569.000000	0.266672
1570.000000	0.266614
1571.000000	0.266499
1572.000000	0.266435
1573.000000	0.266349
1574.000000	0.266357
1575.000000	0.266507
1576.000000	0.266467
1577.000000	0.266341
1578.000000	0.266305
1579.000000	0.266220
1580.000000	0.266220
1581.000000	0.266450
1582.000000	0.266501
1583.000000	0.266472
1584.000000	0.266437
1585.000000	0.266415
1586.000000	0.266422
1587.000000	0.266453
1588.000000	0.266384
1589.000000	0.266217
1590.000000	0.266183
1591.000000	0.266145
1592.000000	0.266216
1593.000000	0.266553
1594.000000	0.266647
1595.000000	0.266760
1596.000000	0.266759
1597.000000	0.266540
1598.000000	0.266444
1599.000000	0.266324
1600.000000	0.266304
1601.000000	0.266497
1602.000000	0.266567
1603.000000	0.266725
1604.000000	0.266707
1605.000000	0.266524
1606.000000	0.266450
1607.000000	0.266386
1608.000000	0.266336
1609.000000	0.266430
1610.000000	0.266366
1611.000000	0.266220
1612.000000	0.266151
1613.000000	0.266107
1614.000000	0.266057
1615.000000	0.266065
1616.000000	0.266161
1617.000000	0.266318
1618.000000	0.266348
1619.000000	0.266418
1620.000000	0.266421
1621.000000	0.266264
1622.000000	0.266281
1623.000000	0.266331
1624.000000	0.266366
1625.000000	0.266332
1626.000000	0.266281
1627.000000	0.266233
1628.000000	0.266261
1629.000000	0.266310
1630.000000	0.266377
1631.000000	0.266425
1632.000000	0.266485
1633.000000	0.266618
1634.000000	0.266631
1635.000000	0.266590
1636.000000	0.266659
1637.000000	0.266745
1638.000000	0.266703
1639.000000	0.266751
1640.000000	0.266767
1641.000000	0.266654
1642.000000	0.266688
1643.000000	0.266910
1644.000000	0.266990
1645.000000	0.267019
1646.000000	0.267017
1647.000000	0.267053
1648.000000	0.266971
1649.000000	0.266821
1650.000000	0.266842
1651.000000	0.266897
1652.000000	0.266964
1653.000000	0.267118
1654.000000	0.267223
1655.000000	0.267222
1656.000000	0.267219
1657.000000	0.267309
1658.000000	0.267335
1659.000000	0.267385
1660.000000	0.267468
1661.000000	0.267553
1662.000000	0.267485
1663.000000	0.267321
1664.000000	0.267184
1665.000000	0.266889
1666.000000	0.266853
1667.000000	0.266880
1668.000000	0.266901
1669.000000	0.266993
1670.000000	0.266963
1671.000000	0.267007
1672.000000	0.267028
1673.000000	0.266936
1674.000000	0.267026
1675.000000	0.267250
1676.000000	0.267446
1677.000000	0.267485
1678.000000	0.267511
1679.000000	0.267421
1680.000000	0.267371
1681.000000	0.267483
1682.000000	0.267607
1683.000000	0.267671
1684.000000	0.267573
1685.000000	0.267547
1686.000000	0.267637
1687.000000	0.267659
1688.000000	0.267806
1689.000000	0.268031
1690.000000	0.268096
1691.000000	0.268196
1692.000000	0.268190
1693.000000	0.268147
1694.000000	0.268030
1695.000000	0.267889
1696.000000	0.268011
1697.000000	0.267997
1698.000000	0.268019
1699.000000	0.268073
1700.000000	0.268118
1701.000000	0.268109
1702.000000	0.267876
1703.000000	0.267801
1704.000000	0.267832
1705.000000	0.267775
1706.000000	0.267901
1707.000000	0.267886
1708.000000	0.267545
1709.000000	0.267422
1710.000000	0.267537
1711.000000	0.267546
1712.000000	0.267698
1713.000000	0.267657
1714.000000	0.267406
1715.000000	0.267328
1716.000000	0.267295
1717.000000	0.267229
1718.000000	0.267114
1719.000000	0.267161
1720.000000	0.267386
1721.000000	0.267407
1722.000000	0.267476
1723.000000	0.267529
1724.000000	0.267365
1725.000000	0.267411
1726.000000	0.267601
1727.000000	0.267696
1728.000000	0.267705
1729.000000	0.267730
1730.000000	0.267943
1731.000000	0.267927
1732.000000	0.267741
1733.000000	0.267815
1734.000000	0.267790
1735.000000	0.267772
1736.000000	0.267906
1737.000000	0.267921
1738.000000	0.267769
1739.000000	0.267777
1740.000000	0.267868
1741.000000	0.267956
1742.000000	0.268095
1743.000000	0.268161
1744.000000	0.268223
1745.000000	0.268257
1746.000000	0.268192
1747.000000	0.268235
1748.000000	0.268262
1749.000000	0.268354
1750.000000	0.268322
1751.000000	0.268249
1752.000000	0.268377
1753.000000	0.268530
1754.000000	0.268521
1755.000000	0.268474
1756.000000	0.268448
1757.000000	0.268217
1758.000000	0.268120
1759.000000	0.268188
1760.000000	0.268197
1761.000000	0.268113
1762.000000	0.268102
1763.000000	0.268101
1764.000000	0.268230
1765.000000	0.268458
1766.000000	0.268658
1767.000000	0.269004
1768.000000	0.269041
1769.000000	0.268912
1770.000000	0.268925
1771.000000	0.268791
1772.000000	0.268735
1773.000000	0.268749
1774.000000	0.268757
1775.000000	0.268776
1776.000000	0.268812
1777.000000	0.268861
1778.000000	0.268933
1779.000000	0.269024
1780.000000	0.269046
1781.000000	0.269080
1782.000000	0.269014
1783.000000	0.268862
1784.000000	0.268681
1785.000000	0.268521
1786.000000	0.268602
1787.000000	0.268727
1788.000000	0.268733
1789.000000	0.268719
1790.000000	0.268574
1791.000000	0.268438
1792.000000	0.268450
1793.000000	0.268471
1794.000000	0.268435
1795.000000	0.268485
1796.000000	0.268748
1797.000000	0.268809
1798.000000	0.268692
1799.000000	0.268725
1800.000000	0.268826
1801.000000	0.269813
1802.000000	0.269273
1803.000000	0.267157
1804.000000	0.266850
1805.000000	0.267087
1806.000000	0.267076
1807.000000	0.267620
1808.000000	0.268165
1809.000000	0.268749
1810.000000	0.269086
1811.000000	0.269189
1812.000000	0.269804
1813.000000	0.269413
1814.000000	0.267531
1815.000000	0.267176
1816.000000	0.267248
1817.000000	0.267129
1818.000000	0.267500
1819.000000	0.268180
1820.000000	0.268838
1821.000000	0.268803
1822.000000	0.268553
1823.000000	0.268138
1824.000000	0.267682
1825.000000	0.266112
1826.000000	0.265703
1827.000000	0.265961
1828.000000	0.266070
1829.000000	0.266474
1830.000000	0.267139
1831.000000	0.267270
1832.000000	0.267278
1833.000000	0.267132
1834.000000	0.266175
1835.000000	0.266222
1836.000000	0.266918
1837.000000	0.267096
1838.000000	0.267339
1839.000000	0.267688
1840.000000	0.267450
1841.000000	0.267180
1842.000000	0.267182
1843.000000	0.267392
1844.000000	0.267659
1845.000000	0.268331
1846.000000	0.268267
1847.000000	0.267867
1848.000000	0.267371
1849.000000	0.266614
1850.000000	0.265539
1851.000000	0.264812
1852.000000	0.264274
1853.000000	0.263958
1854.000000	0.263086
1855.000000	0.263381
1856.000000	0.264857
1857.000000	0.265399
1858.000000	0.265884
1859.000000	0.265896
1860.000000	0.264892
1861.000000	0.264153
1862.000000	0.263859
1863.000000	0.264018
1864.000000	0.264191
1865.000000	0.264880
1866.000000	0.264918
1867.000000	0.264667
1868.000000	0.264723
1869.000000	0.264135
1870.000000	0.263423
1871.000000	0.262986
1872.000000	0.262224
1873.000000	0.261597
1874.000000	0.260744
1875.000000	0.260515
1876.000000	0.260458
1877.000000	0.260134
1878.000000	0.259899
1879.000000	0.259581
1880.000000	0.259411
1881.000000	0.258694
1882.000000	0.258091
1883.000000	0.256962
1884.000000	0.255726
1885.000000	0.253637
1886.000000	0.252273
1887.000000	0.250952
1888.000000	0.249828
1889.000000	0.248887
1890.000000	0.247900
1891.000000	0.247165
1892.000000	0.246373
1893.000000	0.245821
1894.000000	0.245070
1895.000000	0.244188
1896.000000	0.243324
1897.000000	0.242484
1898.000000	0.241121
1899.000000	0.240019
1900.000000	0.238464
1901.000000	0.236668
1902.000000	0.235362
1903.000000	0.234308
1904.000000	0.233684
1905.000000	0.233229
1906.000000	0.232623
1907.000000	0.232157
1908.000000	0.231360
1909.000000	0.230538
1910.000000	0.230446
1911.000000	0.230259
1912.000000	0.229745
1913.000000	0.229206
1914.000000	0.228091
1915.000000	0.227104
1916.000000	0.226935
1917.000000	0.226595
1918.000000	0.226658
1919.000000	0.226730
1920.000000	0.226665
1921.000000	0.226257
1922.000000	0.225846
1923.000000	0.225809
1924.000000	0.226045
1925.000000	0.226123
1926.000000	0.226264
1927.000000	0.226798
1928.000000	0.226939
1929.000000	0.226725
1930.000000	0.226608
1931.000000	0.227220
1932.000000	0.227208
1933.000000	0.227188
1934.000000	0.227429
1935.000000	0.226872
1936.000000	0.226542
1937.000000	0.226563
1938.000000	0.226265
1939.000000	0.226309
1940.000000	0.226657
1941.000000	0.227073
1942.000000	0.227499
1943.000000	0.228141
1944.000000	0.227829
1945.000000	0.227078
1946.000000	0.226439
1947.000000	0.225876
1948.000000	0.226166
1949.000000	0.226691
1950.000000	0.226991
1951.000000	0.227239
1952.000000	0.227585
1953.000000	0.227406
1954.000000	0.226934
1955.000000	0.226664
1956.000000	0.226253
1957.000000	0.226022
1958.000000	0.226042
1959.000000	0.226121
1960.000000	0.226001
1961.000000	0.225585
1962.000000	0.225470
1963.000000	0.225670
1964.000000	0.225667
1965.000000	0.225449
1966.000000	0.225793
1967.000000	0.225459
1968.000000	0.225208
1969.000000	0.225519
1970.000000	0.225252
1971.000000	0.224611
1972.000000	0.224080
1973.000000	0.223705
1974.000000	0.222984
1975.000000	0.222907
1976.000000	0.223312
1977.000000	0.224182
1978.000000	0.224879
1979.000000	0.225973
1980.000000	0.226877
1981.000000	0.227031
1982.000000	0.227315
1983.000000	0.227310
1984.000000	0.227085
1985.000000	0.226536
1986.000000	0.226427
1987.000000	0.226317
1988.000000	0.226205
1989.000000	0.226710
1990.000000	0.227541
1991.000000	0.227347
1992.000000	0.227191
1993.000000	0.227452
1994.000000	0.227348
1995.000000	0.227665
1996.000000	0.227961
1997.000000	0.228198
1998.000000	0.228131
1999.000000	0.228352
2000.000000	0.228682
2001.000000	0.229349
2002.000000	0.229744
2003.000000	0.230109
2004.000000	0.230601
2005.000000	0.230536
2006.000000	0.230709
2007.000000	0.231154
2008.000000	0.231663
2009.000000	0.232521
2010.000000	0.233191
2011.000000	0.233788
2012.000000	0.234093
2013.000000	0.234271
2014.000000	0.233990
2015.000000	0.233398
2016.000000	0.233457
2017.000000	0.233727
2018.000000	0.233614
2019.000000	0.233670
2020.000000	0.233729
2021.000000	0.233867
2022.000000	0.233942
2023.000000	0.234142
2024.000000	0.234464
2025.000000	0.234676
2026.000000	0.234862
2027.000000	0.234698
2028.000000	0.234115
2029.000000	0.234695
2030.000000	0.235493
2031.000000	0.236026
2032.000000	0.237154
2033.000000	0.238251
2034.000000	0.238786
2035.000000	0.238751
2036.000000	0.239028
2037.000000	0.239385
2038.000000	0.239519
2039.000000	0.239741
2040.000000	0.239882
2041.000000	0.239406
2042.000000	0.238992
2043.000000	0.238781
2044.000000	0.238639
2045.000000	0.239068
2046.000000	0.239480
2047.000000	0.239940
2048.000000	0.240630
2049.000000	0.241316
2050.000000	0.241886
2051.000000	0.242187
2052.000000	0.242221
2053.000000	0.242205
2054.000000	0.242095
2055.000000	0.242090
2056.000000	0.242204
2057.000000	0.242480
2058.000000	0.242394
2059.000000	0.242206
2060.000000	0.242106
2061.000000	0.241737
2062.000000	0.241721
2063.000000	0.242001
2064.000000	0.242301
2065.000000	0.243274
2066.000000	0.243584
2067.000000	0.244051
2068.000000	0.244093
2069.000000	0.243717
2070.000000	0.243162
2071.000000	0.243247
2072.000000	0.243316
2073.000000	0.243088
2074.000000	0.243535
2075.000000	0.243636
2076.000000	0.243392
2077.000000	0.243367
2078.000000	0.243307
2079.000000	0.243427
2080.000000	0.244017
2081.000000	0.244243
2082.000000	0.244397
2083.000000	0.244649
2084.000000	0.244674
2085.000000	0.244213
2086.000000	0.244763
2087.000000	0.245092
2088.000000	0.244734
2089.000000	0.244630
2090.000000	0.244531
2091.000000	0.244002
2092.000000	0.243982
2093.000000	0.244581
2094.000000	0.244831
2095.000000	0.244829
2096.000000	0.245066
2097.000000	0.245481
2098.000000	0.245657
2099.000000	0.245997
2100.000000	0.246480
2101.000000	0.246607
2102.000000	0.247261
2103.000000	0.247505
2104.000000	0.247456
2105.000000	0.247892
2106.000000	0.248512
2107.000000	0.248903
2108.000000	0.249908
2109.000000	0.250186
2110.000000	0.249246
2111.000000	0.249250
2112.000000	0.249510
2113.000000	0.249266
2114.000000	0.249794
2115.000000	0.250584
2116.000000	0.250028
2117.000000	0.249000
2118.000000	0.247936
2119.000000	0.246530
2120.000000	0.245919
2121.000000	0.245656
2122.000000	0.245890
2123.000000	0.247043
2124.000000	0.247552
2125.000000	0.248505
2126.000000	0.248773
2127.000000	0.248216
2128.000000	0.248048
2129.000000	0.247489
2130.000000	0.247405
2131.000000	0.247651
2132.000000	0.248541
2133.000000	0.249902
2134.000000	0.250692
2135.000000	0.251226
2136.000000	0.251144
2137.000000	0.250780
2138.000000	0.249697
2139.000000	0.249263
2140.000000	0.248445
2141.000000	0.248345
2142.000000	0.248861
2143.000000	0.248781
2144.000000	0.249307
2145.000000	0.249369
2146.000000	0.248521
2147.000000	0.248948
2148.000000	0.249582
2149.000000	0.250037
2150.000000	0.251182
2151.000000	0.251779
2152.000000	0.252106
2153.000000	0.251968
2154.000000	0.251577
2155.000000	0.250857
2156.000000	0.250211
2157.000000	0.248969
2158.000000	0.248426
2159.000000	0.247843
2160.000000	0.247919
2161.000000	0.248766
2162.000000	0.249586
2163.000000	0.251079
2164.000000	0.251985
2165.000000	0.252544
2166.000000	0.253315
2167.000000	0.254052
2168.000000	0.254787
2169.000000	0.255072
2170.000000	0.254636
2171.000000	0.253870
2172.000000	0.251511
2173.000000	0.251129
2174.000000	0.251209
2175.000000	0.251479
2176.000000	0.252892
2177.000000	0.253753
2178.000000	0.255290
2179.000000	0.255994
2180.000000	0.256374
2181.000000	0.256376
2182.000000	0.255768
2183.000000	0.253138
2184.000000	0.250465
2185.000000	0.249111
2186.000000	0.248112
2187.000000	0.247348
2188.000000	0.248502
2189.000000	0.250030
2190.000000	0.250410
2191.000000	0.251743
2192.000000	0.252568
2193.000000	0.252930
2194.000000	0.253175
2195.000000	0.253875
2196.000000	0.253577
2197.000000	0.251988
2198.000000	0.250273
2199.000000	0.247533
2200.000000	0.245867
2201.000000	0.243976
2202.000000	0.243346
2203.000000	0.244225
2204.000000	0.244813
2205.000000	0.245642
2206.000000	0.245531
2207.000000	0.244926
2208.000000	0.244981
2209.000000	0.244546
2210.000000	0.246744
2211.000000	0.248665
2212.000000	0.248496
2213.000000	0.247608
2214.000000	0.244377
2215.000000	0.243159
2216.000000	0.240927
2217.000000	0.241688
2218.000000	0.245182
2219.000000	0.247615
2220.000000	0.252223
2221.000000	0.254201
2222.000000	0.255902
2223.000000	0.255498
2224.000000	0.252374
2225.000000	0.249841
2226.000000	0.246754
2227.000000	0.243896
2228.000000	0.246214
2229.000000	0.246895
2230.000000	0.245992
2231.000000	0.247601
2232.000000	0.246832
2233.000000	0.245965
2234.000000	0.247635
2235.000000	0.248823
2236.000000	0.249307
2237.000000	0.249646
2238.000000	0.249519
2239.000000	0.248840
2240.000000	0.247462
2241.000000	0.243892
2242.000000	0.243545
2243.000000	0.244247
2244.000000	0.244804
2245.000000	0.248864
2246.000000	0.250497
2247.000000	0.249935
2248.000000	0.249894
2249.000000	0.250439
2250.000000	0.248578
2251.000000	0.246183
2252.000000	0.245313
2253.000000	0.245533
2254.000000	0.243532
2255.000000	0.243451
2256.000000	0.245544
2257.000000	0.244853
2258.000000	0.245677
2259.000000	0.245891
2260.000000	0.242971
2261.000000	0.242236
2262.000000	0.241718
2263.000000	0.242205
2264.000000	0.244087
2265.000000	0.245563
2266.000000	0.248025
2267.000000	0.248469
2268.000000	0.247744
2269.000000	0.247625
2270.000000	0.246857
2271.000000	0.246394
2272.000000	0.246308
2273.000000	0.245950
2274.000000	0.245077
2275.000000	0.244105
2276.000000	0.242502
2277.000000	0.243049
2278.000000	0.242115
2279.000000	0.241413
2280.000000	0.242685
2281.000000	0.242968
2282.000000	0.242690
2283.000000	0.242291
2284.000000	0.241904
2285.000000	0.242248
2286.000000	0.244142
2287.000000	0.247550
2288.000000	0.249756
2289.000000	0.248534
2290.000000	0.246212
2291.000000	0.244373
2292.000000	0.241992
2293.000000	0.241174
2294.000000	0.240510
2295.000000	0.240296
2296.000000	0.240010
2297.000000	0.240555
2298.000000	0.240220
2299.000000	0.240325
2300.000000	0.239383
2301.000000	0.235882
2302.000000	0.234948
2303.000000	0.234933
2304.000000	0.234801
2305.000000	0.236757
2306.000000	0.237923
2307.000000	0.238054
2308.000000	0.238798
2309.000000	0.240992
2310.000000	0.241590
2311.000000	0.240435
2312.000000	0.239120
2313.000000	0.239546
2314.000000	0.239545
2315.000000	0.241815
2316.000000	0.245090
2317.000000	0.244053
2318.000000	0.243029
2319.000000	0.242880
2320.000000	0.241595
2321.000000	0.241709
2322.000000	0.241268
2323.000000	0.238702
2324.000000	0.238037
2325.000000	0.237674
2326.000000	0.237109
2327.000000	0.239246
2328.000000	0.238733
2329.000000	0.237320
2330.000000	0.237254
2331.000000	0.236753
2332.000000	0.239668
2333.000000	0.240688
2334.000000	0.240062
2335.000000	0.240222
2336.000000	0.236935
2337.000000	0.236874
2338.000000	0.240669
2339.000000	0.240992
2340.000000	0.241233
2341.000000	0.241673
2342.000000	0.240719
2343.000000	0.239651
2344.000000	0.238457
2345.000000	0.236960
2346.000000	0.233559
2347.000000	0.231934
2348.000000	0.231422
2349.000000	0.231972
2350.000000	0.231892
2351.000000	0.231408
2352.000000	0.228563
2353.000000	0.226302
2354.000000	0.223093
2355.000000	0.220379
2356.000000	0.219435
2357.000000	0.219336
2358.000000	0.222462
2359.000000	0.223668
2360.000000	0.225283
2361.000000	0.228848
2362.000000	0.230382
2363.000000	0.233273
2364.000000	0.233393
2365.000000	0.228661
2366.000000	0.225602
2367.000000	0.222834
2368.000000	0.218353
2369.000000	0.219804
2370.000000	0.222025
2371.000000	0.219919
2372.000000	0.222886
2373.000000	0.223908
2374.000000	0.219093
2375.000000	0.214955
2376.000000	0.212340
2377.000000	0.209400
2378.000000	0.209140
2379.000000	0.213533
2380.000000	0.214084
2381.000000	0.216044
2382.000000	0.218396
2383.000000	0.215769
2384.000000	0.214811
2385.000000	0.216035
2386.000000	0.219277
2387.000000	0.222137
2388.000000	0.226378
2389.000000	0.228140
2390.000000	0.229103
2391.000000	0.230543
2392.000000	0.227774
2393.000000	0.227783
2394.000000	0.220830
2395.000000	0.217395
2396.000000	0.223449
2397.000000	0.222267
2398.000000	0.220468
2399.000000	0.214100
2400.000000	0.205078
2401.000000	0.198856
2402.000000	0.197619
2403.000000	0.207268
2404.000000	0.212082
2405.000000	0.213969
2406.000000	0.219236
2407.000000	0.217102
2408.000000	0.210827
2409.000000	0.206782
2410.000000	0.204119
2411.000000	0.198982
2412.000000	0.194542
2413.000000	0.192067
2414.000000	0.193691
2415.000000	0.199390
2416.000000	0.202808
2417.000000	0.205808
2418.000000	0.200703
2419.000000	0.193070
2420.000000	0.191268
2421.000000	0.188393
2422.000000	0.194587
2423.000000	0.196599
2424.000000	0.189341
2425.000000	0.192179
2426.000000	0.188128
2427.000000	0.183780
2428.000000	0.193498
2429.000000	0.198706
2430.000000	0.196897
2431.000000	0.198244
2432.000000	0.199102
2433.000000	0.195450
2434.000000	0.203446
2435.000000	0.208402
2436.000000	0.204867
2437.000000	0.207272
2438.000000	0.199674
2439.000000	0.186165
2440.000000	0.176921
2441.000000	0.175498
2442.000000	0.172601
2443.000000	0.171517
2444.000000	0.189544
2445.000000	0.201852
2446.000000	0.212366
2447.000000	0.236850
2448.000000	0.240476
2449.000000	0.227945
2450.000000	0.216362
2451.000000	0.199218
2452.000000	0.184412
2453.000000	0.174693
2454.000000	0.175261
2455.000000	0.175887
2456.000000	0.172527
2457.000000	0.176444
2458.000000	0.175736
2459.000000	0.176796
2460.000000	0.189963
2461.000000	0.202010
2462.000000	0.215915
2463.000000	0.218940
2464.000000	0.208058
2465.000000	0.202172
2466.000000	0.182480
2467.000000	0.161005
2468.000000	0.162601
2469.000000	0.165647
2470.000000	0.172719
2471.000000	0.191359
2472.000000	0.186551
2473.000000	0.172558
2474.000000	0.152617
2475.000000	0.118283
2476.000000	0.088515
2477.000000	0.051285
2478.000000	0.039642
2479.000000	0.059203
2480.000000	0.085546
2481.000000	0.144765
2482.000000	0.187185
2483.000000	0.201044
2484.000000	0.220509
2485.000000	0.209564
2486.000000	0.187699
2487.000000	0.184735
2488.000000	0.159702
2489.000000	0.142826
2490.000000	0.132067
2491.000000	0.112498
2492.000000	0.113346
2493.000000	0.116288
2494.000000	0.137490
2495.000000	0.208699
2496.000000	0.228311
2497.000000	0.222936
2498.000000	0.236056
2499.000000	0.237890
2500.000000	0.222623
