# Wavelength	NAu-1-10_HEX-80_FV7-10_00002.asd.rts.txt
350.000000	0.274080
351.000000	0.277294
352.000000	0.280335
353.000000	0.278689
354.000000	0.275123
355.000000	0.276084
356.000000	0.272223
357.000000	0.269683
358.000000	0.282031
359.000000	0.286393
360.000000	0.283493
361.000000	0.279227
362.000000	0.281492
363.000000	0.284414
364.000000	0.284040
365.000000	0.285923
366.000000	0.288366
367.000000	0.289842
368.000000	0.289688
369.000000	0.284657
370.000000	0.281621
371.000000	0.287810
372.000000	0.288037
373.000000	0.287143
374.000000	0.289369
375.000000	0.289271
376.000000	0.289291
377.000000	0.289940
378.000000	0.290316
379.000000	0.292012
380.000000	0.293340
381.000000	0.293232
382.000000	0.295898
383.000000	0.297806
384.000000	0.297021
385.000000	0.296761
386.000000	0.297607
387.000000	0.299406
388.000000	0.300736
389.000000	0.302935
390.000000	0.305331
391.000000	0.306289
392.000000	0.306266
393.000000	0.305756
394.000000	0.305533
395.000000	0.307322
396.000000	0.310318
397.000000	0.313150
398.000000	0.313410
399.000000	0.314116
400.000000	0.315666
401.000000	0.317223
402.000000	0.319059
403.000000	0.320433
404.000000	0.320924
405.000000	0.320652
406.000000	0.321978
407.000000	0.325009
408.000000	0.325957
409.000000	0.326441
410.000000	0.327060
411.000000	0.327944
412.000000	0.329308
413.000000	0.330362
414.000000	0.330485
415.000000	0.330944
416.000000	0.332158
417.000000	0.333938
418.000000	0.335131
419.000000	0.335050
420.000000	0.334436
421.000000	0.335363
422.000000	0.336285
423.000000	0.336852
424.000000	0.337199
425.000000	0.337545
426.000000	0.337579
427.000000	0.337268
428.000000	0.337801
429.000000	0.338219
430.000000	0.338143
431.000000	0.337818
432.000000	0.338020
433.000000	0.338386
434.000000	0.338202
435.000000	0.338501
436.000000	0.338905
437.000000	0.338924
438.000000	0.339034
439.000000	0.339063
440.000000	0.339004
441.000000	0.338759
442.000000	0.338310
443.000000	0.337868
444.000000	0.338055
445.000000	0.338070
446.000000	0.338274
447.000000	0.338970
448.000000	0.339544
449.000000	0.340274
450.000000	0.341391
451.000000	0.342731
452.000000	0.344137
453.000000	0.345552
454.000000	0.347370
455.000000	0.349355
456.000000	0.351313
457.000000	0.352846
458.000000	0.354483
459.000000	0.356207
460.000000	0.357985
461.000000	0.359821
462.000000	0.361338
463.000000	0.362259
464.000000	0.363164
465.000000	0.364188
466.000000	0.365213
467.000000	0.366109
468.000000	0.366772
469.000000	0.367260
470.000000	0.367920
471.000000	0.368789
472.000000	0.369427
473.000000	0.369770
474.000000	0.370734
475.000000	0.371415
476.000000	0.371821
477.000000	0.372415
478.000000	0.372809
479.000000	0.373275
480.000000	0.373801
481.000000	0.374183
482.000000	0.374853
483.000000	0.375758
484.000000	0.376228
485.000000	0.376645
486.000000	0.377329
487.000000	0.377543
488.000000	0.377693
489.000000	0.378054
490.000000	0.378823
491.000000	0.379449
492.000000	0.380059
493.000000	0.380715
494.000000	0.381228
495.000000	0.381678
496.000000	0.382101
497.000000	0.382581
498.000000	0.383257
499.000000	0.384155
500.000000	0.384886
501.000000	0.385345
502.000000	0.385777
503.000000	0.386458
504.000000	0.387033
505.000000	0.387585
506.000000	0.388241
507.000000	0.388885
508.000000	0.389481
509.000000	0.390015
510.000000	0.390741
511.000000	0.391427
512.000000	0.392056
513.000000	0.392682
514.000000	0.393379
515.000000	0.394122
516.000000	0.394779
517.000000	0.395569
518.000000	0.396363
519.000000	0.396965
520.000000	0.397695
521.000000	0.398465
522.000000	0.399229
523.000000	0.399967
524.000000	0.400765
525.000000	0.401582
526.000000	0.402377
527.000000	0.403248
528.000000	0.404068
529.000000	0.404792
530.000000	0.405579
531.000000	0.406454
532.000000	0.407279
533.000000	0.408073
534.000000	0.408919
535.000000	0.409797
536.000000	0.410638
537.000000	0.411435
538.000000	0.412261
539.000000	0.413188
540.000000	0.414047
541.000000	0.414837
542.000000	0.415636
543.000000	0.416396
544.000000	0.417217
545.000000	0.418044
546.000000	0.418901
547.000000	0.419754
548.000000	0.420650
549.000000	0.421551
550.000000	0.422254
551.000000	0.422967
552.000000	0.423880
553.000000	0.424709
554.000000	0.425512
555.000000	0.426344
556.000000	0.427105
557.000000	0.427784
558.000000	0.428579
559.000000	0.429407
560.000000	0.430127
561.000000	0.430856
562.000000	0.431606
563.000000	0.432328
564.000000	0.433064
565.000000	0.433712
566.000000	0.434412
567.000000	0.435081
568.000000	0.435658
569.000000	0.436278
570.000000	0.436908
571.000000	0.437529
572.000000	0.438163
573.000000	0.438746
574.000000	0.439212
575.000000	0.439613
576.000000	0.440154
577.000000	0.440645
578.000000	0.441034
579.000000	0.441499
580.000000	0.442013
581.000000	0.442512
582.000000	0.442885
583.000000	0.443226
584.000000	0.443606
585.000000	0.444091
586.000000	0.444456
587.000000	0.444728
588.000000	0.445001
589.000000	0.445355
590.000000	0.445751
591.000000	0.446128
592.000000	0.446397
593.000000	0.446680
594.000000	0.446997
595.000000	0.447280
596.000000	0.447491
597.000000	0.447717
598.000000	0.447926
599.000000	0.448009
600.000000	0.448129
601.000000	0.448319
602.000000	0.448561
603.000000	0.448837
604.000000	0.449124
605.000000	0.449338
606.000000	0.449394
607.000000	0.449366
608.000000	0.449449
609.000000	0.449676
610.000000	0.449891
611.000000	0.449934
612.000000	0.450037
613.000000	0.450183
614.000000	0.450372
615.000000	0.450488
616.000000	0.450566
617.000000	0.450622
618.000000	0.450820
619.000000	0.451000
620.000000	0.451115
621.000000	0.451248
622.000000	0.451321
623.000000	0.451387
624.000000	0.451495
625.000000	0.451616
626.000000	0.451687
627.000000	0.451718
628.000000	0.451849
629.000000	0.452033
630.000000	0.452114
631.000000	0.452304
632.000000	0.452525
633.000000	0.452722
634.000000	0.452835
635.000000	0.452952
636.000000	0.453120
637.000000	0.453336
638.000000	0.453614
639.000000	0.453879
640.000000	0.454138
641.000000	0.454213
642.000000	0.454319
643.000000	0.454440
644.000000	0.454505
645.000000	0.454579
646.000000	0.454727
647.000000	0.454950
648.000000	0.455269
649.000000	0.455517
650.000000	0.455642
651.000000	0.455839
652.000000	0.456004
653.000000	0.456217
654.000000	0.456491
655.000000	0.456756
656.000000	0.457004
657.000000	0.457179
658.000000	0.457442
659.000000	0.457702
660.000000	0.457891
661.000000	0.458071
662.000000	0.458248
663.000000	0.458473
664.000000	0.458665
665.000000	0.458923
666.000000	0.459183
667.000000	0.459336
668.000000	0.459592
669.000000	0.459897
670.000000	0.460202
671.000000	0.460465
672.000000	0.460752
673.000000	0.461056
674.000000	0.461353
675.000000	0.461603
676.000000	0.461830
677.000000	0.462096
678.000000	0.462377
679.000000	0.462665
680.000000	0.462963
681.000000	0.463229
682.000000	0.463537
683.000000	0.463801
684.000000	0.464116
685.000000	0.464373
686.000000	0.464655
687.000000	0.465009
688.000000	0.465301
689.000000	0.465560
690.000000	0.465884
691.000000	0.466285
692.000000	0.466598
693.000000	0.466902
694.000000	0.467285
695.000000	0.467676
696.000000	0.468052
697.000000	0.468413
698.000000	0.468732
699.000000	0.469085
700.000000	0.469512
701.000000	0.469797
702.000000	0.470091
703.000000	0.470421
704.000000	0.470727
705.000000	0.471065
706.000000	0.471381
707.000000	0.471723
708.000000	0.472098
709.000000	0.472437
710.000000	0.472738
711.000000	0.473146
712.000000	0.473552
713.000000	0.473946
714.000000	0.474375
715.000000	0.474727
716.000000	0.475027
717.000000	0.475324
718.000000	0.475679
719.000000	0.476015
720.000000	0.476300
721.000000	0.476669
722.000000	0.476976
723.000000	0.477280
724.000000	0.477644
725.000000	0.477905
726.000000	0.478189
727.000000	0.478490
728.000000	0.478886
729.000000	0.479274
730.000000	0.479504
731.000000	0.479797
732.000000	0.480039
733.000000	0.480260
734.000000	0.480501
735.000000	0.480745
736.000000	0.481106
737.000000	0.481345
738.000000	0.481566
739.000000	0.481838
740.000000	0.481951
741.000000	0.482108
742.000000	0.482290
743.000000	0.482461
744.000000	0.482700
745.000000	0.482928
746.000000	0.483149
747.000000	0.483252
748.000000	0.483389
749.000000	0.483591
750.000000	0.483805
751.000000	0.484017
752.000000	0.484123
753.000000	0.484182
754.000000	0.484353
755.000000	0.484607
756.000000	0.484873
757.000000	0.485006
758.000000	0.485122
759.000000	0.485281
760.000000	0.485393
761.000000	0.485496
762.000000	0.485562
763.000000	0.485602
764.000000	0.485768
765.000000	0.485870
766.000000	0.485999
767.000000	0.486224
768.000000	0.486331
769.000000	0.486421
770.000000	0.486533
771.000000	0.486584
772.000000	0.486660
773.000000	0.486677
774.000000	0.486688
775.000000	0.486620
776.000000	0.486540
777.000000	0.486487
778.000000	0.486462
779.000000	0.486486
780.000000	0.486553
781.000000	0.486597
782.000000	0.486554
783.000000	0.486562
784.000000	0.486509
785.000000	0.486424
786.000000	0.486334
787.000000	0.486257
788.000000	0.486242
789.000000	0.486177
790.000000	0.486054
791.000000	0.485993
792.000000	0.485983
793.000000	0.485994
794.000000	0.485989
795.000000	0.485908
796.000000	0.485796
797.000000	0.485671
798.000000	0.485535
799.000000	0.485423
800.000000	0.485359
801.000000	0.485343
802.000000	0.485232
803.000000	0.485148
804.000000	0.485164
805.000000	0.485019
806.000000	0.484835
807.000000	0.484761
808.000000	0.484706
809.000000	0.484538
810.000000	0.484361
811.000000	0.484214
812.000000	0.483909
813.000000	0.483685
814.000000	0.483575
815.000000	0.483460
816.000000	0.483383
817.000000	0.483286
818.000000	0.483019
819.000000	0.482943
820.000000	0.482891
821.000000	0.482721
822.000000	0.482582
823.000000	0.482372
824.000000	0.482086
825.000000	0.481933
826.000000	0.481817
827.000000	0.481715
828.000000	0.481649
829.000000	0.481446
830.000000	0.481288
831.000000	0.481210
832.000000	0.480921
833.000000	0.480668
834.000000	0.480499
835.000000	0.480447
836.000000	0.480392
837.000000	0.480217
838.000000	0.479956
839.000000	0.479704
840.000000	0.479512
841.000000	0.479389
842.000000	0.479264
843.000000	0.479174
844.000000	0.479091
845.000000	0.478971
846.000000	0.478873
847.000000	0.478692
848.000000	0.478456
849.000000	0.478263
850.000000	0.478000
851.000000	0.477736
852.000000	0.477581
853.000000	0.477524
854.000000	0.477340
855.000000	0.477155
856.000000	0.476917
857.000000	0.476707
858.000000	0.476673
859.000000	0.476652
860.000000	0.476344
861.000000	0.476041
862.000000	0.475848
863.000000	0.475672
864.000000	0.475521
865.000000	0.475370
866.000000	0.475220
867.000000	0.474998
868.000000	0.474854
869.000000	0.474736
870.000000	0.474676
871.000000	0.474500
872.000000	0.474318
873.000000	0.474126
874.000000	0.473963
875.000000	0.473754
876.000000	0.473484
877.000000	0.473084
878.000000	0.472739
879.000000	0.472648
880.000000	0.472597
881.000000	0.472347
882.000000	0.472247
883.000000	0.472205
884.000000	0.471886
885.000000	0.471615
886.000000	0.471321
887.000000	0.471046
888.000000	0.470987
889.000000	0.470914
890.000000	0.470616
891.000000	0.470284
892.000000	0.470077
893.000000	0.469826
894.000000	0.469633
895.000000	0.469470
896.000000	0.469219
897.000000	0.468939
898.000000	0.468745
899.000000	0.468657
900.000000	0.468505
901.000000	0.468287
902.000000	0.468450
903.000000	0.468295
904.000000	0.468036
905.000000	0.467905
906.000000	0.467849
907.000000	0.467739
908.000000	0.467579
909.000000	0.467251
910.000000	0.466963
911.000000	0.466767
912.000000	0.466678
913.000000	0.466610
914.000000	0.466530
915.000000	0.466538
916.000000	0.466559
917.000000	0.466277
918.000000	0.466031
919.000000	0.465990
920.000000	0.465703
921.000000	0.465626
922.000000	0.465625
923.000000	0.465294
924.000000	0.465181
925.000000	0.465084
926.000000	0.464907
927.000000	0.464688
928.000000	0.464572
929.000000	0.464453
930.000000	0.464209
931.000000	0.464081
932.000000	0.463917
933.000000	0.463775
934.000000	0.463776
935.000000	0.463544
936.000000	0.463271
937.000000	0.463033
938.000000	0.462815
939.000000	0.462744
940.000000	0.462649
941.000000	0.462454
942.000000	0.462151
943.000000	0.462114
944.000000	0.462139
945.000000	0.461540
946.000000	0.461311
947.000000	0.461407
948.000000	0.461342
949.000000	0.461030
950.000000	0.460752
951.000000	0.460566
952.000000	0.460476
953.000000	0.460156
954.000000	0.459847
955.000000	0.459655
956.000000	0.459504
957.000000	0.459385
958.000000	0.459220
959.000000	0.459099
960.000000	0.458917
961.000000	0.458789
962.000000	0.458752
963.000000	0.458814
964.000000	0.458550
965.000000	0.458240
966.000000	0.457996
967.000000	0.457765
968.000000	0.457601
969.000000	0.457465
970.000000	0.457453
971.000000	0.457344
972.000000	0.457376
973.000000	0.457468
974.000000	0.457412
975.000000	0.457247
976.000000	0.457274
977.000000	0.457456
978.000000	0.456606
979.000000	0.456552
980.000000	0.456695
981.000000	0.456310
982.000000	0.456329
983.000000	0.456294
984.000000	0.456104
985.000000	0.455915
986.000000	0.456025
987.000000	0.456211
988.000000	0.456121
989.000000	0.455992
990.000000	0.455894
991.000000	0.455865
992.000000	0.455977
993.000000	0.456228
994.000000	0.456098
995.000000	0.455954
996.000000	0.456141
997.000000	0.456300
998.000000	0.456379
999.000000	0.456383
1000.000000	0.455960
1001.000000	0.456000
1002.000000	0.456159
1003.000000	0.456563
1004.000000	0.456636
1005.000000	0.456995
1006.000000	0.456957
1007.000000	0.456882
1008.000000	0.455830
1009.000000	0.455125
1010.000000	0.454971
1011.000000	0.455765
1012.000000	0.456340
1013.000000	0.456241
1014.000000	0.456370
1015.000000	0.455900
1016.000000	0.455613
1017.000000	0.455761
1018.000000	0.456041
1019.000000	0.456275
1020.000000	0.456489
1021.000000	0.456503
1022.000000	0.457344
1023.000000	0.457531
1024.000000	0.456788
1025.000000	0.456966
1026.000000	0.457553
1027.000000	0.457051
1028.000000	0.456958
1029.000000	0.457301
1030.000000	0.457341
1031.000000	0.457428
1032.000000	0.457630
1033.000000	0.458041
1034.000000	0.458115
1035.000000	0.457088
1036.000000	0.457281
1037.000000	0.458476
1038.000000	0.458971
1039.000000	0.459653
1040.000000	0.460701
1041.000000	0.460873
1042.000000	0.460159
1043.000000	0.460030
1044.000000	0.460668
1045.000000	0.461584
1046.000000	0.462091
1047.000000	0.462524
1048.000000	0.462973
1049.000000	0.462868
1050.000000	0.462221
1051.000000	0.461988
1052.000000	0.461135
1053.000000	0.461069
1054.000000	0.461927
1055.000000	0.462719
1056.000000	0.464118
1057.000000	0.465104
1058.000000	0.465588
1059.000000	0.465697
1060.000000	0.465508
1061.000000	0.465313
1062.000000	0.465532
1063.000000	0.466136
1064.000000	0.466507
1065.000000	0.466998
1066.000000	0.467340
1067.000000	0.467339
1068.000000	0.467499
1069.000000	0.467570
1070.000000	0.467918
1071.000000	0.468770
1072.000000	0.469144
1073.000000	0.469387
1074.000000	0.469824
1075.000000	0.470228
1076.000000	0.470563
1077.000000	0.470828
1078.000000	0.471198
1079.000000	0.471405
1080.000000	0.471147
1081.000000	0.471364
1082.000000	0.472162
1083.000000	0.472453
1084.000000	0.472522
1085.000000	0.472912
1086.000000	0.473351
1087.000000	0.473679
1088.000000	0.474039
1089.000000	0.474337
1090.000000	0.474433
1091.000000	0.474310
1092.000000	0.474733
1093.000000	0.475636
1094.000000	0.475859
1095.000000	0.475841
1096.000000	0.476061
1097.000000	0.475880
1098.000000	0.476153
1099.000000	0.476847
1100.000000	0.477365
1101.000000	0.477913
1102.000000	0.478245
1103.000000	0.478407
1104.000000	0.478682
1105.000000	0.478621
1106.000000	0.478925
1107.000000	0.479527
1108.000000	0.479992
1109.000000	0.480638
1110.000000	0.481386
1111.000000	0.481666
1112.000000	0.481644
1113.000000	0.481848
1114.000000	0.481784
1115.000000	0.482089
1116.000000	0.482832
1117.000000	0.483139
1118.000000	0.483386
1119.000000	0.483456
1120.000000	0.482978
1121.000000	0.483106
1122.000000	0.483821
1123.000000	0.484370
1124.000000	0.484844
1125.000000	0.485207
1126.000000	0.485200
1127.000000	0.485100
1128.000000	0.484926
1129.000000	0.484677
1130.000000	0.484775
1131.000000	0.484920
1132.000000	0.484994
1133.000000	0.485375
1134.000000	0.485684
1135.000000	0.485831
1136.000000	0.485899
1137.000000	0.485973
1138.000000	0.486068
1139.000000	0.486148
1140.000000	0.486324
1141.000000	0.486657
1142.000000	0.486856
1143.000000	0.486793
1144.000000	0.486946
1145.000000	0.486962
1146.000000	0.486840
1147.000000	0.486691
1148.000000	0.486271
1149.000000	0.486189
1150.000000	0.486166
1151.000000	0.486219
1152.000000	0.486406
1153.000000	0.486529
1154.000000	0.486670
1155.000000	0.486638
1156.000000	0.486580
1157.000000	0.486429
1158.000000	0.485850
1159.000000	0.485618
1160.000000	0.485490
1161.000000	0.485429
1162.000000	0.485650
1163.000000	0.486082
1164.000000	0.486183
1165.000000	0.485997
1166.000000	0.485907
1167.000000	0.485474
1168.000000	0.485432
1169.000000	0.485684
1170.000000	0.485731
1171.000000	0.485936
1172.000000	0.486032
1173.000000	0.485894
1174.000000	0.485827
1175.000000	0.485796
1176.000000	0.485674
1177.000000	0.485458
1178.000000	0.485455
1179.000000	0.485637
1180.000000	0.485579
1181.000000	0.485572
1182.000000	0.485703
1183.000000	0.485747
1184.000000	0.485697
1185.000000	0.485699
1186.000000	0.485782
1187.000000	0.485761
1188.000000	0.485617
1189.000000	0.485571
1190.000000	0.485632
1191.000000	0.485707
1192.000000	0.486037
1193.000000	0.486271
1194.000000	0.486327
1195.000000	0.486345
1196.000000	0.486118
1197.000000	0.486053
1198.000000	0.486044
1199.000000	0.486033
1200.000000	0.485987
1201.000000	0.486147
1202.000000	0.486157
1203.000000	0.486172
1204.000000	0.486355
1205.000000	0.486337
1206.000000	0.486269
1207.000000	0.486340
1208.000000	0.486263
1209.000000	0.486092
1210.000000	0.486029
1211.000000	0.485979
1212.000000	0.485932
1213.000000	0.485953
1214.000000	0.486028
1215.000000	0.486125
1216.000000	0.486188
1217.000000	0.486244
1218.000000	0.486275
1219.000000	0.486271
1220.000000	0.486392
1221.000000	0.486543
1222.000000	0.486608
1223.000000	0.486680
1224.000000	0.486724
1225.000000	0.486612
1226.000000	0.486541
1227.000000	0.486494
1228.000000	0.486492
1229.000000	0.486396
1230.000000	0.486218
1231.000000	0.486130
1232.000000	0.486215
1233.000000	0.486372
1234.000000	0.486709
1235.000000	0.486802
1236.000000	0.486556
1237.000000	0.486582
1238.000000	0.486506
1239.000000	0.486574
1240.000000	0.486875
1241.000000	0.487100
1242.000000	0.487194
1243.000000	0.487223
1244.000000	0.487057
1245.000000	0.486930
1246.000000	0.486950
1247.000000	0.487139
1248.000000	0.487354
1249.000000	0.487582
1250.000000	0.487596
1251.000000	0.487573
1252.000000	0.487578
1253.000000	0.487543
1254.000000	0.487583
1255.000000	0.487721
1256.000000	0.487769
1257.000000	0.487883
1258.000000	0.487988
1259.000000	0.487909
1260.000000	0.487978
1261.000000	0.487970
1262.000000	0.487980
1263.000000	0.488046
1264.000000	0.488191
1265.000000	0.488315
1266.000000	0.488405
1267.000000	0.488489
1268.000000	0.488511
1269.000000	0.488483
1270.000000	0.488632
1271.000000	0.488775
1272.000000	0.488844
1273.000000	0.488855
1274.000000	0.488796
1275.000000	0.488771
1276.000000	0.488790
1277.000000	0.488868
1278.000000	0.488848
1279.000000	0.488815
1280.000000	0.488727
1281.000000	0.488588
1282.000000	0.488399
1283.000000	0.488444
1284.000000	0.488445
1285.000000	0.488475
1286.000000	0.488576
1287.000000	0.488738
1288.000000	0.488801
1289.000000	0.488875
1290.000000	0.488788
1291.000000	0.488560
1292.000000	0.488464
1293.000000	0.488278
1294.000000	0.488038
1295.000000	0.488092
1296.000000	0.488057
1297.000000	0.487869
1298.000000	0.487952
1299.000000	0.488036
1300.000000	0.488014
1301.000000	0.487999
1302.000000	0.487872
1303.000000	0.487796
1304.000000	0.487594
1305.000000	0.487475
1306.000000	0.487329
1307.000000	0.487159
1308.000000	0.487030
1309.000000	0.486879
1310.000000	0.486752
1311.000000	0.486707
1312.000000	0.486587
1313.000000	0.486396
1314.000000	0.486230
1315.000000	0.485898
1316.000000	0.485675
1317.000000	0.485504
1318.000000	0.485284
1319.000000	0.484958
1320.000000	0.484579
1321.000000	0.484228
1322.000000	0.483941
1323.000000	0.483717
1324.000000	0.483615
1325.000000	0.483424
1326.000000	0.482981
1327.000000	0.482675
1328.000000	0.482519
1329.000000	0.482030
1330.000000	0.481371
1331.000000	0.480895
1332.000000	0.480315
1333.000000	0.479775
1334.000000	0.479560
1335.000000	0.479229
1336.000000	0.478735
1337.000000	0.478379
1338.000000	0.478078
1339.000000	0.477598
1340.000000	0.477134
1341.000000	0.476644
1342.000000	0.475991
1343.000000	0.475380
1344.000000	0.474761
1345.000000	0.474131
1346.000000	0.473869
1347.000000	0.473332
1348.000000	0.472776
1349.000000	0.472297
1350.000000	0.471547
1351.000000	0.470901
1352.000000	0.470426
1353.000000	0.469868
1354.000000	0.469400
1355.000000	0.468790
1356.000000	0.468146
1357.000000	0.467451
1358.000000	0.466747
1359.000000	0.466236
1360.000000	0.465724
1361.000000	0.465339
1362.000000	0.464881
1363.000000	0.464458
1364.000000	0.463937
1365.000000	0.463283
1366.000000	0.462815
1367.000000	0.462390
1368.000000	0.461837
1369.000000	0.461500
1370.000000	0.461006
1371.000000	0.460319
1372.000000	0.459637
1373.000000	0.459014
1374.000000	0.458370
1375.000000	0.457674
1376.000000	0.457039
1377.000000	0.456334
1378.000000	0.455711
1379.000000	0.455012
1380.000000	0.454086
1381.000000	0.452996
1382.000000	0.451821
1383.000000	0.450730
1384.000000	0.449521
1385.000000	0.448326
1386.000000	0.447131
1387.000000	0.445753
1388.000000	0.444406
1389.000000	0.443030
1390.000000	0.441538
1391.000000	0.439901
1392.000000	0.438302
1393.000000	0.436609
1394.000000	0.434955
1395.000000	0.433119
1396.000000	0.431224
1397.000000	0.429128
1398.000000	0.426686
1399.000000	0.424518
1400.000000	0.422433
1401.000000	0.420156
1402.000000	0.417946
1403.000000	0.415649
1404.000000	0.413332
1405.000000	0.410681
1406.000000	0.407974
1407.000000	0.405436
1408.000000	0.402705
1409.000000	0.400112
1410.000000	0.397690
1411.000000	0.395041
1412.000000	0.392328
1413.000000	0.389672
1414.000000	0.387022
1415.000000	0.384593
1416.000000	0.382182
1417.000000	0.379640
1418.000000	0.377148
1419.000000	0.374782
1420.000000	0.372364
1421.000000	0.370126
1422.000000	0.367913
1423.000000	0.365757
1424.000000	0.363506
1425.000000	0.361305
1426.000000	0.359169
1427.000000	0.356876
1428.000000	0.354739
1429.000000	0.352748
1430.000000	0.350653
1431.000000	0.348765
1432.000000	0.346990
1433.000000	0.345354
1434.000000	0.343693
1435.000000	0.342235
1436.000000	0.340812
1437.000000	0.339361
1438.000000	0.338015
1439.000000	0.336823
1440.000000	0.335731
1441.000000	0.334724
1442.000000	0.333786
1443.000000	0.332936
1444.000000	0.332108
1445.000000	0.331147
1446.000000	0.330168
1447.000000	0.329237
1448.000000	0.328465
1449.000000	0.327734
1450.000000	0.327063
1451.000000	0.326549
1452.000000	0.325768
1453.000000	0.325050
1454.000000	0.324492
1455.000000	0.323787
1456.000000	0.323331
1457.000000	0.322964
1458.000000	0.322579
1459.000000	0.322301
1460.000000	0.321781
1461.000000	0.321290
1462.000000	0.320827
1463.000000	0.320143
1464.000000	0.319807
1465.000000	0.319527
1466.000000	0.319132
1467.000000	0.319081
1468.000000	0.318957
1469.000000	0.318741
1470.000000	0.318624
1471.000000	0.318622
1472.000000	0.318641
1473.000000	0.318909
1474.000000	0.319249
1475.000000	0.319542
1476.000000	0.319917
1477.000000	0.320250
1478.000000	0.320723
1479.000000	0.321345
1480.000000	0.321902
1481.000000	0.322466
1482.000000	0.323173
1483.000000	0.323824
1484.000000	0.324366
1485.000000	0.325054
1486.000000	0.325815
1487.000000	0.326599
1488.000000	0.327493
1489.000000	0.328342
1490.000000	0.329056
1491.000000	0.329813
1492.000000	0.330552
1493.000000	0.331279
1494.000000	0.331926
1495.000000	0.332689
1496.000000	0.333519
1497.000000	0.334254
1498.000000	0.335047
1499.000000	0.335754
1500.000000	0.336330
1501.000000	0.336990
1502.000000	0.337627
1503.000000	0.338311
1504.000000	0.339064
1505.000000	0.339664
1506.000000	0.340247
1507.000000	0.340845
1508.000000	0.341414
1509.000000	0.341874
1510.000000	0.342319
1511.000000	0.342823
1512.000000	0.343315
1513.000000	0.343802
1514.000000	0.344280
1515.000000	0.344728
1516.000000	0.345117
1517.000000	0.345470
1518.000000	0.345736
1519.000000	0.345863
1520.000000	0.346097
1521.000000	0.346305
1522.000000	0.346673
1523.000000	0.347215
1524.000000	0.347506
1525.000000	0.347671
1526.000000	0.347840
1527.000000	0.348036
1528.000000	0.348347
1529.000000	0.348717
1530.000000	0.348850
1531.000000	0.348960
1532.000000	0.349233
1533.000000	0.349435
1534.000000	0.349711
1535.000000	0.350045
1536.000000	0.350102
1537.000000	0.350216
1538.000000	0.350417
1539.000000	0.350472
1540.000000	0.350587
1541.000000	0.350815
1542.000000	0.350984
1543.000000	0.351147
1544.000000	0.351275
1545.000000	0.351359
1546.000000	0.351531
1547.000000	0.351661
1548.000000	0.351698
1549.000000	0.351757
1550.000000	0.351717
1551.000000	0.351680
1552.000000	0.351779
1553.000000	0.351785
1554.000000	0.351785
1555.000000	0.351807
1556.000000	0.351747
1557.000000	0.351824
1558.000000	0.351855
1559.000000	0.351782
1560.000000	0.351764
1561.000000	0.351829
1562.000000	0.351740
1563.000000	0.351639
1564.000000	0.351648
1565.000000	0.351633
1566.000000	0.351513
1567.000000	0.351555
1568.000000	0.351475
1569.000000	0.351314
1570.000000	0.351236
1571.000000	0.351162
1572.000000	0.351150
1573.000000	0.351154
1574.000000	0.351167
1575.000000	0.351342
1576.000000	0.351345
1577.000000	0.351198
1578.000000	0.351195
1579.000000	0.351227
1580.000000	0.351258
1581.000000	0.351514
1582.000000	0.351555
1583.000000	0.351446
1584.000000	0.351392
1585.000000	0.351372
1586.000000	0.351380
1587.000000	0.351413
1588.000000	0.351406
1589.000000	0.351441
1590.000000	0.351411
1591.000000	0.351362
1592.000000	0.351343
1593.000000	0.351343
1594.000000	0.351261
1595.000000	0.351149
1596.000000	0.351138
1597.000000	0.351119
1598.000000	0.351163
1599.000000	0.351427
1600.000000	0.351536
1601.000000	0.351640
1602.000000	0.351776
1603.000000	0.351915
1604.000000	0.352057
1605.000000	0.352301
1606.000000	0.352461
1607.000000	0.352613
1608.000000	0.352697
1609.000000	0.352784
1610.000000	0.352881
1611.000000	0.352946
1612.000000	0.353100
1613.000000	0.353410
1614.000000	0.353634
1615.000000	0.353947
1616.000000	0.354233
1617.000000	0.354416
1618.000000	0.354675
1619.000000	0.354940
1620.000000	0.355224
1621.000000	0.355623
1622.000000	0.355954
1623.000000	0.356181
1624.000000	0.356466
1625.000000	0.356582
1626.000000	0.356800
1627.000000	0.357108
1628.000000	0.357445
1629.000000	0.357805
1630.000000	0.358215
1631.000000	0.358610
1632.000000	0.358937
1633.000000	0.359313
1634.000000	0.359667
1635.000000	0.359946
1636.000000	0.360333
1637.000000	0.360853
1638.000000	0.361241
1639.000000	0.361701
1640.000000	0.362073
1641.000000	0.362391
1642.000000	0.362747
1643.000000	0.363100
1644.000000	0.363521
1645.000000	0.363998
1646.000000	0.364406
1647.000000	0.364904
1648.000000	0.365261
1649.000000	0.365600
1650.000000	0.366049
1651.000000	0.366518
1652.000000	0.366986
1653.000000	0.367487
1654.000000	0.367964
1655.000000	0.368329
1656.000000	0.368679
1657.000000	0.369181
1658.000000	0.369488
1659.000000	0.369728
1660.000000	0.370167
1661.000000	0.370525
1662.000000	0.370890
1663.000000	0.371329
1664.000000	0.371762
1665.000000	0.372146
1666.000000	0.372567
1667.000000	0.372997
1668.000000	0.373348
1669.000000	0.373510
1670.000000	0.373887
1671.000000	0.374469
1672.000000	0.374982
1673.000000	0.375551
1674.000000	0.376127
1675.000000	0.376718
1676.000000	0.377225
1677.000000	0.377498
1678.000000	0.377550
1679.000000	0.377653
1680.000000	0.377814
1681.000000	0.377939
1682.000000	0.378199
1683.000000	0.378638
1684.000000	0.379068
1685.000000	0.379526
1686.000000	0.379885
1687.000000	0.380112
1688.000000	0.380414
1689.000000	0.380739
1690.000000	0.381119
1691.000000	0.381558
1692.000000	0.381589
1693.000000	0.381669
1694.000000	0.381793
1695.000000	0.381943
1696.000000	0.382169
1697.000000	0.382371
1698.000000	0.382623
1699.000000	0.382824
1700.000000	0.382992
1701.000000	0.383360
1702.000000	0.383553
1703.000000	0.383726
1704.000000	0.384154
1705.000000	0.384477
1706.000000	0.384700
1707.000000	0.384986
1708.000000	0.385319
1709.000000	0.385527
1710.000000	0.385778
1711.000000	0.386046
1712.000000	0.386347
1713.000000	0.386524
1714.000000	0.386680
1715.000000	0.386869
1716.000000	0.386989
1717.000000	0.387141
1718.000000	0.387309
1719.000000	0.387476
1720.000000	0.387663
1721.000000	0.387883
1722.000000	0.388133
1723.000000	0.388444
1724.000000	0.388881
1725.000000	0.389209
1726.000000	0.389466
1727.000000	0.389677
1728.000000	0.389608
1729.000000	0.389776
1730.000000	0.390240
1731.000000	0.390565
1732.000000	0.391049
1733.000000	0.391355
1734.000000	0.391264
1735.000000	0.391488
1736.000000	0.391743
1737.000000	0.391978
1738.000000	0.392336
1739.000000	0.392684
1740.000000	0.392946
1741.000000	0.393292
1742.000000	0.393820
1743.000000	0.394147
1744.000000	0.394360
1745.000000	0.394542
1746.000000	0.394571
1747.000000	0.394991
1748.000000	0.395206
1749.000000	0.395480
1750.000000	0.395647
1751.000000	0.395677
1752.000000	0.395940
1753.000000	0.396249
1754.000000	0.396418
1755.000000	0.396392
1756.000000	0.396560
1757.000000	0.396764
1758.000000	0.396968
1759.000000	0.397379
1760.000000	0.397634
1761.000000	0.397688
1762.000000	0.397745
1763.000000	0.397723
1764.000000	0.397855
1765.000000	0.397887
1766.000000	0.398167
1767.000000	0.398733
1768.000000	0.398956
1769.000000	0.399257
1770.000000	0.399503
1771.000000	0.399379
1772.000000	0.399592
1773.000000	0.399969
1774.000000	0.400232
1775.000000	0.400620
1776.000000	0.400964
1777.000000	0.401233
1778.000000	0.401403
1779.000000	0.401519
1780.000000	0.401734
1781.000000	0.401790
1782.000000	0.402035
1783.000000	0.402538
1784.000000	0.402950
1785.000000	0.403159
1786.000000	0.403506
1787.000000	0.403961
1788.000000	0.404295
1789.000000	0.404629
1790.000000	0.405079
1791.000000	0.405301
1792.000000	0.405454
1793.000000	0.405702
1794.000000	0.405825
1795.000000	0.406102
1796.000000	0.406679
1797.000000	0.407030
1798.000000	0.407255
1799.000000	0.407491
1800.000000	0.407706
1801.000000	0.407199
1802.000000	0.407487
1803.000000	0.407766
1804.000000	0.408206
1805.000000	0.409482
1806.000000	0.409878
1807.000000	0.409276
1808.000000	0.409509
1809.000000	0.410367
1810.000000	0.410499
1811.000000	0.410412
1812.000000	0.410458
1813.000000	0.410561
1814.000000	0.409953
1815.000000	0.410018
1816.000000	0.411282
1817.000000	0.411179
1818.000000	0.410237
1819.000000	0.409766
1820.000000	0.409459
1821.000000	0.409424
1822.000000	0.409620
1823.000000	0.411103
1824.000000	0.410918
1825.000000	0.409242
1826.000000	0.408969
1827.000000	0.408709
1828.000000	0.408228
1829.000000	0.408529
1830.000000	0.409704
1831.000000	0.409992
1832.000000	0.409835
1833.000000	0.409759
1834.000000	0.409575
1835.000000	0.409309
1836.000000	0.408592
1837.000000	0.408251
1838.000000	0.408174
1839.000000	0.407677
1840.000000	0.406961
1841.000000	0.406662
1842.000000	0.405854
1843.000000	0.404305
1844.000000	0.403546
1845.000000	0.402737
1846.000000	0.402193
1847.000000	0.402194
1848.000000	0.401832
1849.000000	0.400509
1850.000000	0.398821
1851.000000	0.397708
1852.000000	0.395921
1853.000000	0.394985
1854.000000	0.395205
1855.000000	0.394316
1856.000000	0.392935
1857.000000	0.391402
1858.000000	0.389986
1859.000000	0.388554
1860.000000	0.386731
1861.000000	0.385117
1862.000000	0.383387
1863.000000	0.381395
1864.000000	0.379334
1865.000000	0.377498
1866.000000	0.375402
1867.000000	0.373096
1868.000000	0.370484
1869.000000	0.367650
1870.000000	0.364502
1871.000000	0.360649
1872.000000	0.356445
1873.000000	0.352435
1874.000000	0.348080
1875.000000	0.344253
1876.000000	0.340649
1877.000000	0.336282
1878.000000	0.332371
1879.000000	0.328116
1880.000000	0.323132
1881.000000	0.319040
1882.000000	0.314212
1883.000000	0.308864
1884.000000	0.303805
1885.000000	0.298216
1886.000000	0.292761
1887.000000	0.287578
1888.000000	0.282098
1889.000000	0.275985
1890.000000	0.270262
1891.000000	0.263986
1892.000000	0.257812
1893.000000	0.252696
1894.000000	0.247359
1895.000000	0.241671
1896.000000	0.236089
1897.000000	0.230757
1898.000000	0.224760
1899.000000	0.219134
1900.000000	0.214067
1901.000000	0.209375
1902.000000	0.205134
1903.000000	0.200752
1904.000000	0.196901
1905.000000	0.192844
1906.000000	0.188213
1907.000000	0.182988
1908.000000	0.178271
1909.000000	0.173280
1910.000000	0.168149
1911.000000	0.164262
1912.000000	0.160948
1913.000000	0.157822
1914.000000	0.155163
1915.000000	0.152622
1916.000000	0.149747
1917.000000	0.147296
1918.000000	0.145027
1919.000000	0.143681
1920.000000	0.142032
1921.000000	0.140436
1922.000000	0.139125
1923.000000	0.137372
1924.000000	0.135949
1925.000000	0.135413
1926.000000	0.135124
1927.000000	0.134779
1928.000000	0.134353
1929.000000	0.134113
1930.000000	0.133437
1931.000000	0.132689
1932.000000	0.132033
1933.000000	0.131370
1934.000000	0.130932
1935.000000	0.130601
1936.000000	0.130971
1937.000000	0.131548
1938.000000	0.131932
1939.000000	0.131933
1940.000000	0.131840
1941.000000	0.130851
1942.000000	0.130133
1943.000000	0.130020
1944.000000	0.129664
1945.000000	0.129613
1946.000000	0.129615
1947.000000	0.128801
1948.000000	0.127935
1949.000000	0.127550
1950.000000	0.127182
1951.000000	0.126594
1952.000000	0.125966
1953.000000	0.125563
1954.000000	0.124612
1955.000000	0.123519
1956.000000	0.123486
1957.000000	0.123425
1958.000000	0.123585
1959.000000	0.123967
1960.000000	0.123376
1961.000000	0.122362
1962.000000	0.121713
1963.000000	0.120918
1964.000000	0.120677
1965.000000	0.120624
1966.000000	0.120996
1967.000000	0.122196
1968.000000	0.122534
1969.000000	0.122747
1970.000000	0.122882
1971.000000	0.122004
1972.000000	0.121581
1973.000000	0.121322
1974.000000	0.121322
1975.000000	0.121305
1976.000000	0.121526
1977.000000	0.121522
1978.000000	0.121871
1979.000000	0.121993
1980.000000	0.122292
1981.000000	0.122812
1982.000000	0.122986
1983.000000	0.123269
1984.000000	0.123804
1985.000000	0.124710
1986.000000	0.125360
1987.000000	0.126092
1988.000000	0.126870
1989.000000	0.127208
1990.000000	0.127668
1991.000000	0.128955
1992.000000	0.130154
1993.000000	0.131482
1994.000000	0.133463
1995.000000	0.134365
1996.000000	0.134955
1997.000000	0.135819
1998.000000	0.136704
1999.000000	0.137332
2000.000000	0.137888
2001.000000	0.138555
2002.000000	0.139330
2003.000000	0.140005
2004.000000	0.140885
2005.000000	0.142058
2006.000000	0.143286
2007.000000	0.144590
2008.000000	0.145871
2009.000000	0.147469
2010.000000	0.148883
2011.000000	0.149914
2012.000000	0.151325
2013.000000	0.153134
2014.000000	0.154198
2015.000000	0.155461
2016.000000	0.156415
2017.000000	0.157180
2018.000000	0.157971
2019.000000	0.158892
2020.000000	0.160171
2021.000000	0.161550
2022.000000	0.163121
2023.000000	0.164764
2024.000000	0.166973
2025.000000	0.168514
2026.000000	0.169695
2027.000000	0.170593
2028.000000	0.171963
2029.000000	0.173303
2030.000000	0.174892
2031.000000	0.176495
2032.000000	0.177501
2033.000000	0.178288
2034.000000	0.179535
2035.000000	0.181124
2036.000000	0.182499
2037.000000	0.184518
2038.000000	0.185852
2039.000000	0.186796
2040.000000	0.187551
2041.000000	0.188283
2042.000000	0.188853
2043.000000	0.190178
2044.000000	0.191657
2045.000000	0.193042
2046.000000	0.194435
2047.000000	0.195844
2048.000000	0.196999
2049.000000	0.198428
2050.000000	0.200175
2051.000000	0.201288
2052.000000	0.201854
2053.000000	0.202568
2054.000000	0.203173
2055.000000	0.203854
2056.000000	0.204597
2057.000000	0.205918
2058.000000	0.207118
2059.000000	0.208193
2060.000000	0.209271
2061.000000	0.210415
2062.000000	0.211392
2063.000000	0.212110
2064.000000	0.213071
2065.000000	0.214349
2066.000000	0.215332
2067.000000	0.216260
2068.000000	0.218002
2069.000000	0.218832
2070.000000	0.219690
2071.000000	0.221122
2072.000000	0.222115
2073.000000	0.223366
2074.000000	0.225073
2075.000000	0.226385
2076.000000	0.227316
2077.000000	0.228558
2078.000000	0.229796
2079.000000	0.231078
2080.000000	0.233021
2081.000000	0.234327
2082.000000	0.235292
2083.000000	0.236181
2084.000000	0.236916
2085.000000	0.236980
2086.000000	0.237314
2087.000000	0.238358
2088.000000	0.240198
2089.000000	0.241632
2090.000000	0.243282
2091.000000	0.245937
2092.000000	0.247171
2093.000000	0.247530
2094.000000	0.248394
2095.000000	0.248434
2096.000000	0.249434
2097.000000	0.251097
2098.000000	0.252641
2099.000000	0.254700
2100.000000	0.255794
2101.000000	0.256062
2102.000000	0.256252
2103.000000	0.256598
2104.000000	0.257000
2105.000000	0.257554
2106.000000	0.258286
2107.000000	0.259653
2108.000000	0.261709
2109.000000	0.263096
2110.000000	0.264896
2111.000000	0.266010
2112.000000	0.266426
2113.000000	0.265942
2114.000000	0.265879
2115.000000	0.266676
2116.000000	0.267577
2117.000000	0.267912
2118.000000	0.268951
2119.000000	0.269776
2120.000000	0.270907
2121.000000	0.272520
2122.000000	0.273659
2123.000000	0.274830
2124.000000	0.275832
2125.000000	0.276455
2126.000000	0.276914
2127.000000	0.277221
2128.000000	0.277652
2129.000000	0.277950
2130.000000	0.277988
2131.000000	0.277903
2132.000000	0.278534
2133.000000	0.278740
2134.000000	0.279102
2135.000000	0.280015
2136.000000	0.280112
2137.000000	0.280289
2138.000000	0.280220
2139.000000	0.280513
2140.000000	0.280688
2141.000000	0.281253
2142.000000	0.282610
2143.000000	0.282901
2144.000000	0.282763
2145.000000	0.283063
2146.000000	0.283469
2147.000000	0.283264
2148.000000	0.283851
2149.000000	0.285048
2150.000000	0.285221
2151.000000	0.285469
2152.000000	0.285739
2153.000000	0.285481
2154.000000	0.285471
2155.000000	0.285349
2156.000000	0.285912
2157.000000	0.286975
2158.000000	0.287556
2159.000000	0.288630
2160.000000	0.289111
2161.000000	0.288824
2162.000000	0.289205
2163.000000	0.289816
2164.000000	0.289911
2165.000000	0.290195
2166.000000	0.289747
2167.000000	0.288828
2168.000000	0.288609
2169.000000	0.289266
2170.000000	0.289426
2171.000000	0.289137
2172.000000	0.288801
2173.000000	0.288327
2174.000000	0.286969
2175.000000	0.286498
2176.000000	0.286539
2177.000000	0.286557
2178.000000	0.286543
2179.000000	0.286996
2180.000000	0.288198
2181.000000	0.288816
2182.000000	0.288854
2183.000000	0.289173
2184.000000	0.288952
2185.000000	0.288475
2186.000000	0.288143
2187.000000	0.289419
2188.000000	0.289767
2189.000000	0.289447
2190.000000	0.290371
2191.000000	0.290334
2192.000000	0.290665
2193.000000	0.292299
2194.000000	0.291676
2195.000000	0.289550
2196.000000	0.287993
2197.000000	0.283832
2198.000000	0.282753
2199.000000	0.283832
2200.000000	0.284356
2201.000000	0.287296
2202.000000	0.288787
2203.000000	0.288707
2204.000000	0.289627
2205.000000	0.291501
2206.000000	0.292574
2207.000000	0.292791
2208.000000	0.293832
2209.000000	0.293342
2210.000000	0.291272
2211.000000	0.290178
2212.000000	0.291507
2213.000000	0.291913
2214.000000	0.293123
2215.000000	0.292815
2216.000000	0.291080
2217.000000	0.290243
2218.000000	0.288358
2219.000000	0.288580
2220.000000	0.291288
2221.000000	0.293034
2222.000000	0.295455
2223.000000	0.296649
2224.000000	0.297758
2225.000000	0.297272
2226.000000	0.294489
2227.000000	0.292192
2228.000000	0.291453
2229.000000	0.290995
2230.000000	0.292892
2231.000000	0.296252
2232.000000	0.296768
2233.000000	0.297045
2234.000000	0.296892
2235.000000	0.296905
2236.000000	0.296716
2237.000000	0.296621
2238.000000	0.296056
2239.000000	0.294355
2240.000000	0.294114
2241.000000	0.294786
2242.000000	0.295207
2243.000000	0.296339
2244.000000	0.297109
2245.000000	0.297400
2246.000000	0.298488
2247.000000	0.300395
2248.000000	0.300923
2249.000000	0.301872
2250.000000	0.301473
2251.000000	0.297605
2252.000000	0.294872
2253.000000	0.292827
2254.000000	0.290488
2255.000000	0.290304
2256.000000	0.291178
2257.000000	0.292795
2258.000000	0.292611
2259.000000	0.291545
2260.000000	0.290627
2261.000000	0.289967
2262.000000	0.289111
2263.000000	0.288137
2264.000000	0.287243
2265.000000	0.286943
2266.000000	0.286451
2267.000000	0.285668
2268.000000	0.285554
2269.000000	0.285529
2270.000000	0.284579
2271.000000	0.284201
2272.000000	0.285431
2273.000000	0.284907
2274.000000	0.283502
2275.000000	0.282247
2276.000000	0.279531
2277.000000	0.278367
2278.000000	0.277779
2279.000000	0.277534
2280.000000	0.280155
2281.000000	0.280178
2282.000000	0.279898
2283.000000	0.279685
2284.000000	0.276889
2285.000000	0.275192
2286.000000	0.276076
2287.000000	0.275677
2288.000000	0.275094
2289.000000	0.275642
2290.000000	0.272999
2291.000000	0.270635
2292.000000	0.268182
2293.000000	0.264141
2294.000000	0.261700
2295.000000	0.259534
2296.000000	0.258206
2297.000000	0.258151
2298.000000	0.257735
2299.000000	0.257936
2300.000000	0.257422
2301.000000	0.256135
2302.000000	0.256256
2303.000000	0.257294
2304.000000	0.256897
2305.000000	0.256956
2306.000000	0.256430
2307.000000	0.254603
2308.000000	0.252394
2309.000000	0.252250
2310.000000	0.250220
2311.000000	0.248343
2312.000000	0.247719
2313.000000	0.244336
2314.000000	0.242539
2315.000000	0.239672
2316.000000	0.236279
2317.000000	0.236232
2318.000000	0.236366
2319.000000	0.237917
2320.000000	0.240297
2321.000000	0.240987
2322.000000	0.239643
2323.000000	0.238071
2324.000000	0.235769
2325.000000	0.233726
2326.000000	0.232029
2327.000000	0.230105
2328.000000	0.228750
2329.000000	0.227622
2330.000000	0.228439
2331.000000	0.229807
2332.000000	0.231399
2333.000000	0.232614
2334.000000	0.232820
2335.000000	0.231333
2336.000000	0.225634
2337.000000	0.223313
2338.000000	0.221447
2339.000000	0.218819
2340.000000	0.218435
2341.000000	0.215695
2342.000000	0.209781
2343.000000	0.207089
2344.000000	0.204941
2345.000000	0.203819
2346.000000	0.205345
2347.000000	0.204518
2348.000000	0.203321
2349.000000	0.201446
2350.000000	0.198970
2351.000000	0.198607
2352.000000	0.198471
2353.000000	0.195568
2354.000000	0.189574
2355.000000	0.182957
2356.000000	0.177937
2357.000000	0.175156
2358.000000	0.177963
2359.000000	0.182069
2360.000000	0.183642
2361.000000	0.185963
2362.000000	0.182814
2363.000000	0.179289
2364.000000	0.177258
2365.000000	0.172838
2366.000000	0.173262
2367.000000	0.172939
2368.000000	0.171008
2369.000000	0.172461
2370.000000	0.171976
2371.000000	0.170534
2372.000000	0.168929
2373.000000	0.163966
2374.000000	0.161184
2375.000000	0.159326
2376.000000	0.154610
2377.000000	0.154729
2378.000000	0.152812
2379.000000	0.150187
2380.000000	0.151864
2381.000000	0.153442
2382.000000	0.157815
2383.000000	0.157442
2384.000000	0.153133
2385.000000	0.148465
2386.000000	0.143378
2387.000000	0.144986
2388.000000	0.149369
2389.000000	0.151819
2390.000000	0.154393
2391.000000	0.151287
2392.000000	0.148312
2393.000000	0.148335
2394.000000	0.144243
2395.000000	0.142690
2396.000000	0.145798
2397.000000	0.146739
2398.000000	0.144941
2399.000000	0.144458
2400.000000	0.138781
2401.000000	0.135156
2402.000000	0.137786
2403.000000	0.137845
2404.000000	0.139675
2405.000000	0.139893
2406.000000	0.141250
2407.000000	0.143120
2408.000000	0.141462
2409.000000	0.142726
2410.000000	0.141291
2411.000000	0.136277
2412.000000	0.132954
2413.000000	0.133274
2414.000000	0.134084
2415.000000	0.139264
2416.000000	0.144544
2417.000000	0.134267
2418.000000	0.125647
2419.000000	0.118041
2420.000000	0.109362
2421.000000	0.109500
2422.000000	0.103772
2423.000000	0.104440
2424.000000	0.109672
2425.000000	0.110873
2426.000000	0.117279
2427.000000	0.117065
2428.000000	0.116186
2429.000000	0.119544
2430.000000	0.123905
2431.000000	0.133197
2432.000000	0.134106
2433.000000	0.123912
2434.000000	0.118472
2435.000000	0.118690
2436.000000	0.116503
2437.000000	0.128878
2438.000000	0.140434
2439.000000	0.133531
2440.000000	0.136801
2441.000000	0.131064
2442.000000	0.119802
2443.000000	0.124529
2444.000000	0.125845
2445.000000	0.131911
2446.000000	0.143347
2447.000000	0.142856
2448.000000	0.136423
2449.000000	0.138218
2450.000000	0.135661
2451.000000	0.127842
2452.000000	0.134642
2453.000000	0.131945
2454.000000	0.136627
2455.000000	0.159637
2456.000000	0.156509
2457.000000	0.147265
2458.000000	0.148454
2459.000000	0.137075
2460.000000	0.137736
2461.000000	0.153098
2462.000000	0.142259
2463.000000	0.136702
2464.000000	0.129189
2465.000000	0.110559
2466.000000	0.117326
2467.000000	0.105226
2468.000000	0.076569
2469.000000	0.064432
2470.000000	0.037439
2471.000000	0.026293
2472.000000	0.031512
2473.000000	0.037178
2474.000000	0.049338
2475.000000	0.038234
2476.000000	0.049518
2477.000000	0.062013
2478.000000	0.062245
2479.000000	0.084998
2480.000000	0.095673
2481.000000	0.101263
2482.000000	0.105302
2483.000000	0.094069
2484.000000	0.089800
2485.000000	0.085941
2486.000000	0.077272
2487.000000	0.094708
2488.000000	0.090859
2489.000000	0.078653
2490.000000	0.061909
2491.000000	0.032039
2492.000000	0.021097
2493.000000	-0.000639
2494.000000	0.008582
2495.000000	0.062508
2496.000000	0.076186
2497.000000	0.108549
2498.000000	0.129244
2499.000000	0.093220
2500.000000	0.108697
