# Wavelength	NAu-1-10_HEX-80_FV7-10_00000.asd.rts.txt
350.000000	0.282300
351.000000	0.285655
352.000000	0.298264
353.000000	0.298422
354.000000	0.284893
355.000000	0.282409
356.000000	0.272684
357.000000	0.263417
358.000000	0.277828
359.000000	0.275733
360.000000	0.270551
361.000000	0.281530
362.000000	0.278822
363.000000	0.272607
364.000000	0.272037
365.000000	0.280488
366.000000	0.285961
367.000000	0.285630
368.000000	0.284829
369.000000	0.279592
370.000000	0.274167
371.000000	0.274236
372.000000	0.277687
373.000000	0.280338
374.000000	0.279844
375.000000	0.275436
376.000000	0.276320
377.000000	0.282145
378.000000	0.283863
379.000000	0.288716
380.000000	0.291727
381.000000	0.287320
382.000000	0.288487
383.000000	0.289713
384.000000	0.287525
385.000000	0.289062
386.000000	0.289705
387.000000	0.289529
388.000000	0.293472
389.000000	0.295712
390.000000	0.296477
391.000000	0.297532
392.000000	0.297678
393.000000	0.297553
394.000000	0.297868
395.000000	0.298861
396.000000	0.300425
397.000000	0.302169
398.000000	0.303335
399.000000	0.304715
400.000000	0.306504
401.000000	0.308405
402.000000	0.309043
403.000000	0.309564
404.000000	0.311093
405.000000	0.311763
406.000000	0.312903
407.000000	0.314829
408.000000	0.315855
409.000000	0.316702
410.000000	0.317593
411.000000	0.318478
412.000000	0.319447
413.000000	0.320202
414.000000	0.320595
415.000000	0.321630
416.000000	0.322536
417.000000	0.322936
418.000000	0.323562
419.000000	0.323892
420.000000	0.323999
421.000000	0.324422
422.000000	0.325430
423.000000	0.326175
424.000000	0.325806
425.000000	0.326079
426.000000	0.326570
427.000000	0.326779
428.000000	0.326986
429.000000	0.327053
430.000000	0.327015
431.000000	0.327115
432.000000	0.327332
433.000000	0.327448
434.000000	0.327324
435.000000	0.327870
436.000000	0.328259
437.000000	0.327753
438.000000	0.327763
439.000000	0.327886
440.000000	0.327892
441.000000	0.327542
442.000000	0.327290
443.000000	0.327102
444.000000	0.326821
445.000000	0.326787
446.000000	0.327152
447.000000	0.327705
448.000000	0.328082
449.000000	0.328863
450.000000	0.330294
451.000000	0.331376
452.000000	0.332764
453.000000	0.334432
454.000000	0.335867
455.000000	0.337768
456.000000	0.339911
457.000000	0.341510
458.000000	0.343309
459.000000	0.345048
460.000000	0.346528
461.000000	0.348149
462.000000	0.349710
463.000000	0.350875
464.000000	0.351724
465.000000	0.352709
466.000000	0.353743
467.000000	0.354563
468.000000	0.355323
469.000000	0.355755
470.000000	0.355901
471.000000	0.356691
472.000000	0.357538
473.000000	0.358039
474.000000	0.358427
475.000000	0.358983
476.000000	0.359809
477.000000	0.360318
478.000000	0.360506
479.000000	0.360891
480.000000	0.361669
481.000000	0.362075
482.000000	0.362517
483.000000	0.363099
484.000000	0.363545
485.000000	0.363915
486.000000	0.364444
487.000000	0.364808
488.000000	0.365277
489.000000	0.365848
490.000000	0.366307
491.000000	0.366904
492.000000	0.367548
493.000000	0.367929
494.000000	0.368513
495.000000	0.369197
496.000000	0.369770
497.000000	0.370104
498.000000	0.370606
499.000000	0.371392
500.000000	0.371951
501.000000	0.372520
502.000000	0.373171
503.000000	0.373792
504.000000	0.374338
505.000000	0.374854
506.000000	0.375406
507.000000	0.375994
508.000000	0.376659
509.000000	0.377339
510.000000	0.377964
511.000000	0.378575
512.000000	0.379221
513.000000	0.379888
514.000000	0.380575
515.000000	0.381235
516.000000	0.381756
517.000000	0.382512
518.000000	0.383346
519.000000	0.383988
520.000000	0.384605
521.000000	0.385283
522.000000	0.386047
523.000000	0.386812
524.000000	0.387585
525.000000	0.388333
526.000000	0.389069
527.000000	0.389865
528.000000	0.390622
529.000000	0.391315
530.000000	0.392049
531.000000	0.392847
532.000000	0.393601
533.000000	0.394411
534.000000	0.395243
535.000000	0.396057
536.000000	0.396851
537.000000	0.397656
538.000000	0.398460
539.000000	0.399220
540.000000	0.400071
541.000000	0.400889
542.000000	0.401615
543.000000	0.402365
544.000000	0.403171
545.000000	0.403959
546.000000	0.404823
547.000000	0.405664
548.000000	0.406527
549.000000	0.407424
550.000000	0.408209
551.000000	0.408945
552.000000	0.409672
553.000000	0.410423
554.000000	0.411188
555.000000	0.411955
556.000000	0.412686
557.000000	0.413431
558.000000	0.414305
559.000000	0.414939
560.000000	0.415615
561.000000	0.416418
562.000000	0.417126
563.000000	0.417819
564.000000	0.418544
565.000000	0.419181
566.000000	0.419851
567.000000	0.420495
568.000000	0.421070
569.000000	0.421717
570.000000	0.422342
571.000000	0.422904
572.000000	0.423436
573.000000	0.424017
574.000000	0.424569
575.000000	0.425052
576.000000	0.425501
577.000000	0.425904
578.000000	0.426336
579.000000	0.426695
580.000000	0.427117
581.000000	0.427610
582.000000	0.427984
583.000000	0.428331
584.000000	0.428701
585.000000	0.429133
586.000000	0.429514
587.000000	0.429811
588.000000	0.430060
589.000000	0.430519
590.000000	0.430938
591.000000	0.431169
592.000000	0.431374
593.000000	0.431685
594.000000	0.432069
595.000000	0.432326
596.000000	0.432532
597.000000	0.432771
598.000000	0.432972
599.000000	0.432972
600.000000	0.433048
601.000000	0.433303
602.000000	0.433521
603.000000	0.433705
604.000000	0.433865
605.000000	0.433940
606.000000	0.434122
607.000000	0.434345
608.000000	0.434364
609.000000	0.434546
610.000000	0.434763
611.000000	0.434816
612.000000	0.434960
613.000000	0.435136
614.000000	0.435333
615.000000	0.435516
616.000000	0.435661
617.000000	0.435739
618.000000	0.435869
619.000000	0.435994
620.000000	0.436079
621.000000	0.436178
622.000000	0.436243
623.000000	0.436305
624.000000	0.436400
625.000000	0.436556
626.000000	0.436637
627.000000	0.436662
628.000000	0.436927
629.000000	0.437185
630.000000	0.437278
631.000000	0.437497
632.000000	0.437634
633.000000	0.437759
634.000000	0.437940
635.000000	0.438084
636.000000	0.438185
637.000000	0.438257
638.000000	0.438452
639.000000	0.438654
640.000000	0.438863
641.000000	0.438921
642.000000	0.439084
643.000000	0.439309
644.000000	0.439472
645.000000	0.439597
646.000000	0.439763
647.000000	0.439973
648.000000	0.440162
649.000000	0.440346
650.000000	0.440511
651.000000	0.440700
652.000000	0.440829
653.000000	0.440980
654.000000	0.441183
655.000000	0.441413
656.000000	0.441684
657.000000	0.441921
658.000000	0.442111
659.000000	0.442307
660.000000	0.442504
661.000000	0.442664
662.000000	0.442853
663.000000	0.443123
664.000000	0.443369
665.000000	0.443581
666.000000	0.443796
667.000000	0.444009
668.000000	0.444225
669.000000	0.444461
670.000000	0.444727
671.000000	0.444982
672.000000	0.445255
673.000000	0.445537
674.000000	0.445827
675.000000	0.446027
676.000000	0.446224
677.000000	0.446556
678.000000	0.446843
679.000000	0.447132
680.000000	0.447465
681.000000	0.447732
682.000000	0.448079
683.000000	0.448418
684.000000	0.448760
685.000000	0.449063
686.000000	0.449370
687.000000	0.449671
688.000000	0.449998
689.000000	0.450311
690.000000	0.450616
691.000000	0.450854
692.000000	0.451082
693.000000	0.451396
694.000000	0.451664
695.000000	0.451967
696.000000	0.452284
697.000000	0.452563
698.000000	0.452893
699.000000	0.453235
700.000000	0.453564
701.000000	0.453904
702.000000	0.454258
703.000000	0.454595
704.000000	0.454910
705.000000	0.455310
706.000000	0.455691
707.000000	0.456007
708.000000	0.456396
709.000000	0.456772
710.000000	0.457094
711.000000	0.457472
712.000000	0.457859
713.000000	0.458242
714.000000	0.458564
715.000000	0.458869
716.000000	0.459162
717.000000	0.459397
718.000000	0.459686
719.000000	0.460000
720.000000	0.460319
721.000000	0.460642
722.000000	0.460951
723.000000	0.461318
724.000000	0.461665
725.000000	0.461959
726.000000	0.462293
727.000000	0.462565
728.000000	0.462862
729.000000	0.463183
730.000000	0.463451
731.000000	0.463787
732.000000	0.464056
733.000000	0.464271
734.000000	0.464459
735.000000	0.464619
736.000000	0.464909
737.000000	0.465163
738.000000	0.465407
739.000000	0.465694
740.000000	0.465828
741.000000	0.466059
742.000000	0.466277
743.000000	0.466449
744.000000	0.466758
745.000000	0.466978
746.000000	0.467166
747.000000	0.467314
748.000000	0.467463
749.000000	0.467647
750.000000	0.467832
751.000000	0.468010
752.000000	0.468176
753.000000	0.468337
754.000000	0.468469
755.000000	0.468649
756.000000	0.468863
757.000000	0.469007
758.000000	0.469157
759.000000	0.469306
760.000000	0.469354
761.000000	0.469433
762.000000	0.469539
763.000000	0.469637
764.000000	0.469782
765.000000	0.469892
766.000000	0.469998
767.000000	0.470120
768.000000	0.470198
769.000000	0.470210
770.000000	0.470188
771.000000	0.470231
772.000000	0.470306
773.000000	0.470338
774.000000	0.470420
775.000000	0.470378
776.000000	0.470328
777.000000	0.470338
778.000000	0.470327
779.000000	0.470360
780.000000	0.470430
781.000000	0.470422
782.000000	0.470405
783.000000	0.470461
784.000000	0.470405
785.000000	0.470362
786.000000	0.470316
787.000000	0.470260
788.000000	0.470255
789.000000	0.470215
790.000000	0.470126
791.000000	0.470080
792.000000	0.470066
793.000000	0.470053
794.000000	0.470026
795.000000	0.470008
796.000000	0.469932
797.000000	0.469782
798.000000	0.469603
799.000000	0.469475
800.000000	0.469372
801.000000	0.469249
802.000000	0.469178
803.000000	0.469147
804.000000	0.469145
805.000000	0.468952
806.000000	0.468731
807.000000	0.468646
808.000000	0.468618
809.000000	0.468474
810.000000	0.468333
811.000000	0.468249
812.000000	0.468029
813.000000	0.467843
814.000000	0.467735
815.000000	0.467668
816.000000	0.467590
817.000000	0.467495
818.000000	0.467290
819.000000	0.467214
820.000000	0.467150
821.000000	0.466965
822.000000	0.466744
823.000000	0.466576
824.000000	0.466366
825.000000	0.466158
826.000000	0.466091
827.000000	0.466025
828.000000	0.465923
829.000000	0.465799
830.000000	0.465542
831.000000	0.465283
832.000000	0.465034
833.000000	0.464893
834.000000	0.464834
835.000000	0.464850
836.000000	0.464878
837.000000	0.464650
838.000000	0.464268
839.000000	0.464070
840.000000	0.463879
841.000000	0.463746
842.000000	0.463659
843.000000	0.463536
844.000000	0.463406
845.000000	0.463253
846.000000	0.463124
847.000000	0.462996
848.000000	0.462783
849.000000	0.462489
850.000000	0.462316
851.000000	0.462160
852.000000	0.462026
853.000000	0.461928
854.000000	0.461701
855.000000	0.461525
856.000000	0.461368
857.000000	0.461122
858.000000	0.461022
859.000000	0.460983
860.000000	0.460725
861.000000	0.460547
862.000000	0.460449
863.000000	0.460223
864.000000	0.460008
865.000000	0.459833
866.000000	0.459719
867.000000	0.459568
868.000000	0.459518
869.000000	0.459394
870.000000	0.459115
871.000000	0.458908
872.000000	0.458732
873.000000	0.458494
874.000000	0.458394
875.000000	0.458152
876.000000	0.457832
877.000000	0.457547
878.000000	0.457377
879.000000	0.457294
880.000000	0.457069
881.000000	0.456862
882.000000	0.456621
883.000000	0.456434
884.000000	0.456319
885.000000	0.456185
886.000000	0.455964
887.000000	0.455707
888.000000	0.455550
889.000000	0.455409
890.000000	0.455140
891.000000	0.454936
892.000000	0.454852
893.000000	0.454713
894.000000	0.454589
895.000000	0.454389
896.000000	0.454098
897.000000	0.453805
898.000000	0.453614
899.000000	0.453426
900.000000	0.453155
901.000000	0.452835
902.000000	0.452856
903.000000	0.452735
904.000000	0.452545
905.000000	0.452341
906.000000	0.452254
907.000000	0.452149
908.000000	0.452026
909.000000	0.451771
910.000000	0.451592
911.000000	0.451464
912.000000	0.451345
913.000000	0.451199
914.000000	0.451031
915.000000	0.450933
916.000000	0.450804
917.000000	0.450592
918.000000	0.450431
919.000000	0.450379
920.000000	0.450353
921.000000	0.450225
922.000000	0.450044
923.000000	0.449907
924.000000	0.449830
925.000000	0.449661
926.000000	0.449412
927.000000	0.449242
928.000000	0.449094
929.000000	0.448950
930.000000	0.448808
931.000000	0.448663
932.000000	0.448600
933.000000	0.448545
934.000000	0.448101
935.000000	0.447691
936.000000	0.447493
937.000000	0.447366
938.000000	0.447029
939.000000	0.446973
940.000000	0.447045
941.000000	0.446955
942.000000	0.446703
943.000000	0.446617
944.000000	0.446616
945.000000	0.446461
946.000000	0.446074
947.000000	0.445834
948.000000	0.445976
949.000000	0.445865
950.000000	0.445677
951.000000	0.445462
952.000000	0.445295
953.000000	0.445080
954.000000	0.444802
955.000000	0.444444
956.000000	0.444367
957.000000	0.444370
958.000000	0.444214
959.000000	0.443896
960.000000	0.443711
961.000000	0.443496
962.000000	0.443251
963.000000	0.443278
964.000000	0.443191
965.000000	0.443009
966.000000	0.442697
967.000000	0.442551
968.000000	0.442328
969.000000	0.442059
970.000000	0.442039
971.000000	0.441859
972.000000	0.441876
973.000000	0.442050
974.000000	0.442078
975.000000	0.441897
976.000000	0.441749
977.000000	0.441723
978.000000	0.441249
979.000000	0.441254
980.000000	0.441239
981.000000	0.440921
982.000000	0.440696
983.000000	0.440684
984.000000	0.440816
985.000000	0.440644
986.000000	0.440623
987.000000	0.440675
988.000000	0.440569
989.000000	0.440570
990.000000	0.440555
991.000000	0.440539
992.000000	0.440605
993.000000	0.440529
994.000000	0.440562
995.000000	0.440774
996.000000	0.440576
997.000000	0.440725
998.000000	0.440767
999.000000	0.440653
1000.000000	0.440759
1001.000000	0.441156
1002.000000	0.440754
1003.000000	0.440269
1004.000000	0.439891
1005.000000	0.438907
1006.000000	0.438475
1007.000000	0.438585
1008.000000	0.438527
1009.000000	0.438639
1010.000000	0.438556
1011.000000	0.438531
1012.000000	0.439052
1013.000000	0.439134
1014.000000	0.439153
1015.000000	0.439569
1016.000000	0.440211
1017.000000	0.440213
1018.000000	0.440041
1019.000000	0.440476
1020.000000	0.441513
1021.000000	0.441378
1022.000000	0.441738
1023.000000	0.441958
1024.000000	0.441045
1025.000000	0.440752
1026.000000	0.441418
1027.000000	0.441306
1028.000000	0.441438
1029.000000	0.441843
1030.000000	0.441384
1031.000000	0.441151
1032.000000	0.441807
1033.000000	0.442013
1034.000000	0.442253
1035.000000	0.442949
1036.000000	0.443228
1037.000000	0.442885
1038.000000	0.442881
1039.000000	0.443141
1040.000000	0.443364
1041.000000	0.443545
1042.000000	0.443963
1043.000000	0.444137
1044.000000	0.444407
1045.000000	0.444391
1046.000000	0.443925
1047.000000	0.444185
1048.000000	0.444698
1049.000000	0.444837
1050.000000	0.445385
1051.000000	0.445552
1052.000000	0.444837
1053.000000	0.444803
1054.000000	0.445374
1055.000000	0.445930
1056.000000	0.446839
1057.000000	0.447574
1058.000000	0.448205
1059.000000	0.448550
1060.000000	0.448876
1061.000000	0.449532
1062.000000	0.449834
1063.000000	0.449644
1064.000000	0.449702
1065.000000	0.449215
1066.000000	0.449533
1067.000000	0.450472
1068.000000	0.451009
1069.000000	0.451868
1070.000000	0.452208
1071.000000	0.451926
1072.000000	0.452046
1073.000000	0.452134
1074.000000	0.452535
1075.000000	0.453340
1076.000000	0.453806
1077.000000	0.453759
1078.000000	0.453903
1079.000000	0.454168
1080.000000	0.454346
1081.000000	0.454622
1082.000000	0.455429
1083.000000	0.455733
1084.000000	0.455571
1085.000000	0.455962
1086.000000	0.456632
1087.000000	0.457056
1088.000000	0.457464
1089.000000	0.457810
1090.000000	0.457765
1091.000000	0.457873
1092.000000	0.458569
1093.000000	0.459517
1094.000000	0.459811
1095.000000	0.460032
1096.000000	0.459963
1097.000000	0.459017
1098.000000	0.459068
1099.000000	0.459207
1100.000000	0.459826
1101.000000	0.461380
1102.000000	0.462051
1103.000000	0.462552
1104.000000	0.463051
1105.000000	0.462869
1106.000000	0.463164
1107.000000	0.463774
1108.000000	0.464261
1109.000000	0.464949
1110.000000	0.465704
1111.000000	0.465896
1112.000000	0.465817
1113.000000	0.465832
1114.000000	0.465374
1115.000000	0.465458
1116.000000	0.465878
1117.000000	0.466156
1118.000000	0.466571
1119.000000	0.466768
1120.000000	0.466738
1121.000000	0.466972
1122.000000	0.467593
1123.000000	0.468063
1124.000000	0.468301
1125.000000	0.468486
1126.000000	0.468026
1127.000000	0.467949
1128.000000	0.468018
1129.000000	0.468303
1130.000000	0.468591
1131.000000	0.469167
1132.000000	0.469406
1133.000000	0.469643
1134.000000	0.469819
1135.000000	0.469711
1136.000000	0.469806
1137.000000	0.469934
1138.000000	0.470034
1139.000000	0.470437
1140.000000	0.470677
1141.000000	0.470705
1142.000000	0.470806
1143.000000	0.470785
1144.000000	0.470898
1145.000000	0.470887
1146.000000	0.470704
1147.000000	0.470590
1148.000000	0.470170
1149.000000	0.470195
1150.000000	0.470525
1151.000000	0.470606
1152.000000	0.470694
1153.000000	0.470767
1154.000000	0.470588
1155.000000	0.470551
1156.000000	0.470765
1157.000000	0.470726
1158.000000	0.470442
1159.000000	0.470245
1160.000000	0.469830
1161.000000	0.469671
1162.000000	0.469771
1163.000000	0.470042
1164.000000	0.470224
1165.000000	0.470209
1166.000000	0.470279
1167.000000	0.470215
1168.000000	0.470084
1169.000000	0.469928
1170.000000	0.469964
1171.000000	0.470072
1172.000000	0.470123
1173.000000	0.470321
1174.000000	0.470333
1175.000000	0.470044
1176.000000	0.469872
1177.000000	0.469801
1178.000000	0.469796
1179.000000	0.469857
1180.000000	0.469806
1181.000000	0.469881
1182.000000	0.469974
1183.000000	0.469995
1184.000000	0.470023
1185.000000	0.470044
1186.000000	0.470036
1187.000000	0.470081
1188.000000	0.470175
1189.000000	0.470135
1190.000000	0.470149
1191.000000	0.470165
1192.000000	0.470255
1193.000000	0.470418
1194.000000	0.470450
1195.000000	0.470528
1196.000000	0.470584
1197.000000	0.470537
1198.000000	0.470403
1199.000000	0.470430
1200.000000	0.470397
1201.000000	0.470477
1202.000000	0.470662
1203.000000	0.470801
1204.000000	0.470761
1205.000000	0.470685
1206.000000	0.470617
1207.000000	0.470665
1208.000000	0.470615
1209.000000	0.470590
1210.000000	0.470628
1211.000000	0.470670
1212.000000	0.470728
1213.000000	0.470927
1214.000000	0.471058
1215.000000	0.471170
1216.000000	0.471181
1217.000000	0.471044
1218.000000	0.471004
1219.000000	0.470918
1220.000000	0.471002
1221.000000	0.471161
1222.000000	0.471204
1223.000000	0.471260
1224.000000	0.471226
1225.000000	0.471094
1226.000000	0.471110
1227.000000	0.471097
1228.000000	0.471081
1229.000000	0.471061
1230.000000	0.471078
1231.000000	0.471001
1232.000000	0.470988
1233.000000	0.471143
1234.000000	0.471401
1235.000000	0.471475
1236.000000	0.471367
1237.000000	0.471464
1238.000000	0.471406
1239.000000	0.471444
1240.000000	0.471637
1241.000000	0.471909
1242.000000	0.472037
1243.000000	0.472034
1244.000000	0.471850
1245.000000	0.471802
1246.000000	0.471847
1247.000000	0.471889
1248.000000	0.471990
1249.000000	0.472193
1250.000000	0.472207
1251.000000	0.472190
1252.000000	0.472184
1253.000000	0.472221
1254.000000	0.472225
1255.000000	0.472203
1256.000000	0.472177
1257.000000	0.472177
1258.000000	0.472316
1259.000000	0.472396
1260.000000	0.472508
1261.000000	0.472700
1262.000000	0.472725
1263.000000	0.472556
1264.000000	0.472656
1265.000000	0.472659
1266.000000	0.472516
1267.000000	0.472695
1268.000000	0.472785
1269.000000	0.472834
1270.000000	0.473160
1271.000000	0.473258
1272.000000	0.473313
1273.000000	0.473383
1274.000000	0.473321
1275.000000	0.473307
1276.000000	0.473291
1277.000000	0.473386
1278.000000	0.473432
1279.000000	0.473441
1280.000000	0.473345
1281.000000	0.473267
1282.000000	0.473307
1283.000000	0.473359
1284.000000	0.473213
1285.000000	0.473269
1286.000000	0.473394
1287.000000	0.473458
1288.000000	0.473621
1289.000000	0.473775
1290.000000	0.473691
1291.000000	0.473489
1292.000000	0.473270
1293.000000	0.473121
1294.000000	0.472991
1295.000000	0.472880
1296.000000	0.472766
1297.000000	0.472541
1298.000000	0.472356
1299.000000	0.472285
1300.000000	0.472280
1301.000000	0.472270
1302.000000	0.472137
1303.000000	0.472093
1304.000000	0.471927
1305.000000	0.471798
1306.000000	0.471652
1307.000000	0.471580
1308.000000	0.471497
1309.000000	0.471361
1310.000000	0.471256
1311.000000	0.471243
1312.000000	0.471051
1313.000000	0.470898
1314.000000	0.470647
1315.000000	0.470380
1316.000000	0.470316
1317.000000	0.470229
1318.000000	0.470149
1319.000000	0.469926
1320.000000	0.469506
1321.000000	0.469055
1322.000000	0.468705
1323.000000	0.468465
1324.000000	0.468454
1325.000000	0.468378
1326.000000	0.468021
1327.000000	0.467667
1328.000000	0.467316
1329.000000	0.466878
1330.000000	0.466418
1331.000000	0.466035
1332.000000	0.465696
1333.000000	0.465341
1334.000000	0.465142
1335.000000	0.464898
1336.000000	0.464586
1337.000000	0.464266
1338.000000	0.463923
1339.000000	0.463419
1340.000000	0.462891
1341.000000	0.462529
1342.000000	0.461954
1343.000000	0.461428
1344.000000	0.460928
1345.000000	0.460258
1346.000000	0.459992
1347.000000	0.459541
1348.000000	0.459028
1349.000000	0.458637
1350.000000	0.458093
1351.000000	0.457651
1352.000000	0.457269
1353.000000	0.456766
1354.000000	0.456236
1355.000000	0.455496
1356.000000	0.454874
1357.000000	0.454356
1358.000000	0.453787
1359.000000	0.453237
1360.000000	0.452763
1361.000000	0.452387
1362.000000	0.451863
1363.000000	0.451328
1364.000000	0.450863
1365.000000	0.450241
1366.000000	0.449775
1367.000000	0.449455
1368.000000	0.449086
1369.000000	0.448624
1370.000000	0.447952
1371.000000	0.447301
1372.000000	0.446576
1373.000000	0.445985
1374.000000	0.445525
1375.000000	0.444868
1376.000000	0.444367
1377.000000	0.443830
1378.000000	0.443188
1379.000000	0.442475
1380.000000	0.441613
1381.000000	0.440682
1382.000000	0.439719
1383.000000	0.438846
1384.000000	0.437867
1385.000000	0.436711
1386.000000	0.435510
1387.000000	0.434213
1388.000000	0.432777
1389.000000	0.431319
1390.000000	0.429930
1391.000000	0.428532
1392.000000	0.427227
1393.000000	0.425746
1394.000000	0.424333
1395.000000	0.422701
1396.000000	0.420883
1397.000000	0.418951
1398.000000	0.416827
1399.000000	0.414755
1400.000000	0.412560
1401.000000	0.410385
1402.000000	0.408308
1403.000000	0.406083
1404.000000	0.403910
1405.000000	0.401695
1406.000000	0.399311
1407.000000	0.396897
1408.000000	0.394285
1409.000000	0.391733
1410.000000	0.389313
1411.000000	0.386802
1412.000000	0.384457
1413.000000	0.382154
1414.000000	0.379668
1415.000000	0.377354
1416.000000	0.375046
1417.000000	0.372681
1418.000000	0.370427
1419.000000	0.368228
1420.000000	0.365989
1421.000000	0.363849
1422.000000	0.361751
1423.000000	0.359888
1424.000000	0.357865
1425.000000	0.355862
1426.000000	0.353834
1427.000000	0.351577
1428.000000	0.349672
1429.000000	0.347923
1430.000000	0.346126
1431.000000	0.344486
1432.000000	0.342790
1433.000000	0.340975
1434.000000	0.339412
1435.000000	0.338052
1436.000000	0.336733
1437.000000	0.335546
1438.000000	0.334328
1439.000000	0.333181
1440.000000	0.332167
1441.000000	0.331268
1442.000000	0.330416
1443.000000	0.329621
1444.000000	0.328771
1445.000000	0.327922
1446.000000	0.327068
1447.000000	0.326280
1448.000000	0.325570
1449.000000	0.324918
1450.000000	0.324316
1451.000000	0.323728
1452.000000	0.323071
1453.000000	0.322411
1454.000000	0.321772
1455.000000	0.321139
1456.000000	0.320728
1457.000000	0.320423
1458.000000	0.320033
1459.000000	0.319726
1460.000000	0.319312
1461.000000	0.318725
1462.000000	0.318225
1463.000000	0.317689
1464.000000	0.317231
1465.000000	0.316853
1466.000000	0.316499
1467.000000	0.316376
1468.000000	0.316283
1469.000000	0.316263
1470.000000	0.316285
1471.000000	0.316232
1472.000000	0.316210
1473.000000	0.316446
1474.000000	0.316704
1475.000000	0.317037
1476.000000	0.317454
1477.000000	0.317797
1478.000000	0.318247
1479.000000	0.318827
1480.000000	0.319440
1481.000000	0.320073
1482.000000	0.320868
1483.000000	0.321532
1484.000000	0.322141
1485.000000	0.322816
1486.000000	0.323409
1487.000000	0.324156
1488.000000	0.325095
1489.000000	0.325870
1490.000000	0.326463
1491.000000	0.327220
1492.000000	0.327935
1493.000000	0.328667
1494.000000	0.329505
1495.000000	0.330223
1496.000000	0.330775
1497.000000	0.331461
1498.000000	0.332226
1499.000000	0.332957
1500.000000	0.333689
1501.000000	0.334363
1502.000000	0.334883
1503.000000	0.335418
1504.000000	0.335927
1505.000000	0.336490
1506.000000	0.337189
1507.000000	0.337684
1508.000000	0.338118
1509.000000	0.338571
1510.000000	0.338883
1511.000000	0.339354
1512.000000	0.339900
1513.000000	0.340333
1514.000000	0.340829
1515.000000	0.341245
1516.000000	0.341721
1517.000000	0.342103
1518.000000	0.342418
1519.000000	0.342809
1520.000000	0.343047
1521.000000	0.343258
1522.000000	0.343604
1523.000000	0.343920
1524.000000	0.344117
1525.000000	0.344332
1526.000000	0.344556
1527.000000	0.344669
1528.000000	0.344859
1529.000000	0.345219
1530.000000	0.345436
1531.000000	0.345576
1532.000000	0.345779
1533.000000	0.345971
1534.000000	0.346069
1535.000000	0.346167
1536.000000	0.346397
1537.000000	0.346685
1538.000000	0.346892
1539.000000	0.347061
1540.000000	0.347129
1541.000000	0.347110
1542.000000	0.347106
1543.000000	0.347128
1544.000000	0.347169
1545.000000	0.347177
1546.000000	0.347217
1547.000000	0.347346
1548.000000	0.347437
1549.000000	0.347553
1550.000000	0.347639
1551.000000	0.347617
1552.000000	0.347622
1553.000000	0.347568
1554.000000	0.347450
1555.000000	0.347514
1556.000000	0.347602
1557.000000	0.347590
1558.000000	0.347652
1559.000000	0.347728
1560.000000	0.347721
1561.000000	0.347692
1562.000000	0.347723
1563.000000	0.347799
1564.000000	0.347881
1565.000000	0.348057
1566.000000	0.348026
1567.000000	0.347996
1568.000000	0.347925
1569.000000	0.347803
1570.000000	0.347729
1571.000000	0.347649
1572.000000	0.347623
1573.000000	0.347664
1574.000000	0.347643
1575.000000	0.347633
1576.000000	0.347602
1577.000000	0.347479
1578.000000	0.347431
1579.000000	0.347532
1580.000000	0.347512
1581.000000	0.347543
1582.000000	0.347491
1583.000000	0.347338
1584.000000	0.347206
1585.000000	0.347119
1586.000000	0.347082
1587.000000	0.347027
1588.000000	0.347012
1589.000000	0.347082
1590.000000	0.347160
1591.000000	0.347331
1592.000000	0.347418
1593.000000	0.347528
1594.000000	0.347554
1595.000000	0.347553
1596.000000	0.347536
1597.000000	0.347479
1598.000000	0.347447
1599.000000	0.347417
1600.000000	0.347430
1601.000000	0.347595
1602.000000	0.347665
1603.000000	0.347713
1604.000000	0.347833
1605.000000	0.348001
1606.000000	0.348172
1607.000000	0.348482
1608.000000	0.348665
1609.000000	0.348790
1610.000000	0.348957
1611.000000	0.349199
1612.000000	0.349363
1613.000000	0.349582
1614.000000	0.349765
1615.000000	0.349977
1616.000000	0.350211
1617.000000	0.350397
1618.000000	0.350605
1619.000000	0.350765
1620.000000	0.350971
1621.000000	0.351271
1622.000000	0.351592
1623.000000	0.351841
1624.000000	0.352162
1625.000000	0.352422
1626.000000	0.352701
1627.000000	0.353045
1628.000000	0.353446
1629.000000	0.353837
1630.000000	0.354231
1631.000000	0.354638
1632.000000	0.354998
1633.000000	0.355319
1634.000000	0.355681
1635.000000	0.356078
1636.000000	0.356451
1637.000000	0.356870
1638.000000	0.357267
1639.000000	0.357724
1640.000000	0.358098
1641.000000	0.358511
1642.000000	0.358852
1643.000000	0.359157
1644.000000	0.359512
1645.000000	0.359852
1646.000000	0.360142
1647.000000	0.360431
1648.000000	0.360773
1649.000000	0.361242
1650.000000	0.361668
1651.000000	0.362172
1652.000000	0.362644
1653.000000	0.363050
1654.000000	0.363397
1655.000000	0.363659
1656.000000	0.363874
1657.000000	0.364016
1658.000000	0.364323
1659.000000	0.364861
1660.000000	0.365335
1661.000000	0.365786
1662.000000	0.366127
1663.000000	0.366310
1664.000000	0.366687
1665.000000	0.367134
1666.000000	0.367521
1667.000000	0.367863
1668.000000	0.368265
1669.000000	0.368624
1670.000000	0.368867
1671.000000	0.369282
1672.000000	0.369632
1673.000000	0.369689
1674.000000	0.370024
1675.000000	0.370651
1676.000000	0.371091
1677.000000	0.371421
1678.000000	0.371771
1679.000000	0.372034
1680.000000	0.372290
1681.000000	0.372722
1682.000000	0.372984
1683.000000	0.373207
1684.000000	0.373543
1685.000000	0.373727
1686.000000	0.374014
1687.000000	0.374359
1688.000000	0.374400
1689.000000	0.374641
1690.000000	0.374994
1691.000000	0.375308
1692.000000	0.375635
1693.000000	0.375866
1694.000000	0.375900
1695.000000	0.376067
1696.000000	0.376249
1697.000000	0.376388
1698.000000	0.376563
1699.000000	0.376815
1700.000000	0.377206
1701.000000	0.377551
1702.000000	0.377650
1703.000000	0.377788
1704.000000	0.377943
1705.000000	0.378125
1706.000000	0.378501
1707.000000	0.378746
1708.000000	0.378795
1709.000000	0.378947
1710.000000	0.379232
1711.000000	0.379505
1712.000000	0.379965
1713.000000	0.380213
1714.000000	0.380329
1715.000000	0.380525
1716.000000	0.380634
1717.000000	0.380885
1718.000000	0.381290
1719.000000	0.381533
1720.000000	0.381827
1721.000000	0.382033
1722.000000	0.382030
1723.000000	0.382268
1724.000000	0.382655
1725.000000	0.383027
1726.000000	0.383519
1727.000000	0.383717
1728.000000	0.383606
1729.000000	0.383637
1730.000000	0.383676
1731.000000	0.383888
1732.000000	0.384338
1733.000000	0.384714
1734.000000	0.384945
1735.000000	0.385225
1736.000000	0.385476
1737.000000	0.385733
1738.000000	0.386032
1739.000000	0.386294
1740.000000	0.386517
1741.000000	0.386720
1742.000000	0.386873
1743.000000	0.387241
1744.000000	0.387686
1745.000000	0.387969
1746.000000	0.388303
1747.000000	0.388519
1748.000000	0.388658
1749.000000	0.388813
1750.000000	0.388970
1751.000000	0.389238
1752.000000	0.389538
1753.000000	0.389696
1754.000000	0.389924
1755.000000	0.390134
1756.000000	0.390247
1757.000000	0.390350
1758.000000	0.390493
1759.000000	0.390484
1760.000000	0.390589
1761.000000	0.390835
1762.000000	0.390938
1763.000000	0.390984
1764.000000	0.391082
1765.000000	0.391014
1766.000000	0.391188
1767.000000	0.391514
1768.000000	0.391645
1769.000000	0.391868
1770.000000	0.392180
1771.000000	0.392376
1772.000000	0.392598
1773.000000	0.392925
1774.000000	0.393137
1775.000000	0.393258
1776.000000	0.393498
1777.000000	0.393748
1778.000000	0.393983
1779.000000	0.394244
1780.000000	0.394460
1781.000000	0.394628
1782.000000	0.394769
1783.000000	0.394855
1784.000000	0.395312
1785.000000	0.395566
1786.000000	0.395901
1787.000000	0.396437
1788.000000	0.396783
1789.000000	0.397048
1790.000000	0.397387
1791.000000	0.397613
1792.000000	0.397771
1793.000000	0.398013
1794.000000	0.398322
1795.000000	0.398648
1796.000000	0.399053
1797.000000	0.399333
1798.000000	0.399465
1799.000000	0.399719
1800.000000	0.400091
1801.000000	0.399465
1802.000000	0.399800
1803.000000	0.400010
1804.000000	0.400322
1805.000000	0.400976
1806.000000	0.401541
1807.000000	0.402182
1808.000000	0.402466
1809.000000	0.402580
1810.000000	0.403024
1811.000000	0.403023
1812.000000	0.402622
1813.000000	0.402270
1814.000000	0.401775
1815.000000	0.401529
1816.000000	0.401253
1817.000000	0.400837
1818.000000	0.400371
1819.000000	0.400379
1820.000000	0.401032
1821.000000	0.401258
1822.000000	0.400992
1823.000000	0.400452
1824.000000	0.400140
1825.000000	0.398732
1826.000000	0.398499
1827.000000	0.398803
1828.000000	0.399979
1829.000000	0.400019
1830.000000	0.399765
1831.000000	0.399931
1832.000000	0.400013
1833.000000	0.399923
1834.000000	0.400265
1835.000000	0.400101
1836.000000	0.399185
1837.000000	0.398408
1838.000000	0.397538
1839.000000	0.396532
1840.000000	0.394753
1841.000000	0.394389
1842.000000	0.394081
1843.000000	0.394292
1844.000000	0.394253
1845.000000	0.394818
1846.000000	0.394323
1847.000000	0.393017
1848.000000	0.391543
1849.000000	0.389897
1850.000000	0.388829
1851.000000	0.388023
1852.000000	0.387690
1853.000000	0.386927
1854.000000	0.385992
1855.000000	0.385065
1856.000000	0.383817
1857.000000	0.382775
1858.000000	0.381881
1859.000000	0.380648
1860.000000	0.378980
1861.000000	0.377683
1862.000000	0.375584
1863.000000	0.372756
1864.000000	0.370555
1865.000000	0.367943
1866.000000	0.365541
1867.000000	0.363582
1868.000000	0.361626
1869.000000	0.359193
1870.000000	0.356737
1871.000000	0.353484
1872.000000	0.350388
1873.000000	0.346954
1874.000000	0.342928
1875.000000	0.339169
1876.000000	0.335422
1877.000000	0.330703
1878.000000	0.326206
1879.000000	0.321848
1880.000000	0.317144
1881.000000	0.312810
1882.000000	0.308272
1883.000000	0.303103
1884.000000	0.298475
1885.000000	0.294027
1886.000000	0.289136
1887.000000	0.284158
1888.000000	0.279287
1889.000000	0.273592
1890.000000	0.267659
1891.000000	0.262709
1892.000000	0.257775
1893.000000	0.252837
1894.000000	0.247485
1895.000000	0.241738
1896.000000	0.235411
1897.000000	0.229227
1898.000000	0.223157
1899.000000	0.217872
1900.000000	0.213087
1901.000000	0.207899
1902.000000	0.202648
1903.000000	0.197580
1904.000000	0.192580
1905.000000	0.187746
1906.000000	0.183197
1907.000000	0.179003
1908.000000	0.175250
1909.000000	0.171103
1910.000000	0.167088
1911.000000	0.163788
1912.000000	0.160191
1913.000000	0.157366
1914.000000	0.155331
1915.000000	0.152375
1916.000000	0.149289
1917.000000	0.146702
1918.000000	0.144316
1919.000000	0.141759
1920.000000	0.139668
1921.000000	0.138694
1922.000000	0.137586
1923.000000	0.136170
1924.000000	0.135429
1925.000000	0.134547
1926.000000	0.133445
1927.000000	0.132812
1928.000000	0.132201
1929.000000	0.131752
1930.000000	0.131185
1931.000000	0.130992
1932.000000	0.130387
1933.000000	0.130118
1934.000000	0.130496
1935.000000	0.130062
1936.000000	0.130273
1937.000000	0.130869
1938.000000	0.130852
1939.000000	0.131040
1940.000000	0.131652
1941.000000	0.131984
1942.000000	0.131464
1943.000000	0.131563
1944.000000	0.131385
1945.000000	0.130415
1946.000000	0.130002
1947.000000	0.129293
1948.000000	0.128249
1949.000000	0.127581
1950.000000	0.127290
1951.000000	0.126645
1952.000000	0.125682
1953.000000	0.124558
1954.000000	0.124481
1955.000000	0.124258
1956.000000	0.124119
1957.000000	0.124264
1958.000000	0.123706
1959.000000	0.123123
1960.000000	0.122430
1961.000000	0.121737
1962.000000	0.121558
1963.000000	0.121864
1964.000000	0.122000
1965.000000	0.121997
1966.000000	0.122037
1967.000000	0.121560
1968.000000	0.121028
1969.000000	0.120465
1970.000000	0.120202
1971.000000	0.120360
1972.000000	0.120357
1973.000000	0.120502
1974.000000	0.121183
1975.000000	0.121566
1976.000000	0.121754
1977.000000	0.122227
1978.000000	0.122718
1979.000000	0.123204
1980.000000	0.122976
1981.000000	0.122254
1982.000000	0.121984
1983.000000	0.121689
1984.000000	0.122115
1985.000000	0.123912
1986.000000	0.124968
1987.000000	0.126141
1988.000000	0.127054
1989.000000	0.127473
1990.000000	0.127493
1991.000000	0.127472
1992.000000	0.127983
1993.000000	0.128845
1994.000000	0.129400
1995.000000	0.129767
1996.000000	0.130069
1997.000000	0.130683
1998.000000	0.131098
1999.000000	0.132336
2000.000000	0.134271
2001.000000	0.136234
2002.000000	0.138100
2003.000000	0.139751
2004.000000	0.141098
2005.000000	0.142174
2006.000000	0.143331
2007.000000	0.144759
2008.000000	0.145832
2009.000000	0.146491
2010.000000	0.147501
2011.000000	0.148375
2012.000000	0.149378
2013.000000	0.150565
2014.000000	0.151787
2015.000000	0.152955
2016.000000	0.154121
2017.000000	0.154819
2018.000000	0.156028
2019.000000	0.157040
2020.000000	0.158040
2021.000000	0.159627
2022.000000	0.161734
2023.000000	0.163578
2024.000000	0.166006
2025.000000	0.167864
2026.000000	0.169463
2027.000000	0.170796
2028.000000	0.171602
2029.000000	0.172556
2030.000000	0.173174
2031.000000	0.173861
2032.000000	0.175299
2033.000000	0.176419
2034.000000	0.177581
2035.000000	0.179079
2036.000000	0.180241
2037.000000	0.181071
2038.000000	0.182315
2039.000000	0.183746
2040.000000	0.185218
2041.000000	0.186366
2042.000000	0.188193
2043.000000	0.190131
2044.000000	0.192006
2045.000000	0.194591
2046.000000	0.196093
2047.000000	0.197013
2048.000000	0.196826
2049.000000	0.197381
2050.000000	0.197206
2051.000000	0.197795
2052.000000	0.199108
2053.000000	0.199929
2054.000000	0.201151
2055.000000	0.201563
2056.000000	0.201779
2057.000000	0.202451
2058.000000	0.202950
2059.000000	0.204350
2060.000000	0.205703
2061.000000	0.207589
2062.000000	0.208966
2063.000000	0.210286
2064.000000	0.211385
2065.000000	0.212377
2066.000000	0.213533
2067.000000	0.214850
2068.000000	0.216379
2069.000000	0.217728
2070.000000	0.218615
2071.000000	0.219547
2072.000000	0.220190
2073.000000	0.220209
2074.000000	0.220459
2075.000000	0.221329
2076.000000	0.222182
2077.000000	0.223530
2078.000000	0.225980
2079.000000	0.227719
2080.000000	0.229605
2081.000000	0.230891
2082.000000	0.231652
2083.000000	0.232819
2084.000000	0.233198
2085.000000	0.233561
2086.000000	0.234447
2087.000000	0.235629
2088.000000	0.237170
2089.000000	0.238656
2090.000000	0.239888
2091.000000	0.241033
2092.000000	0.242066
2093.000000	0.242551
2094.000000	0.243583
2095.000000	0.245075
2096.000000	0.246380
2097.000000	0.247414
2098.000000	0.249357
2099.000000	0.251024
2100.000000	0.251884
2101.000000	0.253063
2102.000000	0.253950
2103.000000	0.254333
2104.000000	0.254917
2105.000000	0.255507
2106.000000	0.255786
2107.000000	0.256595
2108.000000	0.258035
2109.000000	0.258781
2110.000000	0.259216
2111.000000	0.259911
2112.000000	0.260103
2113.000000	0.260467
2114.000000	0.261506
2115.000000	0.263146
2116.000000	0.265577
2117.000000	0.266943
2118.000000	0.268364
2119.000000	0.269659
2120.000000	0.270502
2121.000000	0.270783
2122.000000	0.271068
2123.000000	0.271057
2124.000000	0.271039
2125.000000	0.270395
2126.000000	0.270312
2127.000000	0.270424
2128.000000	0.270894
2129.000000	0.271709
2130.000000	0.272810
2131.000000	0.272948
2132.000000	0.273111
2133.000000	0.273327
2134.000000	0.273307
2135.000000	0.274555
2136.000000	0.275648
2137.000000	0.276328
2138.000000	0.276978
2139.000000	0.277149
2140.000000	0.276678
2141.000000	0.276617
2142.000000	0.275979
2143.000000	0.276092
2144.000000	0.277285
2145.000000	0.277846
2146.000000	0.278436
2147.000000	0.279551
2148.000000	0.280094
2149.000000	0.280033
2150.000000	0.280233
2151.000000	0.279986
2152.000000	0.279572
2153.000000	0.279428
2154.000000	0.279525
2155.000000	0.280012
2156.000000	0.280388
2157.000000	0.281332
2158.000000	0.281413
2159.000000	0.280809
2160.000000	0.280840
2161.000000	0.280325
2162.000000	0.280616
2163.000000	0.282142
2164.000000	0.282770
2165.000000	0.283094
2166.000000	0.283755
2167.000000	0.283890
2168.000000	0.283584
2169.000000	0.283923
2170.000000	0.284036
2171.000000	0.284217
2172.000000	0.284544
2173.000000	0.284429
2174.000000	0.284062
2175.000000	0.284043
2176.000000	0.283569
2177.000000	0.283916
2178.000000	0.284814
2179.000000	0.285878
2180.000000	0.288029
2181.000000	0.289287
2182.000000	0.290332
2183.000000	0.290226
2184.000000	0.288958
2185.000000	0.288215
2186.000000	0.286826
2187.000000	0.287133
2188.000000	0.288310
2189.000000	0.286895
2190.000000	0.285848
2191.000000	0.285848
2192.000000	0.286232
2193.000000	0.287485
2194.000000	0.287757
2195.000000	0.288914
2196.000000	0.288903
2197.000000	0.286424
2198.000000	0.286296
2199.000000	0.287472
2200.000000	0.287863
2201.000000	0.289713
2202.000000	0.290117
2203.000000	0.289312
2204.000000	0.287410
2205.000000	0.286533
2206.000000	0.284813
2207.000000	0.282889
2208.000000	0.283887
2209.000000	0.285034
2210.000000	0.286532
2211.000000	0.288703
2212.000000	0.290143
2213.000000	0.290338
2214.000000	0.288888
2215.000000	0.287645
2216.000000	0.285080
2217.000000	0.284382
2218.000000	0.283437
2219.000000	0.284419
2220.000000	0.288310
2221.000000	0.289674
2222.000000	0.291356
2223.000000	0.291646
2224.000000	0.289106
2225.000000	0.288995
2226.000000	0.289742
2227.000000	0.290115
2228.000000	0.292049
2229.000000	0.292393
2230.000000	0.291601
2231.000000	0.290443
2232.000000	0.288650
2233.000000	0.287922
2234.000000	0.286881
2235.000000	0.288850
2236.000000	0.290038
2237.000000	0.291953
2238.000000	0.292909
2239.000000	0.293686
2240.000000	0.293956
2241.000000	0.294364
2242.000000	0.294525
2243.000000	0.293457
2244.000000	0.293535
2245.000000	0.294413
2246.000000	0.293968
2247.000000	0.293248
2248.000000	0.293084
2249.000000	0.292117
2250.000000	0.291995
2251.000000	0.292326
2252.000000	0.290074
2253.000000	0.288918
2254.000000	0.287071
2255.000000	0.284200
2256.000000	0.285969
2257.000000	0.287852
2258.000000	0.286505
2259.000000	0.286443
2260.000000	0.285212
2261.000000	0.284310
2262.000000	0.282990
2263.000000	0.282190
2264.000000	0.281496
2265.000000	0.281596
2266.000000	0.282087
2267.000000	0.281170
2268.000000	0.280658
2269.000000	0.280060
2270.000000	0.277687
2271.000000	0.276552
2272.000000	0.276568
2273.000000	0.276013
2274.000000	0.275508
2275.000000	0.275480
2276.000000	0.276758
2277.000000	0.275239
2278.000000	0.273445
2279.000000	0.271387
2280.000000	0.267149
2281.000000	0.264916
2282.000000	0.264979
2283.000000	0.263879
2284.000000	0.264295
2285.000000	0.264442
2286.000000	0.263372
2287.000000	0.262920
2288.000000	0.263558
2289.000000	0.265139
2290.000000	0.265227
2291.000000	0.266264
2292.000000	0.266103
2293.000000	0.264889
2294.000000	0.263528
2295.000000	0.261043
2296.000000	0.260273
2297.000000	0.259924
2298.000000	0.258843
2299.000000	0.260605
2300.000000	0.258888
2301.000000	0.252767
2302.000000	0.251034
2303.000000	0.249311
2304.000000	0.248032
2305.000000	0.250343
2306.000000	0.250146
2307.000000	0.247587
2308.000000	0.247980
2309.000000	0.248463
2310.000000	0.246321
2311.000000	0.246228
2312.000000	0.245232
2313.000000	0.242502
2314.000000	0.243446
2315.000000	0.242751
2316.000000	0.241687
2317.000000	0.241897
2318.000000	0.239173
2319.000000	0.236689
2320.000000	0.235379
2321.000000	0.234576
2322.000000	0.234831
2323.000000	0.234630
2324.000000	0.235149
2325.000000	0.236159
2326.000000	0.235744
2327.000000	0.234859
2328.000000	0.232191
2329.000000	0.228376
2330.000000	0.224427
2331.000000	0.221460
2332.000000	0.219875
2333.000000	0.219071
2334.000000	0.219058
2335.000000	0.219127
2336.000000	0.220679
2337.000000	0.219889
2338.000000	0.217432
2339.000000	0.215867
2340.000000	0.212160
2341.000000	0.210980
2342.000000	0.212704
2343.000000	0.212288
2344.000000	0.212800
2345.000000	0.211366
2346.000000	0.207395
2347.000000	0.204469
2348.000000	0.201280
2349.000000	0.197634
2350.000000	0.194436
2351.000000	0.192473
2352.000000	0.190228
2353.000000	0.188830
2354.000000	0.188411
2355.000000	0.188094
2356.000000	0.185872
2357.000000	0.183377
2358.000000	0.182916
2359.000000	0.178127
2360.000000	0.174456
2361.000000	0.174052
2362.000000	0.168902
2363.000000	0.170512
2364.000000	0.170733
2365.000000	0.168697
2366.000000	0.172005
2367.000000	0.166313
2368.000000	0.161817
2369.000000	0.159041
2370.000000	0.152837
2371.000000	0.151846
2372.000000	0.153060
2373.000000	0.156437
2374.000000	0.162013
2375.000000	0.163821
2376.000000	0.163139
2377.000000	0.161579
2378.000000	0.157860
2379.000000	0.156143
2380.000000	0.157234
2381.000000	0.157226
2382.000000	0.151586
2383.000000	0.147568
2384.000000	0.144944
2385.000000	0.139425
2386.000000	0.140563
2387.000000	0.140506
2388.000000	0.138117
2389.000000	0.141731
2390.000000	0.143508
2391.000000	0.144863
2392.000000	0.147680
2393.000000	0.142898
2394.000000	0.134130
2395.000000	0.124873
2396.000000	0.116697
2397.000000	0.113876
2398.000000	0.113624
2399.000000	0.117538
2400.000000	0.119036
2401.000000	0.115432
2402.000000	0.112487
2403.000000	0.112643
2404.000000	0.118572
2405.000000	0.122336
2406.000000	0.121896
2407.000000	0.122686
2408.000000	0.118846
2409.000000	0.108522
2410.000000	0.112082
2411.000000	0.116806
2412.000000	0.109689
2413.000000	0.119288
2414.000000	0.127250
2415.000000	0.121332
2416.000000	0.126184
2417.000000	0.131519
2418.000000	0.126536
2419.000000	0.125698
2420.000000	0.124521
2421.000000	0.116815
2422.000000	0.112186
2423.000000	0.113193
2424.000000	0.120366
2425.000000	0.113623
2426.000000	0.099215
2427.000000	0.093390
2428.000000	0.081759
2429.000000	0.080599
2430.000000	0.091961
2431.000000	0.098708
2432.000000	0.108439
2433.000000	0.113077
2434.000000	0.113571
2435.000000	0.114419
2436.000000	0.105682
2437.000000	0.114975
2438.000000	0.124726
2439.000000	0.119586
2440.000000	0.126165
2441.000000	0.119886
2442.000000	0.111678
2443.000000	0.108364
2444.000000	0.102337
2445.000000	0.106732
2446.000000	0.115052
2447.000000	0.118815
2448.000000	0.112490
2449.000000	0.105895
2450.000000	0.097684
2451.000000	0.099954
2452.000000	0.118416
2453.000000	0.122363
2454.000000	0.118842
2455.000000	0.115236
2456.000000	0.109654
2457.000000	0.122012
2458.000000	0.126739
2459.000000	0.131271
2460.000000	0.147940
2461.000000	0.145150
2462.000000	0.140659
2463.000000	0.120377
2464.000000	0.101058
2465.000000	0.092378
2466.000000	0.082503
2467.000000	0.103869
2468.000000	0.128745
2469.000000	0.125099
2470.000000	0.124817
2471.000000	0.124315
2472.000000	0.093717
2473.000000	0.082851
2474.000000	0.097663
2475.000000	0.100311
2476.000000	0.116825
2477.000000	0.114924
2478.000000	0.101570
2479.000000	0.087562
2480.000000	0.058273
2481.000000	0.061510
2482.000000	0.072167
2483.000000	0.067525
2484.000000	0.083020
2485.000000	0.097970
2486.000000	0.115268
2487.000000	0.144210
2488.000000	0.170835
2489.000000	0.188418
2490.000000	0.177706
2491.000000	0.193165
2492.000000	0.195489
2493.000000	0.201130
2494.000000	0.199621
2495.000000	0.181774
2496.000000	0.155902
2497.000000	0.098116
2498.000000	0.062471
2499.000000	0.016374
2500.000000	0.021660
