# Wavelength	NAu-2-20_HEX-10_FV7-70_00001.asd.rts.txt
350.000000	0.159467
351.000000	0.153488
352.000000	0.147247
353.000000	0.146718
354.000000	0.151749
355.000000	0.144458
356.000000	0.140109
357.000000	0.144874
358.000000	0.157089
359.000000	0.152737
360.000000	0.146800
361.000000	0.157311
362.000000	0.158603
363.000000	0.154926
364.000000	0.152274
365.000000	0.156684
366.000000	0.159224
367.000000	0.158274
368.000000	0.158724
369.000000	0.156724
370.000000	0.155514
371.000000	0.159213
372.000000	0.162675
373.000000	0.162506
374.000000	0.159111
375.000000	0.160787
376.000000	0.160242
377.000000	0.156638
378.000000	0.155108
379.000000	0.158351
380.000000	0.162345
381.000000	0.162184
382.000000	0.161596
383.000000	0.161970
384.000000	0.163797
385.000000	0.165968
386.000000	0.166653
387.000000	0.165652
388.000000	0.164047
389.000000	0.163530
390.000000	0.164625
391.000000	0.166826
392.000000	0.166326
393.000000	0.166866
394.000000	0.170359
395.000000	0.169873
396.000000	0.167227
397.000000	0.164816
398.000000	0.166139
399.000000	0.168268
400.000000	0.169634
401.000000	0.169144
402.000000	0.169211
403.000000	0.169312
404.000000	0.169038
405.000000	0.170408
406.000000	0.171157
407.000000	0.170755
408.000000	0.171564
409.000000	0.172541
410.000000	0.173127
411.000000	0.172920
412.000000	0.172635
413.000000	0.172506
414.000000	0.172672
415.000000	0.173460
416.000000	0.174201
417.000000	0.174527
418.000000	0.174836
419.000000	0.174663
420.000000	0.174383
421.000000	0.175142
422.000000	0.175628
423.000000	0.175720
424.000000	0.175803
425.000000	0.176733
426.000000	0.177467
427.000000	0.177399
428.000000	0.178126
429.000000	0.178187
430.000000	0.177464
431.000000	0.177621
432.000000	0.177700
433.000000	0.177843
434.000000	0.178662
435.000000	0.179317
436.000000	0.179686
437.000000	0.179806
438.000000	0.179769
439.000000	0.179667
440.000000	0.179670
441.000000	0.179870
442.000000	0.180226
443.000000	0.180659
444.000000	0.181174
445.000000	0.181382
446.000000	0.181265
447.000000	0.180967
448.000000	0.181990
449.000000	0.183025
450.000000	0.183112
451.000000	0.182842
452.000000	0.182973
453.000000	0.183602
454.000000	0.184292
455.000000	0.184675
456.000000	0.184790
457.000000	0.184776
458.000000	0.185013
459.000000	0.185427
460.000000	0.185850
461.000000	0.185924
462.000000	0.185993
463.000000	0.186202
464.000000	0.186761
465.000000	0.187110
466.000000	0.187265
467.000000	0.187716
468.000000	0.187944
469.000000	0.187961
470.000000	0.188068
471.000000	0.188555
472.000000	0.188927
473.000000	0.188941
474.000000	0.189054
475.000000	0.189407
476.000000	0.189947
477.000000	0.190118
478.000000	0.190249
479.000000	0.190514
480.000000	0.190771
481.000000	0.190980
482.000000	0.191232
483.000000	0.191466
484.000000	0.191842
485.000000	0.192007
486.000000	0.192040
487.000000	0.192422
488.000000	0.192733
489.000000	0.192891
490.000000	0.192991
491.000000	0.193099
492.000000	0.193327
493.000000	0.193660
494.000000	0.193959
495.000000	0.194234
496.000000	0.194451
497.000000	0.194510
498.000000	0.194668
499.000000	0.194982
500.000000	0.195127
501.000000	0.195236
502.000000	0.195412
503.000000	0.195679
504.000000	0.195874
505.000000	0.196092
506.000000	0.196431
507.000000	0.196728
508.000000	0.196994
509.000000	0.197229
510.000000	0.197502
511.000000	0.197767
512.000000	0.198039
513.000000	0.198329
514.000000	0.198650
515.000000	0.199012
516.000000	0.199373
517.000000	0.199705
518.000000	0.200032
519.000000	0.200328
520.000000	0.200686
521.000000	0.201043
522.000000	0.201388
523.000000	0.201772
524.000000	0.202130
525.000000	0.202489
526.000000	0.202961
527.000000	0.203469
528.000000	0.203949
529.000000	0.204396
530.000000	0.204839
531.000000	0.205419
532.000000	0.206109
533.000000	0.206756
534.000000	0.207372
535.000000	0.207976
536.000000	0.208627
537.000000	0.209292
538.000000	0.209905
539.000000	0.210393
540.000000	0.210988
541.000000	0.211585
542.000000	0.212103
543.000000	0.212670
544.000000	0.213216
545.000000	0.213675
546.000000	0.214171
547.000000	0.214730
548.000000	0.215363
549.000000	0.215986
550.000000	0.216513
551.000000	0.217060
552.000000	0.217736
553.000000	0.218433
554.000000	0.219166
555.000000	0.219941
556.000000	0.220682
557.000000	0.221406
558.000000	0.222207
559.000000	0.222984
560.000000	0.223768
561.000000	0.224596
562.000000	0.225382
563.000000	0.226081
564.000000	0.226807
565.000000	0.227570
566.000000	0.228234
567.000000	0.228866
568.000000	0.229494
569.000000	0.230099
570.000000	0.230722
571.000000	0.231319
572.000000	0.231783
573.000000	0.232269
574.000000	0.232736
575.000000	0.233127
576.000000	0.233519
577.000000	0.233838
578.000000	0.234098
579.000000	0.234474
580.000000	0.234788
581.000000	0.234989
582.000000	0.235248
583.000000	0.235512
584.000000	0.235770
585.000000	0.236022
586.000000	0.236137
587.000000	0.236235
588.000000	0.236450
589.000000	0.236546
590.000000	0.236639
591.000000	0.236781
592.000000	0.236786
593.000000	0.236798
594.000000	0.236829
595.000000	0.236763
596.000000	0.236768
597.000000	0.236846
598.000000	0.236852
599.000000	0.236785
600.000000	0.236719
601.000000	0.236650
602.000000	0.236536
603.000000	0.236458
604.000000	0.236415
605.000000	0.236207
606.000000	0.236097
607.000000	0.236049
608.000000	0.235840
609.000000	0.235755
610.000000	0.235718
611.000000	0.235592
612.000000	0.235516
613.000000	0.235479
614.000000	0.235454
615.000000	0.235278
616.000000	0.235105
617.000000	0.234984
618.000000	0.234948
619.000000	0.234925
620.000000	0.234873
621.000000	0.234818
622.000000	0.234793
623.000000	0.234788
624.000000	0.234776
625.000000	0.234720
626.000000	0.234642
627.000000	0.234577
628.000000	0.234580
629.000000	0.234572
630.000000	0.234516
631.000000	0.234618
632.000000	0.234690
633.000000	0.234760
634.000000	0.234854
635.000000	0.234803
636.000000	0.234730
637.000000	0.234718
638.000000	0.234790
639.000000	0.234889
640.000000	0.234988
641.000000	0.234951
642.000000	0.235028
643.000000	0.235197
644.000000	0.235349
645.000000	0.235410
646.000000	0.235455
647.000000	0.235542
648.000000	0.235727
649.000000	0.235891
650.000000	0.235997
651.000000	0.236157
652.000000	0.236327
653.000000	0.236522
654.000000	0.236718
655.000000	0.237022
656.000000	0.237300
657.000000	0.237410
658.000000	0.237606
659.000000	0.237874
660.000000	0.238161
661.000000	0.238389
662.000000	0.238670
663.000000	0.239021
664.000000	0.239319
665.000000	0.239591
666.000000	0.239889
667.000000	0.240231
668.000000	0.240557
669.000000	0.240881
670.000000	0.241242
671.000000	0.241726
672.000000	0.242179
673.000000	0.242540
674.000000	0.242838
675.000000	0.243214
676.000000	0.243685
677.000000	0.244216
678.000000	0.244668
679.000000	0.245085
680.000000	0.245530
681.000000	0.246036
682.000000	0.246542
683.000000	0.246993
684.000000	0.247523
685.000000	0.248052
686.000000	0.248595
687.000000	0.249147
688.000000	0.249649
689.000000	0.250149
690.000000	0.250721
691.000000	0.251353
692.000000	0.251942
693.000000	0.252501
694.000000	0.253031
695.000000	0.253669
696.000000	0.254380
697.000000	0.255057
698.000000	0.255692
699.000000	0.256339
700.000000	0.257036
701.000000	0.257717
702.000000	0.258376
703.000000	0.259025
704.000000	0.259759
705.000000	0.260500
706.000000	0.261218
707.000000	0.261971
708.000000	0.262692
709.000000	0.263400
710.000000	0.264127
711.000000	0.264795
712.000000	0.265446
713.000000	0.266121
714.000000	0.266818
715.000000	0.267492
716.000000	0.268176
717.000000	0.268911
718.000000	0.269675
719.000000	0.270419
720.000000	0.271127
721.000000	0.271855
722.000000	0.272510
723.000000	0.273134
724.000000	0.273815
725.000000	0.274375
726.000000	0.274941
727.000000	0.275609
728.000000	0.276274
729.000000	0.276977
730.000000	0.277689
731.000000	0.278283
732.000000	0.278829
733.000000	0.279411
734.000000	0.280040
735.000000	0.280589
736.000000	0.281160
737.000000	0.281697
738.000000	0.282099
739.000000	0.282556
740.000000	0.283058
741.000000	0.283595
742.000000	0.284159
743.000000	0.284714
744.000000	0.285271
745.000000	0.285726
746.000000	0.286154
747.000000	0.286593
748.000000	0.287023
749.000000	0.287467
750.000000	0.287922
751.000000	0.288463
752.000000	0.288957
753.000000	0.289373
754.000000	0.289746
755.000000	0.290161
756.000000	0.290555
757.000000	0.290812
758.000000	0.291133
759.000000	0.291494
760.000000	0.291800
761.000000	0.292106
762.000000	0.292443
763.000000	0.292747
764.000000	0.292971
765.000000	0.293179
766.000000	0.293396
767.000000	0.293611
768.000000	0.293748
769.000000	0.293908
770.000000	0.294150
771.000000	0.294452
772.000000	0.294746
773.000000	0.294950
774.000000	0.295117
775.000000	0.295211
776.000000	0.295313
777.000000	0.295454
778.000000	0.295568
779.000000	0.295664
780.000000	0.295757
781.000000	0.295851
782.000000	0.296018
783.000000	0.296247
784.000000	0.296348
785.000000	0.296436
786.000000	0.296563
787.000000	0.296713
788.000000	0.296750
789.000000	0.296858
790.000000	0.297012
791.000000	0.297129
792.000000	0.297195
793.000000	0.297237
794.000000	0.297270
795.000000	0.297226
796.000000	0.297156
797.000000	0.297105
798.000000	0.297126
799.000000	0.297143
800.000000	0.297216
801.000000	0.297400
802.000000	0.297431
803.000000	0.297456
804.000000	0.297561
805.000000	0.297545
806.000000	0.297465
807.000000	0.297423
808.000000	0.297393
809.000000	0.297366
810.000000	0.297340
811.000000	0.297322
812.000000	0.297388
813.000000	0.297406
814.000000	0.297355
815.000000	0.297336
816.000000	0.297336
817.000000	0.297374
818.000000	0.297373
819.000000	0.297327
820.000000	0.297320
821.000000	0.297320
822.000000	0.297262
823.000000	0.297217
824.000000	0.297133
825.000000	0.297049
826.000000	0.297043
827.000000	0.297012
828.000000	0.296929
829.000000	0.296802
830.000000	0.296762
831.000000	0.296833
832.000000	0.296820
833.000000	0.296842
834.000000	0.296820
835.000000	0.296722
836.000000	0.296591
837.000000	0.296485
838.000000	0.296473
839.000000	0.296576
840.000000	0.296443
841.000000	0.296232
842.000000	0.296115
843.000000	0.296045
844.000000	0.296039
845.000000	0.296014
846.000000	0.295851
847.000000	0.295694
848.000000	0.295587
849.000000	0.295557
850.000000	0.295474
851.000000	0.295431
852.000000	0.295472
853.000000	0.295458
854.000000	0.295184
855.000000	0.294892
856.000000	0.294740
857.000000	0.294558
858.000000	0.294351
859.000000	0.294110
860.000000	0.294036
861.000000	0.294006
862.000000	0.293984
863.000000	0.293902
864.000000	0.293897
865.000000	0.293880
866.000000	0.293785
867.000000	0.293524
868.000000	0.293261
869.000000	0.293051
870.000000	0.292979
871.000000	0.292782
872.000000	0.292583
873.000000	0.292439
874.000000	0.292420
875.000000	0.292322
876.000000	0.292145
877.000000	0.291916
878.000000	0.291702
879.000000	0.291527
880.000000	0.291284
881.000000	0.291106
882.000000	0.290946
883.000000	0.290753
884.000000	0.290449
885.000000	0.290325
886.000000	0.290158
887.000000	0.289872
888.000000	0.289665
889.000000	0.289530
890.000000	0.289281
891.000000	0.288929
892.000000	0.288707
893.000000	0.288562
894.000000	0.288504
895.000000	0.288307
896.000000	0.288073
897.000000	0.287882
898.000000	0.287763
899.000000	0.287484
900.000000	0.287241
901.000000	0.287085
902.000000	0.286957
903.000000	0.286786
904.000000	0.286593
905.000000	0.286332
906.000000	0.286105
907.000000	0.285890
908.000000	0.285727
909.000000	0.285560
910.000000	0.285283
911.000000	0.284958
912.000000	0.284674
913.000000	0.284340
914.000000	0.284063
915.000000	0.283921
916.000000	0.283791
917.000000	0.283483
918.000000	0.283227
919.000000	0.283155
920.000000	0.283056
921.000000	0.282796
922.000000	0.282462
923.000000	0.282219
924.000000	0.281964
925.000000	0.281672
926.000000	0.281400
927.000000	0.281221
928.000000	0.281136
929.000000	0.280937
930.000000	0.280488
931.000000	0.280369
932.000000	0.280367
933.000000	0.280219
934.000000	0.279587
935.000000	0.279343
936.000000	0.279275
937.000000	0.278982
938.000000	0.278762
939.000000	0.278626
940.000000	0.278478
941.000000	0.278313
942.000000	0.278172
943.000000	0.278003
944.000000	0.277690
945.000000	0.277416
946.000000	0.277139
947.000000	0.276923
948.000000	0.276724
949.000000	0.276190
950.000000	0.275972
951.000000	0.276043
952.000000	0.275820
953.000000	0.275552
954.000000	0.275357
955.000000	0.275198
956.000000	0.274962
957.000000	0.274795
958.000000	0.274579
959.000000	0.274260
960.000000	0.274111
961.000000	0.273925
962.000000	0.273599
963.000000	0.273250
964.000000	0.272952
965.000000	0.272752
966.000000	0.272565
967.000000	0.272492
968.000000	0.272169
969.000000	0.271687
970.000000	0.271436
971.000000	0.271115
972.000000	0.270944
973.000000	0.270862
974.000000	0.270604
975.000000	0.270438
976.000000	0.270371
977.000000	0.270280
978.000000	0.269811
979.000000	0.269817
980.000000	0.269780
981.000000	0.269220
982.000000	0.269102
983.000000	0.268744
984.000000	0.268319
985.000000	0.268757
986.000000	0.268579
987.000000	0.268140
988.000000	0.267799
989.000000	0.267488
990.000000	0.267165
991.000000	0.266969
992.000000	0.267030
993.000000	0.266925
994.000000	0.266829
995.000000	0.266868
996.000000	0.266756
997.000000	0.266509
998.000000	0.266217
999.000000	0.266097
1000.000000	0.266283
1001.000000	0.266012
1002.000000	0.266234
1003.000000	0.266351
1004.000000	0.266378
1005.000000	0.266570
1006.000000	0.266376
1007.000000	0.266059
1008.000000	0.265326
1009.000000	0.264720
1010.000000	0.263869
1011.000000	0.263875
1012.000000	0.264247
1013.000000	0.263811
1014.000000	0.263771
1015.000000	0.263740
1016.000000	0.263254
1017.000000	0.263293
1018.000000	0.263553
1019.000000	0.263847
1020.000000	0.264576
1021.000000	0.264418
1022.000000	0.264103
1023.000000	0.264233
1024.000000	0.264063
1025.000000	0.263657
1026.000000	0.263607
1027.000000	0.263176
1028.000000	0.262767
1029.000000	0.263078
1030.000000	0.264138
1031.000000	0.264412
1032.000000	0.264240
1033.000000	0.264445
1034.000000	0.264363
1035.000000	0.263834
1036.000000	0.263934
1037.000000	0.264349
1038.000000	0.264385
1039.000000	0.264439
1040.000000	0.264912
1041.000000	0.265172
1042.000000	0.265182
1043.000000	0.265068
1044.000000	0.264991
1045.000000	0.264901
1046.000000	0.264819
1047.000000	0.264867
1048.000000	0.265224
1049.000000	0.265251
1050.000000	0.264971
1051.000000	0.265021
1052.000000	0.265073
1053.000000	0.265258
1054.000000	0.266043
1055.000000	0.266435
1056.000000	0.266789
1057.000000	0.266885
1058.000000	0.267056
1059.000000	0.266813
1060.000000	0.266846
1061.000000	0.267546
1062.000000	0.268118
1063.000000	0.268485
1064.000000	0.268674
1065.000000	0.268663
1066.000000	0.268570
1067.000000	0.268098
1068.000000	0.267950
1069.000000	0.267639
1070.000000	0.267707
1071.000000	0.268204
1072.000000	0.268593
1073.000000	0.269342
1074.000000	0.269866
1075.000000	0.270008
1076.000000	0.270044
1077.000000	0.270119
1078.000000	0.270233
1079.000000	0.270244
1080.000000	0.270275
1081.000000	0.270515
1082.000000	0.270823
1083.000000	0.271027
1084.000000	0.271468
1085.000000	0.271775
1086.000000	0.271920
1087.000000	0.272031
1088.000000	0.271934
1089.000000	0.272102
1090.000000	0.272302
1091.000000	0.272389
1092.000000	0.272743
1093.000000	0.273401
1094.000000	0.273558
1095.000000	0.273260
1096.000000	0.273500
1097.000000	0.273815
1098.000000	0.274066
1099.000000	0.274600
1100.000000	0.274845
1101.000000	0.274741
1102.000000	0.274826
1103.000000	0.274864
1104.000000	0.275056
1105.000000	0.275278
1106.000000	0.275579
1107.000000	0.276221
1108.000000	0.276463
1109.000000	0.276399
1110.000000	0.276691
1111.000000	0.276671
1112.000000	0.276253
1113.000000	0.276319
1114.000000	0.276530
1115.000000	0.276795
1116.000000	0.277322
1117.000000	0.277669
1118.000000	0.278045
1119.000000	0.278247
1120.000000	0.278316
1121.000000	0.278412
1122.000000	0.278505
1123.000000	0.278728
1124.000000	0.278745
1125.000000	0.278901
1126.000000	0.279088
1127.000000	0.279213
1128.000000	0.279338
1129.000000	0.279532
1130.000000	0.279742
1131.000000	0.279925
1132.000000	0.280118
1133.000000	0.280495
1134.000000	0.280671
1135.000000	0.280676
1136.000000	0.280732
1137.000000	0.280737
1138.000000	0.280698
1139.000000	0.280757
1140.000000	0.280790
1141.000000	0.280554
1142.000000	0.280608
1143.000000	0.280836
1144.000000	0.281024
1145.000000	0.281029
1146.000000	0.281281
1147.000000	0.281432
1148.000000	0.281383
1149.000000	0.281494
1150.000000	0.281789
1151.000000	0.281924
1152.000000	0.281895
1153.000000	0.282014
1154.000000	0.282191
1155.000000	0.282266
1156.000000	0.282352
1157.000000	0.282408
1158.000000	0.282294
1159.000000	0.282264
1160.000000	0.282285
1161.000000	0.282301
1162.000000	0.282447
1163.000000	0.282532
1164.000000	0.282542
1165.000000	0.282588
1166.000000	0.282663
1167.000000	0.282711
1168.000000	0.282711
1169.000000	0.282713
1170.000000	0.282764
1171.000000	0.282805
1172.000000	0.282933
1173.000000	0.283182
1174.000000	0.283305
1175.000000	0.283348
1176.000000	0.283377
1177.000000	0.283433
1178.000000	0.283476
1179.000000	0.283512
1180.000000	0.283494
1181.000000	0.283538
1182.000000	0.283480
1183.000000	0.283545
1184.000000	0.283568
1185.000000	0.283569
1186.000000	0.283538
1187.000000	0.283612
1188.000000	0.283732
1189.000000	0.283763
1190.000000	0.283880
1191.000000	0.283919
1192.000000	0.283893
1193.000000	0.284034
1194.000000	0.284198
1195.000000	0.284280
1196.000000	0.284275
1197.000000	0.284351
1198.000000	0.284442
1199.000000	0.284533
1200.000000	0.284718
1201.000000	0.284820
1202.000000	0.284742
1203.000000	0.284747
1204.000000	0.284777
1205.000000	0.284823
1206.000000	0.284837
1207.000000	0.285006
1208.000000	0.285009
1209.000000	0.284920
1210.000000	0.284922
1211.000000	0.284952
1212.000000	0.284966
1213.000000	0.285030
1214.000000	0.285115
1215.000000	0.285235
1216.000000	0.285228
1217.000000	0.285177
1218.000000	0.285098
1219.000000	0.284937
1220.000000	0.284754
1221.000000	0.284743
1222.000000	0.284728
1223.000000	0.284808
1224.000000	0.284932
1225.000000	0.284889
1226.000000	0.284882
1227.000000	0.284893
1228.000000	0.284891
1229.000000	0.284888
1230.000000	0.284959
1231.000000	0.284932
1232.000000	0.284880
1233.000000	0.285006
1234.000000	0.285267
1235.000000	0.285316
1236.000000	0.285275
1237.000000	0.285295
1238.000000	0.285073
1239.000000	0.285016
1240.000000	0.285076
1241.000000	0.285196
1242.000000	0.285233
1243.000000	0.285253
1244.000000	0.285344
1245.000000	0.285434
1246.000000	0.285460
1247.000000	0.285583
1248.000000	0.285695
1249.000000	0.285699
1250.000000	0.285656
1251.000000	0.285705
1252.000000	0.285690
1253.000000	0.285657
1254.000000	0.285605
1255.000000	0.285543
1256.000000	0.285423
1257.000000	0.285205
1258.000000	0.285138
1259.000000	0.285041
1260.000000	0.285070
1261.000000	0.285172
1262.000000	0.285257
1263.000000	0.285421
1264.000000	0.285534
1265.000000	0.285607
1266.000000	0.285729
1267.000000	0.285618
1268.000000	0.285426
1269.000000	0.285371
1270.000000	0.285388
1271.000000	0.285516
1272.000000	0.285688
1273.000000	0.285747
1274.000000	0.285781
1275.000000	0.285787
1276.000000	0.285746
1277.000000	0.285893
1278.000000	0.286029
1279.000000	0.286057
1280.000000	0.286125
1281.000000	0.286053
1282.000000	0.285803
1283.000000	0.285823
1284.000000	0.285906
1285.000000	0.285949
1286.000000	0.286041
1287.000000	0.286101
1288.000000	0.286183
1289.000000	0.286125
1290.000000	0.286040
1291.000000	0.286003
1292.000000	0.285936
1293.000000	0.285877
1294.000000	0.285970
1295.000000	0.286055
1296.000000	0.285913
1297.000000	0.285885
1298.000000	0.285838
1299.000000	0.285668
1300.000000	0.285695
1301.000000	0.285716
1302.000000	0.285721
1303.000000	0.285861
1304.000000	0.285856
1305.000000	0.285937
1306.000000	0.285945
1307.000000	0.285778
1308.000000	0.285854
1309.000000	0.286079
1310.000000	0.286146
1311.000000	0.286286
1312.000000	0.286406
1313.000000	0.286181
1314.000000	0.286091
1315.000000	0.285842
1316.000000	0.285669
1317.000000	0.285933
1318.000000	0.285960
1319.000000	0.286002
1320.000000	0.286163
1321.000000	0.285927
1322.000000	0.285702
1323.000000	0.285618
1324.000000	0.285602
1325.000000	0.285663
1326.000000	0.285701
1327.000000	0.285695
1328.000000	0.285536
1329.000000	0.285424
1330.000000	0.285284
1331.000000	0.285238
1332.000000	0.285393
1333.000000	0.285342
1334.000000	0.285115
1335.000000	0.285146
1336.000000	0.285280
1337.000000	0.285269
1338.000000	0.285282
1339.000000	0.285363
1340.000000	0.285188
1341.000000	0.285072
1342.000000	0.285279
1343.000000	0.285343
1344.000000	0.285355
1345.000000	0.285412
1346.000000	0.285331
1347.000000	0.285311
1348.000000	0.285482
1349.000000	0.285487
1350.000000	0.285518
1351.000000	0.285535
1352.000000	0.285386
1353.000000	0.285332
1354.000000	0.285430
1355.000000	0.285458
1356.000000	0.285524
1357.000000	0.285623
1358.000000	0.285521
1359.000000	0.285295
1360.000000	0.285208
1361.000000	0.285142
1362.000000	0.285090
1363.000000	0.285142
1364.000000	0.285195
1365.000000	0.285225
1366.000000	0.285224
1367.000000	0.285234
1368.000000	0.285198
1369.000000	0.285227
1370.000000	0.285160
1371.000000	0.284936
1372.000000	0.284789
1373.000000	0.284751
1374.000000	0.284725
1375.000000	0.284776
1376.000000	0.284892
1377.000000	0.284755
1378.000000	0.284535
1379.000000	0.284425
1380.000000	0.284325
1381.000000	0.284207
1382.000000	0.284026
1383.000000	0.283768
1384.000000	0.283508
1385.000000	0.283346
1386.000000	0.283219
1387.000000	0.283155
1388.000000	0.282974
1389.000000	0.282583
1390.000000	0.282287
1391.000000	0.281956
1392.000000	0.281662
1393.000000	0.281350
1394.000000	0.281100
1395.000000	0.280826
1396.000000	0.280536
1397.000000	0.280184
1398.000000	0.279828
1399.000000	0.279485
1400.000000	0.279008
1401.000000	0.278612
1402.000000	0.278307
1403.000000	0.277986
1404.000000	0.277745
1405.000000	0.277555
1406.000000	0.277299
1407.000000	0.277045
1408.000000	0.276810
1409.000000	0.276635
1410.000000	0.276541
1411.000000	0.276364
1412.000000	0.275977
1413.000000	0.275701
1414.000000	0.275501
1415.000000	0.275312
1416.000000	0.275273
1417.000000	0.275213
1418.000000	0.275082
1419.000000	0.275059
1420.000000	0.275001
1421.000000	0.274945
1422.000000	0.274886
1423.000000	0.274920
1424.000000	0.274851
1425.000000	0.274748
1426.000000	0.274619
1427.000000	0.274463
1428.000000	0.274455
1429.000000	0.274498
1430.000000	0.274435
1431.000000	0.274443
1432.000000	0.274382
1433.000000	0.274197
1434.000000	0.274034
1435.000000	0.273944
1436.000000	0.273891
1437.000000	0.273815
1438.000000	0.273801
1439.000000	0.273920
1440.000000	0.274001
1441.000000	0.274094
1442.000000	0.274232
1443.000000	0.274351
1444.000000	0.274483
1445.000000	0.274687
1446.000000	0.274708
1447.000000	0.274724
1448.000000	0.274903
1449.000000	0.275026
1450.000000	0.275165
1451.000000	0.275293
1452.000000	0.275214
1453.000000	0.275228
1454.000000	0.275305
1455.000000	0.275390
1456.000000	0.275713
1457.000000	0.275864
1458.000000	0.275848
1459.000000	0.275880
1460.000000	0.275807
1461.000000	0.275869
1462.000000	0.276006
1463.000000	0.276029
1464.000000	0.276168
1465.000000	0.276268
1466.000000	0.276130
1467.000000	0.276163
1468.000000	0.276329
1469.000000	0.276466
1470.000000	0.276671
1471.000000	0.276896
1472.000000	0.277004
1473.000000	0.277140
1474.000000	0.277278
1475.000000	0.277392
1476.000000	0.277461
1477.000000	0.277515
1478.000000	0.277577
1479.000000	0.277655
1480.000000	0.277790
1481.000000	0.277921
1482.000000	0.278160
1483.000000	0.278302
1484.000000	0.278412
1485.000000	0.278487
1486.000000	0.278461
1487.000000	0.278503
1488.000000	0.278544
1489.000000	0.278651
1490.000000	0.278723
1491.000000	0.278809
1492.000000	0.278918
1493.000000	0.279035
1494.000000	0.279144
1495.000000	0.279143
1496.000000	0.279010
1497.000000	0.278999
1498.000000	0.278991
1499.000000	0.278993
1500.000000	0.279174
1501.000000	0.279326
1502.000000	0.279268
1503.000000	0.279304
1504.000000	0.279282
1505.000000	0.279275
1506.000000	0.279400
1507.000000	0.279404
1508.000000	0.279463
1509.000000	0.279589
1510.000000	0.279657
1511.000000	0.279788
1512.000000	0.279806
1513.000000	0.279732
1514.000000	0.279827
1515.000000	0.279806
1516.000000	0.279844
1517.000000	0.279995
1518.000000	0.280002
1519.000000	0.279997
1520.000000	0.280058
1521.000000	0.280003
1522.000000	0.279923
1523.000000	0.280008
1524.000000	0.280088
1525.000000	0.280162
1526.000000	0.280242
1527.000000	0.280200
1528.000000	0.280143
1529.000000	0.280099
1530.000000	0.280076
1531.000000	0.280213
1532.000000	0.280331
1533.000000	0.280379
1534.000000	0.280408
1535.000000	0.280379
1536.000000	0.280378
1537.000000	0.280560
1538.000000	0.280721
1539.000000	0.280770
1540.000000	0.280775
1541.000000	0.280728
1542.000000	0.280761
1543.000000	0.280866
1544.000000	0.280947
1545.000000	0.281016
1546.000000	0.280976
1547.000000	0.280924
1548.000000	0.281019
1549.000000	0.281178
1550.000000	0.281243
1551.000000	0.281202
1552.000000	0.281233
1553.000000	0.281242
1554.000000	0.281147
1555.000000	0.281209
1556.000000	0.281214
1557.000000	0.281034
1558.000000	0.281008
1559.000000	0.281053
1560.000000	0.281052
1561.000000	0.281086
1562.000000	0.281122
1563.000000	0.281223
1564.000000	0.281271
1565.000000	0.281253
1566.000000	0.281295
1567.000000	0.281463
1568.000000	0.281535
1569.000000	0.281729
1570.000000	0.281749
1571.000000	0.281538
1572.000000	0.281499
1573.000000	0.281553
1574.000000	0.281455
1575.000000	0.281354
1576.000000	0.281343
1577.000000	0.281204
1578.000000	0.281104
1579.000000	0.281221
1580.000000	0.281211
1581.000000	0.281102
1582.000000	0.281114
1583.000000	0.281193
1584.000000	0.281197
1585.000000	0.281305
1586.000000	0.281369
1587.000000	0.281405
1588.000000	0.281389
1589.000000	0.281340
1590.000000	0.281294
1591.000000	0.281198
1592.000000	0.281215
1593.000000	0.281339
1594.000000	0.281357
1595.000000	0.281462
1596.000000	0.281436
1597.000000	0.281321
1598.000000	0.281217
1599.000000	0.281034
1600.000000	0.280977
1601.000000	0.281009
1602.000000	0.281019
1603.000000	0.281202
1604.000000	0.281235
1605.000000	0.281193
1606.000000	0.281196
1607.000000	0.281215
1608.000000	0.281183
1609.000000	0.281214
1610.000000	0.281166
1611.000000	0.280994
1612.000000	0.280954
1613.000000	0.281088
1614.000000	0.281095
1615.000000	0.281183
1616.000000	0.281215
1617.000000	0.281100
1618.000000	0.281043
1619.000000	0.280963
1620.000000	0.280965
1621.000000	0.280998
1622.000000	0.281096
1623.000000	0.281297
1624.000000	0.281394
1625.000000	0.281365
1626.000000	0.281310
1627.000000	0.281219
1628.000000	0.281163
1629.000000	0.281057
1630.000000	0.281053
1631.000000	0.280998
1632.000000	0.280980
1633.000000	0.281061
1634.000000	0.281116
1635.000000	0.281302
1636.000000	0.281321
1637.000000	0.281239
1638.000000	0.281146
1639.000000	0.280942
1640.000000	0.280901
1641.000000	0.281062
1642.000000	0.281127
1643.000000	0.281250
1644.000000	0.281286
1645.000000	0.281242
1646.000000	0.281160
1647.000000	0.281079
1648.000000	0.280981
1649.000000	0.280902
1650.000000	0.280857
1651.000000	0.280855
1652.000000	0.280898
1653.000000	0.280899
1654.000000	0.280983
1655.000000	0.281139
1656.000000	0.281068
1657.000000	0.280993
1658.000000	0.280937
1659.000000	0.280855
1660.000000	0.280870
1661.000000	0.280869
1662.000000	0.280938
1663.000000	0.281033
1664.000000	0.281061
1665.000000	0.281161
1666.000000	0.281223
1667.000000	0.281107
1668.000000	0.281116
1669.000000	0.281145
1670.000000	0.281158
1671.000000	0.281280
1672.000000	0.281383
1673.000000	0.281499
1674.000000	0.281576
1675.000000	0.281640
1676.000000	0.281624
1677.000000	0.281529
1678.000000	0.281401
1679.000000	0.281346
1680.000000	0.281343
1681.000000	0.281304
1682.000000	0.281234
1683.000000	0.281143
1684.000000	0.281176
1685.000000	0.281337
1686.000000	0.281477
1687.000000	0.281723
1688.000000	0.281770
1689.000000	0.281680
1690.000000	0.281656
1691.000000	0.281612
1692.000000	0.281587
1693.000000	0.281545
1694.000000	0.281337
1695.000000	0.281222
1696.000000	0.281079
1697.000000	0.281008
1698.000000	0.281235
1699.000000	0.281326
1700.000000	0.281406
1701.000000	0.281468
1702.000000	0.281257
1703.000000	0.281088
1704.000000	0.280931
1705.000000	0.280839
1706.000000	0.280867
1707.000000	0.280833
1708.000000	0.280779
1709.000000	0.280693
1710.000000	0.280637
1711.000000	0.280623
1712.000000	0.280711
1713.000000	0.280659
1714.000000	0.280498
1715.000000	0.280500
1716.000000	0.280586
1717.000000	0.280570
1718.000000	0.280541
1719.000000	0.280575
1720.000000	0.280581
1721.000000	0.280619
1722.000000	0.280869
1723.000000	0.280914
1724.000000	0.280803
1725.000000	0.280788
1726.000000	0.280661
1727.000000	0.280606
1728.000000	0.280552
1729.000000	0.280464
1730.000000	0.280453
1731.000000	0.280530
1732.000000	0.280686
1733.000000	0.280834
1734.000000	0.280945
1735.000000	0.281049
1736.000000	0.281111
1737.000000	0.281108
1738.000000	0.281104
1739.000000	0.281091
1740.000000	0.280946
1741.000000	0.280950
1742.000000	0.281055
1743.000000	0.281159
1744.000000	0.281289
1745.000000	0.281380
1746.000000	0.281485
1747.000000	0.281545
1748.000000	0.281476
1749.000000	0.281210
1750.000000	0.281043
1751.000000	0.280992
1752.000000	0.280989
1753.000000	0.280953
1754.000000	0.280939
1755.000000	0.280865
1756.000000	0.280807
1757.000000	0.280836
1758.000000	0.280798
1759.000000	0.280717
1760.000000	0.280588
1761.000000	0.280321
1762.000000	0.280138
1763.000000	0.279930
1764.000000	0.279827
1765.000000	0.279791
1766.000000	0.279778
1767.000000	0.279778
1768.000000	0.279739
1769.000000	0.279803
1770.000000	0.279842
1771.000000	0.279775
1772.000000	0.279829
1773.000000	0.279925
1774.000000	0.279945
1775.000000	0.280013
1776.000000	0.280107
1777.000000	0.280110
1778.000000	0.280211
1779.000000	0.280467
1780.000000	0.280531
1781.000000	0.280468
1782.000000	0.280431
1783.000000	0.280378
1784.000000	0.280334
1785.000000	0.280268
1786.000000	0.280236
1787.000000	0.280175
1788.000000	0.280222
1789.000000	0.280233
1790.000000	0.280098
1791.000000	0.280011
1792.000000	0.279944
1793.000000	0.279908
1794.000000	0.280029
1795.000000	0.280062
1796.000000	0.279993
1797.000000	0.279985
1798.000000	0.279939
1799.000000	0.279971
1800.000000	0.280154
1801.000000	0.280021
1802.000000	0.280039
1803.000000	0.280003
1804.000000	0.280062
1805.000000	0.279914
1806.000000	0.279831
1807.000000	0.279821
1808.000000	0.280050
1809.000000	0.280596
1810.000000	0.280452
1811.000000	0.280630
1812.000000	0.281410
1813.000000	0.281056
1814.000000	0.279756
1815.000000	0.279472
1816.000000	0.278936
1817.000000	0.278706
1818.000000	0.279600
1819.000000	0.279781
1820.000000	0.279868
1821.000000	0.279578
1822.000000	0.279402
1823.000000	0.279083
1824.000000	0.278890
1825.000000	0.278769
1826.000000	0.278584
1827.000000	0.278495
1828.000000	0.277622
1829.000000	0.277805
1830.000000	0.277724
1831.000000	0.278165
1832.000000	0.279723
1833.000000	0.280169
1834.000000	0.280127
1835.000000	0.280518
1836.000000	0.280570
1837.000000	0.280654
1838.000000	0.281191
1839.000000	0.281332
1840.000000	0.280527
1841.000000	0.279504
1842.000000	0.278949
1843.000000	0.277800
1844.000000	0.277683
1845.000000	0.278801
1846.000000	0.279183
1847.000000	0.279432
1848.000000	0.279692
1849.000000	0.279834
1850.000000	0.279628
1851.000000	0.279486
1852.000000	0.279305
1853.000000	0.279224
1854.000000	0.278769
1855.000000	0.278352
1856.000000	0.277857
1857.000000	0.277982
1858.000000	0.277218
1859.000000	0.276659
1860.000000	0.276322
1861.000000	0.275612
1862.000000	0.275427
1863.000000	0.275816
1864.000000	0.275917
1865.000000	0.276140
1866.000000	0.276444
1867.000000	0.277098
1868.000000	0.276799
1869.000000	0.276333
1870.000000	0.275902
1871.000000	0.274522
1872.000000	0.273521
1873.000000	0.272913
1874.000000	0.272767
1875.000000	0.272081
1876.000000	0.271165
1877.000000	0.270392
1878.000000	0.268775
1879.000000	0.267739
1880.000000	0.267886
1881.000000	0.267520
1882.000000	0.267122
1883.000000	0.266724
1884.000000	0.265936
1885.000000	0.263989
1886.000000	0.262828
1887.000000	0.262109
1888.000000	0.260778
1889.000000	0.259105
1890.000000	0.258153
1891.000000	0.256544
1892.000000	0.255044
1893.000000	0.254126
1894.000000	0.252040
1895.000000	0.250377
1896.000000	0.248836
1897.000000	0.247517
1898.000000	0.245402
1899.000000	0.244504
1900.000000	0.243343
1901.000000	0.241948
1902.000000	0.241755
1903.000000	0.241317
1904.000000	0.240917
1905.000000	0.240257
1906.000000	0.239688
1907.000000	0.238943
1908.000000	0.238559
1909.000000	0.238210
1910.000000	0.238489
1911.000000	0.238207
1912.000000	0.237777
1913.000000	0.238078
1914.000000	0.237834
1915.000000	0.238158
1916.000000	0.239284
1917.000000	0.239600
1918.000000	0.239551
1919.000000	0.239952
1920.000000	0.239669
1921.000000	0.238826
1922.000000	0.239220
1923.000000	0.239543
1924.000000	0.240163
1925.000000	0.241107
1926.000000	0.241385
1927.000000	0.241542
1928.000000	0.241685
1929.000000	0.241941
1930.000000	0.241648
1931.000000	0.241246
1932.000000	0.241404
1933.000000	0.241247
1934.000000	0.241612
1935.000000	0.242424
1936.000000	0.242676
1937.000000	0.242971
1938.000000	0.243090
1939.000000	0.243106
1940.000000	0.242941
1941.000000	0.242809
1942.000000	0.242980
1943.000000	0.243270
1944.000000	0.243260
1945.000000	0.243730
1946.000000	0.243825
1947.000000	0.243346
1948.000000	0.243877
1949.000000	0.244089
1950.000000	0.244138
1951.000000	0.244316
1952.000000	0.245049
1953.000000	0.244535
1954.000000	0.244502
1955.000000	0.244892
1956.000000	0.244259
1957.000000	0.243997
1958.000000	0.243504
1959.000000	0.242461
1960.000000	0.242436
1961.000000	0.243157
1962.000000	0.243544
1963.000000	0.244339
1964.000000	0.244997
1965.000000	0.244742
1966.000000	0.244199
1967.000000	0.243944
1968.000000	0.244070
1969.000000	0.244494
1970.000000	0.244960
1971.000000	0.245188
1972.000000	0.244935
1973.000000	0.244713
1974.000000	0.244390
1975.000000	0.244294
1976.000000	0.244097
1977.000000	0.244405
1978.000000	0.244905
1979.000000	0.245084
1980.000000	0.245310
1981.000000	0.245339
1982.000000	0.245262
1983.000000	0.245458
1984.000000	0.245601
1985.000000	0.246137
1986.000000	0.246171
1987.000000	0.245964
1988.000000	0.245782
1989.000000	0.245857
1990.000000	0.245829
1991.000000	0.246500
1992.000000	0.247193
1993.000000	0.247059
1994.000000	0.247207
1995.000000	0.247439
1996.000000	0.247266
1997.000000	0.247418
1998.000000	0.248315
1999.000000	0.248544
2000.000000	0.248490
2001.000000	0.248205
2002.000000	0.248136
2003.000000	0.248200
2004.000000	0.248293
2005.000000	0.249270
2006.000000	0.250479
2007.000000	0.251326
2008.000000	0.252002
2009.000000	0.252581
2010.000000	0.253100
2011.000000	0.253273
2012.000000	0.253484
2013.000000	0.253648
2014.000000	0.253666
2015.000000	0.253787
2016.000000	0.253690
2017.000000	0.254111
2018.000000	0.254741
2019.000000	0.254922
2020.000000	0.255330
2021.000000	0.255375
2022.000000	0.254769
2023.000000	0.254625
2024.000000	0.254626
2025.000000	0.254599
2026.000000	0.254482
2027.000000	0.254562
2028.000000	0.254830
2029.000000	0.254818
2030.000000	0.255043
2031.000000	0.255161
2032.000000	0.254958
2033.000000	0.255077
2034.000000	0.254973
2035.000000	0.254712
2036.000000	0.254737
2037.000000	0.254887
2038.000000	0.255114
2039.000000	0.255672
2040.000000	0.256172
2041.000000	0.256642
2042.000000	0.257201
2043.000000	0.257207
2044.000000	0.257125
2045.000000	0.257149
2046.000000	0.256671
2047.000000	0.256700
2048.000000	0.257291
2049.000000	0.257583
2050.000000	0.257455
2051.000000	0.257575
2052.000000	0.257498
2053.000000	0.257411
2054.000000	0.257545
2055.000000	0.257965
2056.000000	0.258355
2057.000000	0.258960
2058.000000	0.259525
2059.000000	0.259279
2060.000000	0.259153
2061.000000	0.258699
2062.000000	0.258346
2063.000000	0.257860
2064.000000	0.257923
2065.000000	0.258180
2066.000000	0.258452
2067.000000	0.259529
2068.000000	0.260461
2069.000000	0.260242
2070.000000	0.260534
2071.000000	0.260542
2072.000000	0.259802
2073.000000	0.259740
2074.000000	0.260276
2075.000000	0.260460
2076.000000	0.260629
2077.000000	0.260750
2078.000000	0.260708
2079.000000	0.260741
2080.000000	0.260913
2081.000000	0.261075
2082.000000	0.261360
2083.000000	0.261570
2084.000000	0.260913
2085.000000	0.260911
2086.000000	0.261312
2087.000000	0.261106
2088.000000	0.261720
2089.000000	0.262080
2090.000000	0.262287
2091.000000	0.262356
2092.000000	0.262429
2093.000000	0.262253
2094.000000	0.262413
2095.000000	0.262871
2096.000000	0.262721
2097.000000	0.262222
2098.000000	0.262112
2099.000000	0.261818
2100.000000	0.261633
2101.000000	0.261588
2102.000000	0.261672
2103.000000	0.261449
2104.000000	0.261308
2105.000000	0.261528
2106.000000	0.262408
2107.000000	0.262907
2108.000000	0.263524
2109.000000	0.263816
2110.000000	0.263379
2111.000000	0.263552
2112.000000	0.263858
2113.000000	0.263954
2114.000000	0.264292
2115.000000	0.264803
2116.000000	0.263958
2117.000000	0.263330
2118.000000	0.263452
2119.000000	0.262952
2120.000000	0.263034
2121.000000	0.264034
2122.000000	0.264207
2123.000000	0.264091
2124.000000	0.264046
2125.000000	0.263710
2126.000000	0.263497
2127.000000	0.262887
2128.000000	0.263119
2129.000000	0.264013
2130.000000	0.264633
2131.000000	0.265013
2132.000000	0.265452
2133.000000	0.264691
2134.000000	0.264032
2135.000000	0.263862
2136.000000	0.263169
2137.000000	0.263229
2138.000000	0.264009
2139.000000	0.264231
2140.000000	0.265080
2141.000000	0.264969
2142.000000	0.263408
2143.000000	0.262877
2144.000000	0.262265
2145.000000	0.262354
2146.000000	0.263544
2147.000000	0.265223
2148.000000	0.265354
2149.000000	0.265516
2150.000000	0.265043
2151.000000	0.264359
2152.000000	0.264679
2153.000000	0.264068
2154.000000	0.263465
2155.000000	0.262540
2156.000000	0.261881
2157.000000	0.261212
2158.000000	0.260805
2159.000000	0.260257
2160.000000	0.260438
2161.000000	0.261167
2162.000000	0.261555
2163.000000	0.262667
2164.000000	0.263087
2165.000000	0.262642
2166.000000	0.262626
2167.000000	0.263058
2168.000000	0.263410
2169.000000	0.263619
2170.000000	0.263574
2171.000000	0.263696
2172.000000	0.263218
2173.000000	0.263389
2174.000000	0.264102
2175.000000	0.264731
2176.000000	0.265558
2177.000000	0.266565
2178.000000	0.268349
2179.000000	0.269104
2180.000000	0.269296
2181.000000	0.269550
2182.000000	0.268635
2183.000000	0.268092
2184.000000	0.267188
2185.000000	0.265990
2186.000000	0.264788
2187.000000	0.263559
2188.000000	0.263399
2189.000000	0.262713
2190.000000	0.260988
2191.000000	0.260625
2192.000000	0.261049
2193.000000	0.262194
2194.000000	0.263400
2195.000000	0.267064
2196.000000	0.268137
2197.000000	0.267797
2198.000000	0.267315
2199.000000	0.265031
2200.000000	0.263980
2201.000000	0.262891
2202.000000	0.262234
2203.000000	0.262707
2204.000000	0.261779
2205.000000	0.261545
2206.000000	0.261863
2207.000000	0.261598
2208.000000	0.262832
2209.000000	0.261408
2210.000000	0.259850
2211.000000	0.259502
2212.000000	0.257781
2213.000000	0.257843
2214.000000	0.259757
2215.000000	0.260951
2216.000000	0.262767
2217.000000	0.264089
2218.000000	0.266291
2219.000000	0.266290
2220.000000	0.264342
2221.000000	0.262926
2222.000000	0.258732
2223.000000	0.258293
2224.000000	0.259759
2225.000000	0.262371
2226.000000	0.265793
2227.000000	0.267901
2228.000000	0.265884
2229.000000	0.263125
2230.000000	0.259168
2231.000000	0.255149
2232.000000	0.253166
2233.000000	0.252020
2234.000000	0.251340
2235.000000	0.251211
2236.000000	0.252188
2237.000000	0.253994
2238.000000	0.256011
2239.000000	0.260943
2240.000000	0.261212
2241.000000	0.258724
2242.000000	0.258199
2243.000000	0.254888
2244.000000	0.254615
2245.000000	0.257386
2246.000000	0.258964
2247.000000	0.262239
2248.000000	0.262987
2249.000000	0.262929
2250.000000	0.261370
2251.000000	0.259516
2252.000000	0.258372
2253.000000	0.258150
2254.000000	0.259084
2255.000000	0.259089
2256.000000	0.257594
2257.000000	0.256602
2258.000000	0.256785
2259.000000	0.255589
2260.000000	0.254682
2261.000000	0.254729
2262.000000	0.255073
2263.000000	0.255261
2264.000000	0.255600
2265.000000	0.257385
2266.000000	0.260947
2267.000000	0.262052
2268.000000	0.263974
2269.000000	0.264359
2270.000000	0.261189
2271.000000	0.259495
2272.000000	0.259603
2273.000000	0.257624
2274.000000	0.252808
2275.000000	0.251343
2276.000000	0.251262
2277.000000	0.249024
2278.000000	0.250587
2279.000000	0.252084
2280.000000	0.250613
2281.000000	0.250155
2282.000000	0.246855
2283.000000	0.243915
2284.000000	0.242678
2285.000000	0.240174
2286.000000	0.240651
2287.000000	0.242789
2288.000000	0.244525
2289.000000	0.246942
2290.000000	0.249642
2291.000000	0.250532
2292.000000	0.250054
2293.000000	0.249619
2294.000000	0.248446
2295.000000	0.245145
2296.000000	0.244966
2297.000000	0.245404
2298.000000	0.245259
2299.000000	0.247450
2300.000000	0.247287
2301.000000	0.245321
2302.000000	0.245593
2303.000000	0.245660
2304.000000	0.245976
2305.000000	0.247472
2306.000000	0.248146
2307.000000	0.248240
2308.000000	0.249351
2309.000000	0.250692
2310.000000	0.250470
2311.000000	0.248728
2312.000000	0.247695
2313.000000	0.247737
2314.000000	0.248578
2315.000000	0.251987
2316.000000	0.253942
2317.000000	0.251866
2318.000000	0.250736
2319.000000	0.248180
2320.000000	0.247389
2321.000000	0.249096
2322.000000	0.247814
2323.000000	0.250296
2324.000000	0.250588
2325.000000	0.247716
2326.000000	0.249733
2327.000000	0.249652
2328.000000	0.249626
2329.000000	0.251699
2330.000000	0.249409
2331.000000	0.247575
2332.000000	0.248363
2333.000000	0.248952
2334.000000	0.250319
2335.000000	0.250959
2336.000000	0.250434
2337.000000	0.249998
2338.000000	0.249175
2339.000000	0.248576
2340.000000	0.247813
2341.000000	0.246741
2342.000000	0.245823
2343.000000	0.245038
2344.000000	0.244668
2345.000000	0.243520
2346.000000	0.240733
2347.000000	0.239929
2348.000000	0.239742
2349.000000	0.239427
2350.000000	0.240955
2351.000000	0.241154
2352.000000	0.241274
2353.000000	0.240456
2354.000000	0.239289
2355.000000	0.239776
2356.000000	0.238931
2357.000000	0.240663
2358.000000	0.241771
2359.000000	0.242468
2360.000000	0.243586
2361.000000	0.243504
2362.000000	0.244777
2363.000000	0.245254
2364.000000	0.243685
2365.000000	0.243834
2366.000000	0.244330
2367.000000	0.246394
2368.000000	0.251088
2369.000000	0.250814
2370.000000	0.249355
2371.000000	0.247608
2372.000000	0.244831
2373.000000	0.243108
2374.000000	0.240822
2375.000000	0.239557
2376.000000	0.235888
2377.000000	0.232730
2378.000000	0.228488
2379.000000	0.226509
2380.000000	0.228478
2381.000000	0.228113
2382.000000	0.231662
2383.000000	0.232544
2384.000000	0.229452
2385.000000	0.228689
2386.000000	0.228513
2387.000000	0.225345
2388.000000	0.220727
2389.000000	0.217134
2390.000000	0.211971
2391.000000	0.212566
2392.000000	0.218775
2393.000000	0.224989
2394.000000	0.232467
2395.000000	0.239688
2396.000000	0.240476
2397.000000	0.239766
2398.000000	0.242148
2399.000000	0.239674
2400.000000	0.238772
2401.000000	0.242373
2402.000000	0.244550
2403.000000	0.240177
2404.000000	0.235721
2405.000000	0.231775
2406.000000	0.219331
2407.000000	0.223252
2408.000000	0.228579
2409.000000	0.223994
2410.000000	0.232241
2411.000000	0.223020
2412.000000	0.210804
2413.000000	0.212494
2414.000000	0.209573
2415.000000	0.212677
2416.000000	0.215784
2417.000000	0.211015
2418.000000	0.207240
2419.000000	0.207006
2420.000000	0.213213
2421.000000	0.221450
2422.000000	0.223705
2423.000000	0.230399
2424.000000	0.231503
2425.000000	0.231302
2426.000000	0.238996
2427.000000	0.238409
2428.000000	0.239575
2429.000000	0.245228
2430.000000	0.243052
2431.000000	0.239229
2432.000000	0.235419
2433.000000	0.226274
2434.000000	0.222964
2435.000000	0.224078
2436.000000	0.231398
2437.000000	0.241246
2438.000000	0.242407
2439.000000	0.238727
2440.000000	0.226849
2441.000000	0.211929
2442.000000	0.208192
2443.000000	0.210898
2444.000000	0.214394
2445.000000	0.227866
2446.000000	0.230558
2447.000000	0.236423
2448.000000	0.250486
2449.000000	0.243126
2450.000000	0.239933
2451.000000	0.235211
2452.000000	0.221933
2453.000000	0.218019
2454.000000	0.222761
2455.000000	0.214492
2456.000000	0.203734
2457.000000	0.212366
2458.000000	0.204865
2459.000000	0.208611
2460.000000	0.217148
2461.000000	0.205428
2462.000000	0.209023
2463.000000	0.196357
2464.000000	0.192347
2465.000000	0.186955
2466.000000	0.157826
2467.000000	0.152644
2468.000000	0.159202
2469.000000	0.174095
2470.000000	0.191372
2471.000000	0.211595
2472.000000	0.205767
2473.000000	0.197296
2474.000000	0.211515
2475.000000	0.216792
2476.000000	0.237310
2477.000000	0.242920
2478.000000	0.235689
2479.000000	0.238594
2480.000000	0.235971
2481.000000	0.244401
2482.000000	0.245827
2483.000000	0.261539
2484.000000	0.253704
2485.000000	0.223356
2486.000000	0.240414
2487.000000	0.185661
2488.000000	0.150749
2489.000000	0.185222
2490.000000	0.171090
2491.000000	0.234731
2492.000000	0.242884
2493.000000	0.206512
2494.000000	0.207697
2495.000000	0.193962
2496.000000	0.187835
2497.000000	0.225534
2498.000000	0.223315
2499.000000	0.182181
2500.000000	0.185049
