# Wavelength	NAu-2-80_HEX-10_FV7-10_00000.asd.rts.txt
350.000000	0.062373
351.000000	0.052124
352.000000	0.055895
353.000000	0.056515
354.000000	0.050090
355.000000	0.059056
356.000000	0.067559
357.000000	0.069979
358.000000	0.064836
359.000000	0.070076
360.000000	0.075496
361.000000	0.068443
362.000000	0.072325
363.000000	0.072406
364.000000	0.062965
365.000000	0.068689
366.000000	0.070280
367.000000	0.063938
368.000000	0.058437
369.000000	0.059566
370.000000	0.063069
371.000000	0.062134
372.000000	0.058997
373.000000	0.060172
374.000000	0.067039
375.000000	0.067604
376.000000	0.064796
377.000000	0.062976
378.000000	0.068782
379.000000	0.069455
380.000000	0.065923
381.000000	0.063717
382.000000	0.063421
383.000000	0.064186
384.000000	0.065341
385.000000	0.067794
386.000000	0.067171
387.000000	0.064695
388.000000	0.067806
389.000000	0.069607
390.000000	0.068921
391.000000	0.066742
392.000000	0.066988
393.000000	0.068750
394.000000	0.070380
395.000000	0.070527
396.000000	0.069242
397.000000	0.067427
398.000000	0.066998
399.000000	0.069081
400.000000	0.070851
401.000000	0.068120
402.000000	0.068370
403.000000	0.069490
404.000000	0.068853
405.000000	0.068797
406.000000	0.068951
407.000000	0.069090
408.000000	0.069483
409.000000	0.069066
410.000000	0.068629
411.000000	0.070019
412.000000	0.070765
413.000000	0.070845
414.000000	0.070847
415.000000	0.071224
416.000000	0.071648
417.000000	0.071917
418.000000	0.072216
419.000000	0.072399
420.000000	0.072448
421.000000	0.072442
422.000000	0.072512
423.000000	0.072819
424.000000	0.073466
425.000000	0.073844
426.000000	0.074121
427.000000	0.074446
428.000000	0.074555
429.000000	0.074813
430.000000	0.075245
431.000000	0.075415
432.000000	0.075623
433.000000	0.075924
434.000000	0.076304
435.000000	0.076514
436.000000	0.076796
437.000000	0.077302
438.000000	0.077261
439.000000	0.077692
440.000000	0.078723
441.000000	0.078391
442.000000	0.078642
443.000000	0.079452
444.000000	0.079519
445.000000	0.079615
446.000000	0.079873
447.000000	0.080212
448.000000	0.080641
449.000000	0.081192
450.000000	0.081750
451.000000	0.081658
452.000000	0.081993
453.000000	0.082822
454.000000	0.083111
455.000000	0.083697
456.000000	0.084450
457.000000	0.084846
458.000000	0.085357
459.000000	0.085839
460.000000	0.086132
461.000000	0.086294
462.000000	0.086810
463.000000	0.087548
464.000000	0.087310
465.000000	0.087498
466.000000	0.088116
467.000000	0.088349
468.000000	0.088358
469.000000	0.088412
470.000000	0.088813
471.000000	0.089279
472.000000	0.089802
473.000000	0.090355
474.000000	0.090704
475.000000	0.091171
476.000000	0.091818
477.000000	0.092339
478.000000	0.092432
479.000000	0.092467
480.000000	0.092937
481.000000	0.093156
482.000000	0.093413
483.000000	0.093913
484.000000	0.094255
485.000000	0.094648
486.000000	0.095116
487.000000	0.095057
488.000000	0.095088
489.000000	0.095336
490.000000	0.095626
491.000000	0.095744
492.000000	0.095823
493.000000	0.095998
494.000000	0.095975
495.000000	0.095940
496.000000	0.096022
497.000000	0.096143
498.000000	0.096279
499.000000	0.096402
500.000000	0.096387
501.000000	0.096446
502.000000	0.096586
503.000000	0.096690
504.000000	0.096782
505.000000	0.096937
506.000000	0.097210
507.000000	0.097492
508.000000	0.097812
509.000000	0.098165
510.000000	0.098500
511.000000	0.098876
512.000000	0.099276
513.000000	0.099601
514.000000	0.099910
515.000000	0.100285
516.000000	0.100763
517.000000	0.101129
518.000000	0.101472
519.000000	0.101866
520.000000	0.102329
521.000000	0.102803
522.000000	0.103324
523.000000	0.104084
524.000000	0.104916
525.000000	0.105736
526.000000	0.106516
527.000000	0.107409
528.000000	0.108493
529.000000	0.109798
530.000000	0.111066
531.000000	0.112390
532.000000	0.113815
533.000000	0.115370
534.000000	0.116890
535.000000	0.118385
536.000000	0.120084
537.000000	0.121659
538.000000	0.123088
539.000000	0.124466
540.000000	0.125841
541.000000	0.127190
542.000000	0.128498
543.000000	0.129758
544.000000	0.130969
545.000000	0.132138
546.000000	0.133427
547.000000	0.134693
548.000000	0.135987
549.000000	0.137449
550.000000	0.138944
551.000000	0.140511
552.000000	0.142192
553.000000	0.143933
554.000000	0.145842
555.000000	0.147962
556.000000	0.150091
557.000000	0.152268
558.000000	0.154548
559.000000	0.156811
560.000000	0.159068
561.000000	0.161381
562.000000	0.163751
563.000000	0.166017
564.000000	0.168200
565.000000	0.170294
566.000000	0.172358
567.000000	0.174236
568.000000	0.175866
569.000000	0.177455
570.000000	0.178917
571.000000	0.180229
572.000000	0.181439
573.000000	0.182466
574.000000	0.183369
575.000000	0.184268
576.000000	0.185004
577.000000	0.185567
578.000000	0.186024
579.000000	0.186450
580.000000	0.186694
581.000000	0.186740
582.000000	0.186778
583.000000	0.186847
584.000000	0.186840
585.000000	0.186553
586.000000	0.186298
587.000000	0.186060
588.000000	0.185750
589.000000	0.185380
590.000000	0.184875
591.000000	0.184241
592.000000	0.183697
593.000000	0.183060
594.000000	0.182324
595.000000	0.181669
596.000000	0.180913
597.000000	0.180095
598.000000	0.179264
599.000000	0.178308
600.000000	0.177346
601.000000	0.176439
602.000000	0.175568
603.000000	0.174656
604.000000	0.173690
605.000000	0.172750
606.000000	0.171854
607.000000	0.170995
608.000000	0.170143
609.000000	0.169327
610.000000	0.168431
611.000000	0.167380
612.000000	0.166587
613.000000	0.165845
614.000000	0.165034
615.000000	0.164318
616.000000	0.163608
617.000000	0.162872
618.000000	0.162189
619.000000	0.161531
620.000000	0.160830
621.000000	0.160056
622.000000	0.159364
623.000000	0.158764
624.000000	0.158214
625.000000	0.157599
626.000000	0.157042
627.000000	0.156580
628.000000	0.156100
629.000000	0.155687
630.000000	0.155276
631.000000	0.154875
632.000000	0.154498
633.000000	0.154174
634.000000	0.153907
635.000000	0.153639
636.000000	0.153346
637.000000	0.153045
638.000000	0.152876
639.000000	0.152721
640.000000	0.152577
641.000000	0.152449
642.000000	0.152310
643.000000	0.152218
644.000000	0.152245
645.000000	0.152301
646.000000	0.152370
647.000000	0.152438
648.000000	0.152497
649.000000	0.152671
650.000000	0.152921
651.000000	0.153009
652.000000	0.153203
653.000000	0.153507
654.000000	0.153783
655.000000	0.154203
656.000000	0.154654
657.000000	0.155005
658.000000	0.155457
659.000000	0.155945
660.000000	0.156430
661.000000	0.156959
662.000000	0.157556
663.000000	0.158238
664.000000	0.158962
665.000000	0.159658
666.000000	0.160378
667.000000	0.161175
668.000000	0.162060
669.000000	0.162979
670.000000	0.163913
671.000000	0.164925
672.000000	0.165979
673.000000	0.167052
674.000000	0.168144
675.000000	0.169251
676.000000	0.170391
677.000000	0.171600
678.000000	0.172884
679.000000	0.174198
680.000000	0.175518
681.000000	0.176854
682.000000	0.178317
683.000000	0.179866
684.000000	0.181435
685.000000	0.183029
686.000000	0.184664
687.000000	0.186339
688.000000	0.188106
689.000000	0.189981
690.000000	0.191958
691.000000	0.193872
692.000000	0.195822
693.000000	0.197885
694.000000	0.199995
695.000000	0.202190
696.000000	0.204457
697.000000	0.206755
698.000000	0.209035
699.000000	0.211352
700.000000	0.213757
701.000000	0.216207
702.000000	0.218699
703.000000	0.221226
704.000000	0.223823
705.000000	0.226496
706.000000	0.229246
707.000000	0.232127
708.000000	0.235024
709.000000	0.237920
710.000000	0.240833
711.000000	0.243821
712.000000	0.246869
713.000000	0.249956
714.000000	0.253000
715.000000	0.256113
716.000000	0.259289
717.000000	0.262456
718.000000	0.265721
719.000000	0.269011
720.000000	0.272276
721.000000	0.275562
722.000000	0.278879
723.000000	0.282262
724.000000	0.285638
725.000000	0.288990
726.000000	0.292396
727.000000	0.295821
728.000000	0.299223
729.000000	0.302630
730.000000	0.306025
731.000000	0.309455
732.000000	0.312845
733.000000	0.316225
734.000000	0.319647
735.000000	0.323020
736.000000	0.326415
737.000000	0.329706
738.000000	0.333000
739.000000	0.336299
740.000000	0.339438
741.000000	0.342682
742.000000	0.345872
743.000000	0.348941
744.000000	0.352026
745.000000	0.355024
746.000000	0.357987
747.000000	0.360895
748.000000	0.363745
749.000000	0.366571
750.000000	0.369350
751.000000	0.372046
752.000000	0.374711
753.000000	0.377359
754.000000	0.379946
755.000000	0.382446
756.000000	0.384846
757.000000	0.387099
758.000000	0.389352
759.000000	0.391544
760.000000	0.393584
761.000000	0.395695
762.000000	0.397757
763.000000	0.399719
764.000000	0.401659
765.000000	0.403529
766.000000	0.405345
767.000000	0.407107
768.000000	0.408756
769.000000	0.410274
770.000000	0.411698
771.000000	0.413145
772.000000	0.414584
773.000000	0.415937
774.000000	0.417280
775.000000	0.418524
776.000000	0.419723
777.000000	0.420882
778.000000	0.421918
779.000000	0.422852
780.000000	0.423732
781.000000	0.424609
782.000000	0.425457
783.000000	0.426364
784.000000	0.427180
785.000000	0.427917
786.000000	0.428667
787.000000	0.429424
788.000000	0.430008
789.000000	0.430526
790.000000	0.431000
791.000000	0.431477
792.000000	0.431900
793.000000	0.432217
794.000000	0.432446
795.000000	0.432769
796.000000	0.433095
797.000000	0.433368
798.000000	0.433586
799.000000	0.433813
800.000000	0.434090
801.000000	0.434418
802.000000	0.434577
803.000000	0.434668
804.000000	0.434790
805.000000	0.434818
806.000000	0.434745
807.000000	0.434722
808.000000	0.434759
809.000000	0.434800
810.000000	0.434786
811.000000	0.434681
812.000000	0.434595
813.000000	0.434499
814.000000	0.434358
815.000000	0.434160
816.000000	0.433961
817.000000	0.433818
818.000000	0.433641
819.000000	0.433438
820.000000	0.433284
821.000000	0.433102
822.000000	0.432800
823.000000	0.432529
824.000000	0.432221
825.000000	0.431911
826.000000	0.431607
827.000000	0.431293
828.000000	0.431049
829.000000	0.430956
830.000000	0.430782
831.000000	0.430573
832.000000	0.430288
833.000000	0.429896
834.000000	0.429446
835.000000	0.429023
836.000000	0.428562
837.000000	0.428155
838.000000	0.427830
839.000000	0.427508
840.000000	0.427138
841.000000	0.426774
842.000000	0.426405
843.000000	0.425982
844.000000	0.425576
845.000000	0.425142
846.000000	0.424619
847.000000	0.424171
848.000000	0.423752
849.000000	0.423339
850.000000	0.423048
851.000000	0.422666
852.000000	0.422193
853.000000	0.421791
854.000000	0.421280
855.000000	0.420815
856.000000	0.420366
857.000000	0.419855
858.000000	0.419390
859.000000	0.418904
860.000000	0.418355
861.000000	0.417958
862.000000	0.417671
863.000000	0.417251
864.000000	0.416755
865.000000	0.416239
866.000000	0.415796
867.000000	0.415499
868.000000	0.415132
869.000000	0.414618
870.000000	0.414107
871.000000	0.413700
872.000000	0.413219
873.000000	0.412558
874.000000	0.412088
875.000000	0.411617
876.000000	0.411124
877.000000	0.410566
878.000000	0.410028
879.000000	0.409643
880.000000	0.409231
881.000000	0.408676
882.000000	0.408141
883.000000	0.407676
884.000000	0.407182
885.000000	0.406645
886.000000	0.406137
887.000000	0.405692
888.000000	0.405127
889.000000	0.404657
890.000000	0.404116
891.000000	0.403531
892.000000	0.403079
893.000000	0.402651
894.000000	0.402295
895.000000	0.401828
896.000000	0.401341
897.000000	0.400935
898.000000	0.400666
899.000000	0.400273
900.000000	0.399826
901.000000	0.399347
902.000000	0.398936
903.000000	0.398526
904.000000	0.398099
905.000000	0.397555
906.000000	0.397185
907.000000	0.396821
908.000000	0.396430
909.000000	0.395918
910.000000	0.395384
911.000000	0.395002
912.000000	0.394847
913.000000	0.394517
914.000000	0.394146
915.000000	0.393824
916.000000	0.393388
917.000000	0.392963
918.000000	0.392631
919.000000	0.392367
920.000000	0.392034
921.000000	0.391682
922.000000	0.391275
923.000000	0.390729
924.000000	0.390312
925.000000	0.389875
926.000000	0.389427
927.000000	0.389185
928.000000	0.388816
929.000000	0.388373
930.000000	0.388030
931.000000	0.387752
932.000000	0.387451
933.000000	0.387195
934.000000	0.387068
935.000000	0.386605
936.000000	0.386095
937.000000	0.385744
938.000000	0.385503
939.000000	0.385262
940.000000	0.384944
941.000000	0.384701
942.000000	0.384390
943.000000	0.384063
944.000000	0.383678
945.000000	0.383541
946.000000	0.383355
947.000000	0.383161
948.000000	0.382961
949.000000	0.382521
950.000000	0.382205
951.000000	0.381996
952.000000	0.381663
953.000000	0.381516
954.000000	0.381410
955.000000	0.381120
956.000000	0.380793
957.000000	0.380517
958.000000	0.380191
959.000000	0.379835
960.000000	0.379722
961.000000	0.379446
962.000000	0.378953
963.000000	0.378728
964.000000	0.378667
965.000000	0.378637
966.000000	0.378433
967.000000	0.378329
968.000000	0.378250
969.000000	0.378082
970.000000	0.377870
971.000000	0.377644
972.000000	0.377428
973.000000	0.377242
974.000000	0.377323
975.000000	0.377233
976.000000	0.376934
977.000000	0.376547
978.000000	0.376361
979.000000	0.376368
980.000000	0.376226
981.000000	0.376101
982.000000	0.376069
983.000000	0.375903
984.000000	0.375734
985.000000	0.375863
986.000000	0.375930
987.000000	0.376038
988.000000	0.376124
989.000000	0.376101
990.000000	0.375949
991.000000	0.375721
992.000000	0.375600
993.000000	0.375850
994.000000	0.375831
995.000000	0.375799
996.000000	0.376099
997.000000	0.376134
998.000000	0.376110
999.000000	0.376267
1000.000000	0.376406
1001.000000	0.376141
1002.000000	0.376515
1003.000000	0.376126
1004.000000	0.376175
1005.000000	0.376098
1006.000000	0.375499
1007.000000	0.374579
1008.000000	0.374783
1009.000000	0.374842
1010.000000	0.374785
1011.000000	0.376336
1012.000000	0.377663
1013.000000	0.377666
1014.000000	0.377830
1015.000000	0.377697
1016.000000	0.377338
1017.000000	0.377286
1018.000000	0.377302
1019.000000	0.377353
1020.000000	0.377586
1021.000000	0.377467
1022.000000	0.377596
1023.000000	0.377907
1024.000000	0.378081
1025.000000	0.378146
1026.000000	0.378520
1027.000000	0.378267
1028.000000	0.377965
1029.000000	0.378912
1030.000000	0.379221
1031.000000	0.378705
1032.000000	0.379467
1033.000000	0.379772
1034.000000	0.379970
1035.000000	0.380894
1036.000000	0.381077
1037.000000	0.380189
1038.000000	0.379917
1039.000000	0.379962
1040.000000	0.379714
1041.000000	0.379291
1042.000000	0.379294
1043.000000	0.380108
1044.000000	0.381385
1045.000000	0.382392
1046.000000	0.382862
1047.000000	0.383326
1048.000000	0.382769
1049.000000	0.382839
1050.000000	0.383544
1051.000000	0.383859
1052.000000	0.383722
1053.000000	0.383680
1054.000000	0.383880
1055.000000	0.384210
1056.000000	0.384552
1057.000000	0.385072
1058.000000	0.385609
1059.000000	0.385650
1060.000000	0.385683
1061.000000	0.385950
1062.000000	0.386146
1063.000000	0.386412
1064.000000	0.386678
1065.000000	0.386706
1066.000000	0.387131
1067.000000	0.388080
1068.000000	0.388284
1069.000000	0.387966
1070.000000	0.388254
1071.000000	0.388510
1072.000000	0.388693
1073.000000	0.389374
1074.000000	0.390104
1075.000000	0.390006
1076.000000	0.390199
1077.000000	0.390327
1078.000000	0.390482
1079.000000	0.390738
1080.000000	0.391084
1081.000000	0.391243
1082.000000	0.391504
1083.000000	0.391841
1084.000000	0.392054
1085.000000	0.392414
1086.000000	0.393189
1087.000000	0.393552
1088.000000	0.393374
1089.000000	0.393600
1090.000000	0.393977
1091.000000	0.393937
1092.000000	0.394475
1093.000000	0.395558
1094.000000	0.395925
1095.000000	0.395936
1096.000000	0.396339
1097.000000	0.396587
1098.000000	0.396915
1099.000000	0.397584
1100.000000	0.397996
1101.000000	0.397974
1102.000000	0.398232
1103.000000	0.398704
1104.000000	0.398983
1105.000000	0.399157
1106.000000	0.399450
1107.000000	0.399501
1108.000000	0.399736
1109.000000	0.400361
1110.000000	0.400840
1111.000000	0.401135
1112.000000	0.401331
1113.000000	0.401687
1114.000000	0.401943
1115.000000	0.402257
1116.000000	0.402767
1117.000000	0.403133
1118.000000	0.403432
1119.000000	0.403543
1120.000000	0.403628
1121.000000	0.403620
1122.000000	0.403259
1123.000000	0.403538
1124.000000	0.403798
1125.000000	0.404166
1126.000000	0.404973
1127.000000	0.405387
1128.000000	0.405644
1129.000000	0.405701
1130.000000	0.406045
1131.000000	0.406371
1132.000000	0.406610
1133.000000	0.407111
1134.000000	0.407388
1135.000000	0.407400
1136.000000	0.407406
1137.000000	0.407397
1138.000000	0.407312
1139.000000	0.407041
1140.000000	0.407125
1141.000000	0.407214
1142.000000	0.407494
1143.000000	0.408222
1144.000000	0.408640
1145.000000	0.408646
1146.000000	0.408696
1147.000000	0.408860
1148.000000	0.408693
1149.000000	0.408836
1150.000000	0.409359
1151.000000	0.409631
1152.000000	0.409691
1153.000000	0.409912
1154.000000	0.410152
1155.000000	0.410353
1156.000000	0.410616
1157.000000	0.410765
1158.000000	0.410715
1159.000000	0.410827
1160.000000	0.410844
1161.000000	0.411044
1162.000000	0.411589
1163.000000	0.412117
1164.000000	0.412453
1165.000000	0.412828
1166.000000	0.413169
1167.000000	0.413269
1168.000000	0.413558
1169.000000	0.414108
1170.000000	0.414377
1171.000000	0.414626
1172.000000	0.414845
1173.000000	0.414793
1174.000000	0.414927
1175.000000	0.415099
1176.000000	0.415278
1177.000000	0.415597
1178.000000	0.415878
1179.000000	0.416167
1180.000000	0.416413
1181.000000	0.416726
1182.000000	0.417068
1183.000000	0.417705
1184.000000	0.417990
1185.000000	0.418243
1186.000000	0.418499
1187.000000	0.418662
1188.000000	0.418595
1189.000000	0.418652
1190.000000	0.418813
1191.000000	0.418909
1192.000000	0.418998
1193.000000	0.419390
1194.000000	0.419804
1195.000000	0.420162
1196.000000	0.420612
1197.000000	0.420960
1198.000000	0.421266
1199.000000	0.421533
1200.000000	0.421712
1201.000000	0.421935
1202.000000	0.422242
1203.000000	0.422423
1204.000000	0.422675
1205.000000	0.423188
1206.000000	0.423472
1207.000000	0.423826
1208.000000	0.423994
1209.000000	0.424072
1210.000000	0.424257
1211.000000	0.424450
1212.000000	0.424603
1213.000000	0.424734
1214.000000	0.425069
1215.000000	0.425476
1216.000000	0.425782
1217.000000	0.426251
1218.000000	0.426582
1219.000000	0.426804
1220.000000	0.426928
1221.000000	0.427241
1222.000000	0.427460
1223.000000	0.427651
1224.000000	0.427980
1225.000000	0.428282
1226.000000	0.428453
1227.000000	0.428513
1228.000000	0.428760
1229.000000	0.428998
1230.000000	0.429279
1231.000000	0.429454
1232.000000	0.429732
1233.000000	0.430161
1234.000000	0.430625
1235.000000	0.430953
1236.000000	0.431322
1237.000000	0.431615
1238.000000	0.431512
1239.000000	0.431675
1240.000000	0.431972
1241.000000	0.432257
1242.000000	0.432620
1243.000000	0.433051
1244.000000	0.433366
1245.000000	0.433821
1246.000000	0.434241
1247.000000	0.434654
1248.000000	0.435159
1249.000000	0.435484
1250.000000	0.435648
1251.000000	0.435952
1252.000000	0.436198
1253.000000	0.436436
1254.000000	0.436606
1255.000000	0.436755
1256.000000	0.436911
1257.000000	0.437005
1258.000000	0.437286
1259.000000	0.437588
1260.000000	0.437909
1261.000000	0.438181
1262.000000	0.438451
1263.000000	0.438731
1264.000000	0.439141
1265.000000	0.439434
1266.000000	0.439779
1267.000000	0.440157
1268.000000	0.440436
1269.000000	0.440551
1270.000000	0.440845
1271.000000	0.441117
1272.000000	0.441281
1273.000000	0.441683
1274.000000	0.442024
1275.000000	0.442303
1276.000000	0.442612
1277.000000	0.442958
1278.000000	0.443094
1279.000000	0.443317
1280.000000	0.443537
1281.000000	0.443636
1282.000000	0.443725
1283.000000	0.444025
1284.000000	0.444205
1285.000000	0.444530
1286.000000	0.445005
1287.000000	0.445446
1288.000000	0.445942
1289.000000	0.446256
1290.000000	0.446410
1291.000000	0.446639
1292.000000	0.446916
1293.000000	0.447181
1294.000000	0.447460
1295.000000	0.447768
1296.000000	0.447910
1297.000000	0.447980
1298.000000	0.448165
1299.000000	0.448319
1300.000000	0.448519
1301.000000	0.448741
1302.000000	0.448927
1303.000000	0.449318
1304.000000	0.449516
1305.000000	0.449794
1306.000000	0.449927
1307.000000	0.450003
1308.000000	0.450112
1309.000000	0.450140
1310.000000	0.450228
1311.000000	0.450410
1312.000000	0.450394
1313.000000	0.450561
1314.000000	0.450641
1315.000000	0.450530
1316.000000	0.450578
1317.000000	0.450608
1318.000000	0.450653
1319.000000	0.450685
1320.000000	0.450647
1321.000000	0.450353
1322.000000	0.450060
1323.000000	0.450126
1324.000000	0.450375
1325.000000	0.450591
1326.000000	0.450683
1327.000000	0.450711
1328.000000	0.450797
1329.000000	0.450827
1330.000000	0.450930
1331.000000	0.451028
1332.000000	0.451175
1333.000000	0.451235
1334.000000	0.451317
1335.000000	0.451479
1336.000000	0.451625
1337.000000	0.451737
1338.000000	0.451867
1339.000000	0.451861
1340.000000	0.451712
1341.000000	0.451691
1342.000000	0.451654
1343.000000	0.451718
1344.000000	0.451741
1345.000000	0.451692
1346.000000	0.451892
1347.000000	0.451885
1348.000000	0.451960
1349.000000	0.451979
1350.000000	0.451822
1351.000000	0.451765
1352.000000	0.451707
1353.000000	0.451564
1354.000000	0.451604
1355.000000	0.451586
1356.000000	0.451640
1357.000000	0.451765
1358.000000	0.451698
1359.000000	0.451596
1360.000000	0.451503
1361.000000	0.451442
1362.000000	0.451286
1363.000000	0.451063
1364.000000	0.450810
1365.000000	0.450412
1366.000000	0.450146
1367.000000	0.449911
1368.000000	0.449666
1369.000000	0.449576
1370.000000	0.449355
1371.000000	0.448977
1372.000000	0.448564
1373.000000	0.448105
1374.000000	0.447497
1375.000000	0.446754
1376.000000	0.446284
1377.000000	0.445832
1378.000000	0.445018
1379.000000	0.444186
1380.000000	0.443183
1381.000000	0.441718
1382.000000	0.440341
1383.000000	0.438917
1384.000000	0.437159
1385.000000	0.435348
1386.000000	0.433359
1387.000000	0.431048
1388.000000	0.428577
1389.000000	0.426199
1390.000000	0.423742
1391.000000	0.420958
1392.000000	0.418259
1393.000000	0.415285
1394.000000	0.411991
1395.000000	0.408665
1396.000000	0.405331
1397.000000	0.401723
1398.000000	0.397657
1399.000000	0.394102
1400.000000	0.390512
1401.000000	0.387130
1402.000000	0.384046
1403.000000	0.381109
1404.000000	0.378283
1405.000000	0.375577
1406.000000	0.373104
1407.000000	0.370962
1408.000000	0.368881
1409.000000	0.367094
1410.000000	0.365626
1411.000000	0.364256
1412.000000	0.363114
1413.000000	0.362235
1414.000000	0.361454
1415.000000	0.360890
1416.000000	0.360413
1417.000000	0.359909
1418.000000	0.359552
1419.000000	0.359174
1420.000000	0.358756
1421.000000	0.358715
1422.000000	0.358603
1423.000000	0.358601
1424.000000	0.358647
1425.000000	0.358451
1426.000000	0.358252
1427.000000	0.358251
1428.000000	0.358195
1429.000000	0.358168
1430.000000	0.358336
1431.000000	0.358407
1432.000000	0.358453
1433.000000	0.358531
1434.000000	0.358688
1435.000000	0.358887
1436.000000	0.359203
1437.000000	0.359587
1438.000000	0.360029
1439.000000	0.360579
1440.000000	0.361251
1441.000000	0.361968
1442.000000	0.362982
1443.000000	0.364119
1444.000000	0.365387
1445.000000	0.366883
1446.000000	0.368625
1447.000000	0.370359
1448.000000	0.371944
1449.000000	0.373682
1450.000000	0.375355
1451.000000	0.376878
1452.000000	0.378337
1453.000000	0.379499
1454.000000	0.380510
1455.000000	0.381650
1456.000000	0.382861
1457.000000	0.384047
1458.000000	0.385094
1459.000000	0.385943
1460.000000	0.386746
1461.000000	0.387485
1462.000000	0.388201
1463.000000	0.388889
1464.000000	0.389545
1465.000000	0.390373
1466.000000	0.391213
1467.000000	0.392132
1468.000000	0.393283
1469.000000	0.394359
1470.000000	0.395209
1471.000000	0.396136
1472.000000	0.397018
1473.000000	0.398042
1474.000000	0.399153
1475.000000	0.400253
1476.000000	0.401314
1477.000000	0.402240
1478.000000	0.403183
1479.000000	0.404184
1480.000000	0.405116
1481.000000	0.405966
1482.000000	0.406826
1483.000000	0.407715
1484.000000	0.408534
1485.000000	0.409367
1486.000000	0.410195
1487.000000	0.411062
1488.000000	0.411950
1489.000000	0.412833
1490.000000	0.413623
1491.000000	0.414452
1492.000000	0.415183
1493.000000	0.415997
1494.000000	0.416860
1495.000000	0.417597
1496.000000	0.418275
1497.000000	0.418946
1498.000000	0.419592
1499.000000	0.420162
1500.000000	0.420734
1501.000000	0.421365
1502.000000	0.421936
1503.000000	0.422526
1504.000000	0.423231
1505.000000	0.423880
1506.000000	0.424392
1507.000000	0.424960
1508.000000	0.425555
1509.000000	0.425975
1510.000000	0.426472
1511.000000	0.427011
1512.000000	0.427424
1513.000000	0.427904
1514.000000	0.428454
1515.000000	0.428981
1516.000000	0.429519
1517.000000	0.429959
1518.000000	0.430385
1519.000000	0.430715
1520.000000	0.431125
1521.000000	0.431556
1522.000000	0.431890
1523.000000	0.432327
1524.000000	0.432848
1525.000000	0.433378
1526.000000	0.433771
1527.000000	0.434164
1528.000000	0.434548
1529.000000	0.434824
1530.000000	0.435210
1531.000000	0.435686
1532.000000	0.435947
1533.000000	0.436206
1534.000000	0.436603
1535.000000	0.436918
1536.000000	0.437186
1537.000000	0.437579
1538.000000	0.437987
1539.000000	0.438281
1540.000000	0.438634
1541.000000	0.439093
1542.000000	0.439392
1543.000000	0.439778
1544.000000	0.440247
1545.000000	0.440638
1546.000000	0.441006
1547.000000	0.441330
1548.000000	0.441680
1549.000000	0.442004
1550.000000	0.442261
1551.000000	0.442480
1552.000000	0.442717
1553.000000	0.442978
1554.000000	0.443232
1555.000000	0.443550
1556.000000	0.443761
1557.000000	0.443768
1558.000000	0.443955
1559.000000	0.444143
1560.000000	0.444268
1561.000000	0.444494
1562.000000	0.444685
1563.000000	0.444798
1564.000000	0.445028
1565.000000	0.445384
1566.000000	0.445502
1567.000000	0.445701
1568.000000	0.445874
1569.000000	0.446041
1570.000000	0.446222
1571.000000	0.446408
1572.000000	0.446502
1573.000000	0.446560
1574.000000	0.446609
1575.000000	0.446634
1576.000000	0.446722
1577.000000	0.446757
1578.000000	0.446850
1579.000000	0.447123
1580.000000	0.447258
1581.000000	0.447492
1582.000000	0.447567
1583.000000	0.447428
1584.000000	0.447441
1585.000000	0.447599
1586.000000	0.447727
1587.000000	0.447906
1588.000000	0.448085
1589.000000	0.448273
1590.000000	0.448434
1591.000000	0.448646
1592.000000	0.448807
1593.000000	0.448931
1594.000000	0.449068
1595.000000	0.449319
1596.000000	0.449531
1597.000000	0.449783
1598.000000	0.449860
1599.000000	0.449911
1600.000000	0.449877
1601.000000	0.449758
1602.000000	0.449764
1603.000000	0.449827
1604.000000	0.449886
1605.000000	0.450050
1606.000000	0.450177
1607.000000	0.450392
1608.000000	0.450497
1609.000000	0.450557
1610.000000	0.450691
1611.000000	0.450887
1612.000000	0.451038
1613.000000	0.451442
1614.000000	0.451619
1615.000000	0.451609
1616.000000	0.451878
1617.000000	0.452165
1618.000000	0.452384
1619.000000	0.452757
1620.000000	0.452957
1621.000000	0.453026
1622.000000	0.453260
1623.000000	0.453462
1624.000000	0.453646
1625.000000	0.453655
1626.000000	0.453696
1627.000000	0.453747
1628.000000	0.453896
1629.000000	0.454137
1630.000000	0.454282
1631.000000	0.454302
1632.000000	0.454353
1633.000000	0.454340
1634.000000	0.454423
1635.000000	0.454679
1636.000000	0.454814
1637.000000	0.454955
1638.000000	0.455019
1639.000000	0.455080
1640.000000	0.455095
1641.000000	0.455135
1642.000000	0.455253
1643.000000	0.455448
1644.000000	0.455567
1645.000000	0.455735
1646.000000	0.455762
1647.000000	0.455703
1648.000000	0.455662
1649.000000	0.455692
1650.000000	0.455790
1651.000000	0.455925
1652.000000	0.456195
1653.000000	0.456556
1654.000000	0.456819
1655.000000	0.457076
1656.000000	0.457117
1657.000000	0.457074
1658.000000	0.457140
1659.000000	0.457280
1660.000000	0.457483
1661.000000	0.457713
1662.000000	0.457847
1663.000000	0.457916
1664.000000	0.457985
1665.000000	0.457968
1666.000000	0.458107
1667.000000	0.458185
1668.000000	0.458276
1669.000000	0.458418
1670.000000	0.458400
1671.000000	0.458425
1672.000000	0.458577
1673.000000	0.458659
1674.000000	0.458989
1675.000000	0.459293
1676.000000	0.459374
1677.000000	0.459441
1678.000000	0.459418
1679.000000	0.459312
1680.000000	0.459270
1681.000000	0.459276
1682.000000	0.459231
1683.000000	0.459288
1684.000000	0.459446
1685.000000	0.459544
1686.000000	0.459579
1687.000000	0.459650
1688.000000	0.459672
1689.000000	0.459678
1690.000000	0.459613
1691.000000	0.459654
1692.000000	0.459539
1693.000000	0.459375
1694.000000	0.459314
1695.000000	0.459325
1696.000000	0.459208
1697.000000	0.459125
1698.000000	0.459153
1699.000000	0.459160
1700.000000	0.459187
1701.000000	0.459364
1702.000000	0.459368
1703.000000	0.459280
1704.000000	0.459337
1705.000000	0.459344
1706.000000	0.459312
1707.000000	0.459271
1708.000000	0.459176
1709.000000	0.459069
1710.000000	0.459024
1711.000000	0.459017
1712.000000	0.459108
1713.000000	0.459158
1714.000000	0.459265
1715.000000	0.459383
1716.000000	0.459662
1717.000000	0.459651
1718.000000	0.459395
1719.000000	0.459239
1720.000000	0.458999
1721.000000	0.458826
1722.000000	0.458782
1723.000000	0.458674
1724.000000	0.458519
1725.000000	0.458480
1726.000000	0.458403
1727.000000	0.458331
1728.000000	0.458249
1729.000000	0.458002
1730.000000	0.457786
1731.000000	0.457743
1732.000000	0.457728
1733.000000	0.457826
1734.000000	0.457965
1735.000000	0.457989
1736.000000	0.457922
1737.000000	0.457822
1738.000000	0.457708
1739.000000	0.457591
1740.000000	0.457408
1741.000000	0.457183
1742.000000	0.456955
1743.000000	0.456819
1744.000000	0.456596
1745.000000	0.456507
1746.000000	0.456559
1747.000000	0.456451
1748.000000	0.456261
1749.000000	0.455940
1750.000000	0.455648
1751.000000	0.455573
1752.000000	0.455544
1753.000000	0.455286
1754.000000	0.455160
1755.000000	0.455057
1756.000000	0.454905
1757.000000	0.454798
1758.000000	0.454725
1759.000000	0.454555
1760.000000	0.454474
1761.000000	0.454434
1762.000000	0.454404
1763.000000	0.454507
1764.000000	0.454469
1765.000000	0.454302
1766.000000	0.454232
1767.000000	0.453954
1768.000000	0.453792
1769.000000	0.453976
1770.000000	0.453957
1771.000000	0.453760
1772.000000	0.453674
1773.000000	0.453488
1774.000000	0.453336
1775.000000	0.453351
1776.000000	0.453296
1777.000000	0.453110
1778.000000	0.452984
1779.000000	0.452911
1780.000000	0.452769
1781.000000	0.452533
1782.000000	0.452333
1783.000000	0.452139
1784.000000	0.452142
1785.000000	0.452035
1786.000000	0.452077
1787.000000	0.452370
1788.000000	0.452555
1789.000000	0.452518
1790.000000	0.452303
1791.000000	0.452122
1792.000000	0.452064
1793.000000	0.451907
1794.000000	0.451682
1795.000000	0.451624
1796.000000	0.451610
1797.000000	0.451461
1798.000000	0.451272
1799.000000	0.451244
1800.000000	0.451203
1801.000000	0.451429
1802.000000	0.451228
1803.000000	0.451063
1804.000000	0.451117
1805.000000	0.451977
1806.000000	0.452384
1807.000000	0.452688
1808.000000	0.452788
1809.000000	0.452751
1810.000000	0.452846
1811.000000	0.452971
1812.000000	0.453180
1813.000000	0.452936
1814.000000	0.452705
1815.000000	0.452369
1816.000000	0.451281
1817.000000	0.450436
1818.000000	0.449684
1819.000000	0.449681
1820.000000	0.448378
1821.000000	0.448144
1822.000000	0.448478
1823.000000	0.449736
1824.000000	0.449778
1825.000000	0.450108
1826.000000	0.450100
1827.000000	0.449019
1828.000000	0.447701
1829.000000	0.448044
1830.000000	0.448472
1831.000000	0.448356
1832.000000	0.448185
1833.000000	0.448186
1834.000000	0.447998
1835.000000	0.447868
1836.000000	0.448136
1837.000000	0.447875
1838.000000	0.447726
1839.000000	0.445684
1840.000000	0.444303
1841.000000	0.443605
1842.000000	0.442930
1843.000000	0.442558
1844.000000	0.442362
1845.000000	0.442172
1846.000000	0.442152
1847.000000	0.442369
1848.000000	0.442059
1849.000000	0.441929
1850.000000	0.441718
1851.000000	0.441384
1852.000000	0.440882
1853.000000	0.440462
1854.000000	0.439870
1855.000000	0.438802
1856.000000	0.437455
1857.000000	0.435807
1858.000000	0.433464
1859.000000	0.431689
1860.000000	0.429985
1861.000000	0.427934
1862.000000	0.426288
1863.000000	0.425132
1864.000000	0.423762
1865.000000	0.422965
1866.000000	0.421018
1867.000000	0.418556
1868.000000	0.415732
1869.000000	0.412279
1870.000000	0.409280
1871.000000	0.406503
1872.000000	0.403570
1873.000000	0.400090
1874.000000	0.396072
1875.000000	0.392246
1876.000000	0.388070
1877.000000	0.383252
1878.000000	0.378537
1879.000000	0.372586
1880.000000	0.366163
1881.000000	0.359779
1882.000000	0.353247
1883.000000	0.347211
1884.000000	0.340808
1885.000000	0.334123
1886.000000	0.327078
1887.000000	0.319983
1888.000000	0.311737
1889.000000	0.303093
1890.000000	0.295399
1891.000000	0.286979
1892.000000	0.278479
1893.000000	0.270836
1894.000000	0.262283
1895.000000	0.254436
1896.000000	0.247076
1897.000000	0.240062
1898.000000	0.232656
1899.000000	0.226705
1900.000000	0.220332
1901.000000	0.214683
1902.000000	0.210329
1903.000000	0.206376
1904.000000	0.204473
1905.000000	0.203723
1906.000000	0.202705
1907.000000	0.202385
1908.000000	0.202508
1909.000000	0.202173
1910.000000	0.201780
1911.000000	0.202858
1912.000000	0.204407
1913.000000	0.205575
1914.000000	0.207943
1915.000000	0.210413
1916.000000	0.212305
1917.000000	0.214484
1918.000000	0.217403
1919.000000	0.219505
1920.000000	0.221220
1921.000000	0.223944
1922.000000	0.226138
1923.000000	0.227996
1924.000000	0.230031
1925.000000	0.231408
1926.000000	0.232971
1927.000000	0.234891
1928.000000	0.236246
1929.000000	0.237451
1930.000000	0.238232
1931.000000	0.238725
1932.000000	0.239609
1933.000000	0.240189
1934.000000	0.240841
1935.000000	0.242384
1936.000000	0.243320
1937.000000	0.243908
1938.000000	0.245093
1939.000000	0.245978
1940.000000	0.246382
1941.000000	0.246850
1942.000000	0.247862
1943.000000	0.248531
1944.000000	0.249499
1945.000000	0.250145
1946.000000	0.250676
1947.000000	0.251225
1948.000000	0.251279
1949.000000	0.251469
1950.000000	0.251939
1951.000000	0.252332
1952.000000	0.252998
1953.000000	0.253181
1954.000000	0.253418
1955.000000	0.253886
1956.000000	0.253980
1957.000000	0.254031
1958.000000	0.254034
1959.000000	0.254162
1960.000000	0.254355
1961.000000	0.255117
1962.000000	0.255739
1963.000000	0.256765
1964.000000	0.257225
1965.000000	0.258045
1966.000000	0.258741
1967.000000	0.259268
1968.000000	0.260574
1969.000000	0.261285
1970.000000	0.261635
1971.000000	0.262613
1972.000000	0.263430
1973.000000	0.264040
1974.000000	0.264751
1975.000000	0.265463
1976.000000	0.266090
1977.000000	0.266541
1978.000000	0.267230
1979.000000	0.268155
1980.000000	0.268872
1981.000000	0.269901
1982.000000	0.270786
1983.000000	0.271551
1984.000000	0.272544
1985.000000	0.273660
1986.000000	0.274864
1987.000000	0.276240
1988.000000	0.277961
1989.000000	0.279584
1990.000000	0.280581
1991.000000	0.280958
1992.000000	0.281440
1993.000000	0.282454
1994.000000	0.283469
1995.000000	0.284911
1996.000000	0.286868
1997.000000	0.288121
1998.000000	0.288820
1999.000000	0.290001
2000.000000	0.291437
2001.000000	0.291863
2002.000000	0.293199
2003.000000	0.294266
2004.000000	0.294629
2005.000000	0.295957
2006.000000	0.297005
2007.000000	0.298133
2008.000000	0.299432
2009.000000	0.300829
2010.000000	0.302211
2011.000000	0.303682
2012.000000	0.305100
2013.000000	0.306367
2014.000000	0.308087
2015.000000	0.309554
2016.000000	0.310213
2017.000000	0.311047
2018.000000	0.311796
2019.000000	0.312910
2020.000000	0.314094
2021.000000	0.315331
2022.000000	0.316821
2023.000000	0.318213
2024.000000	0.319668
2025.000000	0.321165
2026.000000	0.322863
2027.000000	0.323789
2028.000000	0.324542
2029.000000	0.325239
2030.000000	0.325455
2031.000000	0.326052
2032.000000	0.327365
2033.000000	0.328088
2034.000000	0.328968
2035.000000	0.330238
2036.000000	0.331138
2037.000000	0.332108
2038.000000	0.333075
2039.000000	0.334037
2040.000000	0.334916
2041.000000	0.335797
2042.000000	0.336272
2043.000000	0.337347
2044.000000	0.338281
2045.000000	0.339495
2046.000000	0.340767
2047.000000	0.341493
2048.000000	0.341570
2049.000000	0.342404
2050.000000	0.342783
2051.000000	0.343362
2052.000000	0.344414
2053.000000	0.345076
2054.000000	0.345841
2055.000000	0.346342
2056.000000	0.346831
2057.000000	0.347715
2058.000000	0.348525
2059.000000	0.349320
2060.000000	0.350238
2061.000000	0.351479
2062.000000	0.352142
2063.000000	0.352829
2064.000000	0.353160
2065.000000	0.353215
2066.000000	0.353448
2067.000000	0.354184
2068.000000	0.354136
2069.000000	0.354446
2070.000000	0.354874
2071.000000	0.355048
2072.000000	0.355920
2073.000000	0.356965
2074.000000	0.357496
2075.000000	0.358238
2076.000000	0.359105
2077.000000	0.359776
2078.000000	0.360457
2079.000000	0.360959
2080.000000	0.361148
2081.000000	0.361707
2082.000000	0.362413
2083.000000	0.363057
2084.000000	0.363913
2085.000000	0.363651
2086.000000	0.363890
2087.000000	0.364329
2088.000000	0.364601
2089.000000	0.366266
2090.000000	0.367164
2091.000000	0.368007
2092.000000	0.368492
2093.000000	0.368520
2094.000000	0.368779
2095.000000	0.369079
2096.000000	0.369427
2097.000000	0.369756
2098.000000	0.370284
2099.000000	0.370645
2100.000000	0.370458
2101.000000	0.370647
2102.000000	0.371351
2103.000000	0.372626
2104.000000	0.372789
2105.000000	0.373128
2106.000000	0.373321
2107.000000	0.373795
2108.000000	0.374114
2109.000000	0.374851
2110.000000	0.375867
2111.000000	0.376639
2112.000000	0.377361
2113.000000	0.377583
2114.000000	0.378043
2115.000000	0.378349
2116.000000	0.379203
2117.000000	0.379191
2118.000000	0.379846
2119.000000	0.380638
2120.000000	0.380625
2121.000000	0.380182
2122.000000	0.379939
2123.000000	0.378684
2124.000000	0.378519
2125.000000	0.379004
2126.000000	0.379346
2127.000000	0.380123
2128.000000	0.381139
2129.000000	0.382522
2130.000000	0.383267
2131.000000	0.384143
2132.000000	0.384390
2133.000000	0.384075
2134.000000	0.384026
2135.000000	0.384277
2136.000000	0.384774
2137.000000	0.385614
2138.000000	0.387444
2139.000000	0.388182
2140.000000	0.388994
2141.000000	0.389058
2142.000000	0.387317
2143.000000	0.386853
2144.000000	0.386970
2145.000000	0.387167
2146.000000	0.387663
2147.000000	0.389792
2148.000000	0.390927
2149.000000	0.391070
2150.000000	0.391795
2151.000000	0.391260
2152.000000	0.390916
2153.000000	0.391884
2154.000000	0.391578
2155.000000	0.391130
2156.000000	0.390569
2157.000000	0.388759
2158.000000	0.388121
2159.000000	0.388478
2160.000000	0.388527
2161.000000	0.388926
2162.000000	0.388990
2163.000000	0.388272
2164.000000	0.388176
2165.000000	0.387885
2166.000000	0.388684
2167.000000	0.390076
2168.000000	0.390260
2169.000000	0.390802
2170.000000	0.390556
2171.000000	0.390041
2172.000000	0.389001
2173.000000	0.388655
2174.000000	0.387884
2175.000000	0.387819
2176.000000	0.388317
2177.000000	0.388988
2178.000000	0.390785
2179.000000	0.391271
2180.000000	0.391524
2181.000000	0.391489
2182.000000	0.389324
2183.000000	0.388033
2184.000000	0.386742
2185.000000	0.385906
2186.000000	0.386116
2187.000000	0.386048
2188.000000	0.387007
2189.000000	0.387420
2190.000000	0.387628
2191.000000	0.388426
2192.000000	0.388752
2193.000000	0.388977
2194.000000	0.389291
2195.000000	0.389633
2196.000000	0.389460
2197.000000	0.389274
2198.000000	0.388439
2199.000000	0.386340
2200.000000	0.385121
2201.000000	0.383424
2202.000000	0.382664
2203.000000	0.382359
2204.000000	0.383124
2205.000000	0.384240
2206.000000	0.383996
2207.000000	0.380322
2208.000000	0.379201
2209.000000	0.379435
2210.000000	0.378647
2211.000000	0.380719
2212.000000	0.382885
2213.000000	0.383182
2214.000000	0.381740
2215.000000	0.380370
2216.000000	0.378182
2217.000000	0.376483
2218.000000	0.373608
2219.000000	0.372860
2220.000000	0.373439
2221.000000	0.373353
2222.000000	0.374814
2223.000000	0.374504
2224.000000	0.372297
2225.000000	0.372349
2226.000000	0.369910
2227.000000	0.367560
2228.000000	0.369449
2229.000000	0.368210
2230.000000	0.367054
2231.000000	0.367962
2232.000000	0.366263
2233.000000	0.363624
2234.000000	0.360090
2235.000000	0.357692
2236.000000	0.357693
2237.000000	0.359032
2238.000000	0.360349
2239.000000	0.365404
2240.000000	0.366960
2241.000000	0.366762
2242.000000	0.365261
2243.000000	0.361187
2244.000000	0.359012
2245.000000	0.355994
2246.000000	0.354523
2247.000000	0.354851
2248.000000	0.355060
2249.000000	0.356212
2250.000000	0.356300
2251.000000	0.355605
2252.000000	0.353806
2253.000000	0.351732
2254.000000	0.350362
2255.000000	0.349852
2256.000000	0.352826
2257.000000	0.355306
2258.000000	0.355658
2259.000000	0.355981
2260.000000	0.354986
2261.000000	0.354306
2262.000000	0.353441
2263.000000	0.352152
2264.000000	0.351494
2265.000000	0.348518
2266.000000	0.342651
2267.000000	0.339637
2268.000000	0.335652
2269.000000	0.334667
2270.000000	0.338279
2271.000000	0.337681
2272.000000	0.337185
2273.000000	0.334366
2274.000000	0.327408
2275.000000	0.323292
2276.000000	0.318835
2277.000000	0.316318
2278.000000	0.313445
2279.000000	0.309843
2280.000000	0.307153
2281.000000	0.305056
2282.000000	0.304193
2283.000000	0.302447
2284.000000	0.299936
2285.000000	0.296455
2286.000000	0.290192
2287.000000	0.285195
2288.000000	0.281909
2289.000000	0.275959
2290.000000	0.273107
2291.000000	0.273945
2292.000000	0.272419
2293.000000	0.271551
2294.000000	0.270627
2295.000000	0.268998
2296.000000	0.267829
2297.000000	0.267254
2298.000000	0.266529
2299.000000	0.264630
2300.000000	0.265510
2301.000000	0.268674
2302.000000	0.269845
2303.000000	0.272124
2304.000000	0.273772
2305.000000	0.272067
2306.000000	0.274071
2307.000000	0.278615
2308.000000	0.282986
2309.000000	0.286443
2310.000000	0.290827
2311.000000	0.293778
2312.000000	0.294853
2313.000000	0.297561
2314.000000	0.299839
2315.000000	0.302376
2316.000000	0.304547
2317.000000	0.306317
2318.000000	0.309921
2319.000000	0.311296
2320.000000	0.311867
2321.000000	0.312691
2322.000000	0.312705
2323.000000	0.313604
2324.000000	0.314591
2325.000000	0.315924
2326.000000	0.315293
2327.000000	0.313114
2328.000000	0.312640
2329.000000	0.312632
2330.000000	0.312863
2331.000000	0.312502
2332.000000	0.311676
2333.000000	0.309227
2334.000000	0.304846
2335.000000	0.302844
2336.000000	0.300616
2337.000000	0.300995
2338.000000	0.304245
2339.000000	0.306184
2340.000000	0.309403
2341.000000	0.310887
2342.000000	0.312133
2343.000000	0.311654
2344.000000	0.309316
2345.000000	0.307620
2346.000000	0.303092
2347.000000	0.301682
2348.000000	0.302226
2349.000000	0.304376
2350.000000	0.302874
2351.000000	0.301119
2352.000000	0.299365
2353.000000	0.296521
2354.000000	0.295304
2355.000000	0.295623
2356.000000	0.292053
2357.000000	0.286898
2358.000000	0.283469
2359.000000	0.282384
2360.000000	0.284683
2361.000000	0.284694
2362.000000	0.286493
2363.000000	0.286992
2364.000000	0.283950
2365.000000	0.286756
2366.000000	0.285439
2367.000000	0.281407
2368.000000	0.281208
2369.000000	0.277439
2370.000000	0.273989
2371.000000	0.274234
2372.000000	0.270465
2373.000000	0.266762
2374.000000	0.264934
2375.000000	0.259777
2376.000000	0.258045
2377.000000	0.257976
2378.000000	0.257036
2379.000000	0.257169
2380.000000	0.254981
2381.000000	0.251299
2382.000000	0.246036
2383.000000	0.244808
2384.000000	0.252438
2385.000000	0.258285
2386.000000	0.258421
2387.000000	0.258238
2388.000000	0.254718
2389.000000	0.241628
2390.000000	0.233681
2391.000000	0.230574
2392.000000	0.219185
2393.000000	0.215628
2394.000000	0.219413
2395.000000	0.222326
2396.000000	0.226855
2397.000000	0.229541
2398.000000	0.232941
2399.000000	0.230370
2400.000000	0.222691
2401.000000	0.223946
2402.000000	0.219245
2403.000000	0.210684
2404.000000	0.210969
2405.000000	0.207386
2406.000000	0.204934
2407.000000	0.211157
2408.000000	0.219412
2409.000000	0.226918
2410.000000	0.234586
2411.000000	0.237880
2412.000000	0.232690
2413.000000	0.226122
2414.000000	0.223765
2415.000000	0.219377
2416.000000	0.224508
2417.000000	0.233665
2418.000000	0.223894
2419.000000	0.221085
2420.000000	0.219913
2421.000000	0.208385
2422.000000	0.214622
2423.000000	0.223631
2424.000000	0.221967
2425.000000	0.225609
2426.000000	0.229806
2427.000000	0.223366
2428.000000	0.217808
2429.000000	0.218970
2430.000000	0.215699
2431.000000	0.217863
2432.000000	0.224513
2433.000000	0.224047
2434.000000	0.221402
2435.000000	0.221172
2436.000000	0.221057
2437.000000	0.221529
2438.000000	0.228429
2439.000000	0.234484
2440.000000	0.240479
2441.000000	0.246808
2442.000000	0.241839
2443.000000	0.236953
2444.000000	0.229075
2445.000000	0.221711
2446.000000	0.226736
2447.000000	0.217689
2448.000000	0.216558
2449.000000	0.220722
2450.000000	0.210322
2451.000000	0.220604
2452.000000	0.219631
2453.000000	0.212376
2454.000000	0.224722
2455.000000	0.227353
2456.000000	0.228053
2457.000000	0.225784
2458.000000	0.219432
2459.000000	0.208147
2460.000000	0.206390
2461.000000	0.225228
2462.000000	0.217936
2463.000000	0.209025
2464.000000	0.203225
2465.000000	0.177944
2466.000000	0.174556
2467.000000	0.185813
2468.000000	0.188581
2469.000000	0.191244
2470.000000	0.189314
2471.000000	0.163582
2472.000000	0.157269
2473.000000	0.159551
2474.000000	0.138735
2475.000000	0.140266
2476.000000	0.142001
2477.000000	0.150431
2478.000000	0.170727
2479.000000	0.200344
2480.000000	0.216196
2481.000000	0.189225
2482.000000	0.163964
2483.000000	0.136304
2484.000000	0.102655
2485.000000	0.094475
2486.000000	0.136334
2487.000000	0.150165
2488.000000	0.156324
2489.000000	0.204667
2490.000000	0.167197
2491.000000	0.168914
2492.000000	0.160371
2493.000000	0.126616
2494.000000	0.104939
2495.000000	0.059211
2496.000000	0.028933
2497.000000	0.008198
2498.000000	-0.001926
2499.000000	0.048197
2500.000000	0.050540
