# Wavelength	NAu-2-10_HEX-20_FV7-70_00000.asd.rts.txt
350.000000	0.193511
351.000000	0.216101
352.000000	0.184225
353.000000	0.167694
354.000000	0.188846
355.000000	0.167412
356.000000	0.162093
357.000000	0.177469
358.000000	0.177745
359.000000	0.172197
360.000000	0.171153
361.000000	0.181370
362.000000	0.183876
363.000000	0.182616
364.000000	0.181912
365.000000	0.183743
366.000000	0.186436
367.000000	0.187804
368.000000	0.185372
369.000000	0.186418
370.000000	0.187148
371.000000	0.182104
372.000000	0.180589
373.000000	0.182277
374.000000	0.185760
375.000000	0.189036
376.000000	0.187149
377.000000	0.182121
378.000000	0.182984
379.000000	0.185161
380.000000	0.187555
381.000000	0.190414
382.000000	0.190881
383.000000	0.191184
384.000000	0.192913
385.000000	0.193692
386.000000	0.194561
387.000000	0.195019
388.000000	0.192165
389.000000	0.192773
390.000000	0.195291
391.000000	0.195262
392.000000	0.194186
393.000000	0.193949
394.000000	0.195235
395.000000	0.194898
396.000000	0.194247
397.000000	0.193952
398.000000	0.193916
399.000000	0.194263
400.000000	0.194708
401.000000	0.194702
402.000000	0.194790
403.000000	0.195019
404.000000	0.195538
405.000000	0.196810
406.000000	0.197922
407.000000	0.198525
408.000000	0.199086
409.000000	0.199117
410.000000	0.198961
411.000000	0.199399
412.000000	0.199791
413.000000	0.200133
414.000000	0.200561
415.000000	0.201187
416.000000	0.201219
417.000000	0.200623
418.000000	0.201137
419.000000	0.201740
420.000000	0.202190
421.000000	0.202848
422.000000	0.202924
423.000000	0.202613
424.000000	0.202526
425.000000	0.203203
426.000000	0.203853
427.000000	0.203999
428.000000	0.204782
429.000000	0.205026
430.000000	0.204622
431.000000	0.204833
432.000000	0.205220
433.000000	0.205661
434.000000	0.206176
435.000000	0.206116
436.000000	0.205965
437.000000	0.206209
438.000000	0.206357
439.000000	0.206493
440.000000	0.206753
441.000000	0.207085
442.000000	0.207176
443.000000	0.207089
444.000000	0.207305
445.000000	0.207954
446.000000	0.208424
447.000000	0.208019
448.000000	0.208541
449.000000	0.209256
450.000000	0.209568
451.000000	0.209932
452.000000	0.210326
453.000000	0.210649
454.000000	0.210873
455.000000	0.211397
456.000000	0.211915
457.000000	0.211736
458.000000	0.211712
459.000000	0.212012
460.000000	0.212596
461.000000	0.212983
462.000000	0.212960
463.000000	0.212645
464.000000	0.213286
465.000000	0.213522
466.000000	0.213445
467.000000	0.214155
468.000000	0.214519
469.000000	0.214640
470.000000	0.214993
471.000000	0.215063
472.000000	0.215240
473.000000	0.215710
474.000000	0.215802
475.000000	0.215876
476.000000	0.216124
477.000000	0.216274
478.000000	0.216405
479.000000	0.216684
480.000000	0.217009
481.000000	0.217221
482.000000	0.217518
483.000000	0.217876
484.000000	0.218179
485.000000	0.218295
486.000000	0.218384
487.000000	0.218638
488.000000	0.218912
489.000000	0.219175
490.000000	0.219438
491.000000	0.219685
492.000000	0.219979
493.000000	0.220264
494.000000	0.220505
495.000000	0.220776
496.000000	0.221083
497.000000	0.221387
498.000000	0.221507
499.000000	0.221572
500.000000	0.221949
501.000000	0.222218
502.000000	0.222402
503.000000	0.222633
504.000000	0.222792
505.000000	0.222951
506.000000	0.223212
507.000000	0.223622
508.000000	0.223963
509.000000	0.224139
510.000000	0.224441
511.000000	0.224725
512.000000	0.225010
513.000000	0.225388
514.000000	0.225779
515.000000	0.226161
516.000000	0.226485
517.000000	0.226880
518.000000	0.227214
519.000000	0.227360
520.000000	0.227634
521.000000	0.228009
522.000000	0.228408
523.000000	0.228638
524.000000	0.228913
525.000000	0.229295
526.000000	0.229808
527.000000	0.230164
528.000000	0.230452
529.000000	0.230863
530.000000	0.231273
531.000000	0.231749
532.000000	0.232247
533.000000	0.232738
534.000000	0.233163
535.000000	0.233551
536.000000	0.234062
537.000000	0.234594
538.000000	0.235067
539.000000	0.235411
540.000000	0.235832
541.000000	0.236313
542.000000	0.236809
543.000000	0.237162
544.000000	0.237525
545.000000	0.237919
546.000000	0.238325
547.000000	0.238710
548.000000	0.239134
549.000000	0.239644
550.000000	0.240090
551.000000	0.240525
552.000000	0.241009
553.000000	0.241596
554.000000	0.242181
555.000000	0.242710
556.000000	0.243307
557.000000	0.243917
558.000000	0.244573
559.000000	0.245078
560.000000	0.245583
561.000000	0.246178
562.000000	0.246788
563.000000	0.247298
564.000000	0.247823
565.000000	0.248383
566.000000	0.248842
567.000000	0.249320
568.000000	0.249844
569.000000	0.250280
570.000000	0.250710
571.000000	0.251148
572.000000	0.251578
573.000000	0.251902
574.000000	0.252182
575.000000	0.252579
576.000000	0.252975
577.000000	0.253302
578.000000	0.253599
579.000000	0.253992
580.000000	0.254331
581.000000	0.254578
582.000000	0.254902
583.000000	0.255162
584.000000	0.255364
585.000000	0.255594
586.000000	0.255832
587.000000	0.256054
588.000000	0.256243
589.000000	0.256433
590.000000	0.256631
591.000000	0.256828
592.000000	0.256961
593.000000	0.257161
594.000000	0.257397
595.000000	0.257469
596.000000	0.257541
597.000000	0.257677
598.000000	0.257809
599.000000	0.257915
600.000000	0.258007
601.000000	0.258042
602.000000	0.258115
603.000000	0.258163
604.000000	0.258163
605.000000	0.258129
606.000000	0.258155
607.000000	0.258205
608.000000	0.258147
609.000000	0.258137
610.000000	0.258188
611.000000	0.258266
612.000000	0.258321
613.000000	0.258348
614.000000	0.258388
615.000000	0.258457
616.000000	0.258467
617.000000	0.258457
618.000000	0.258702
619.000000	0.258825
620.000000	0.258781
621.000000	0.258718
622.000000	0.258764
623.000000	0.258834
624.000000	0.258843
625.000000	0.258869
626.000000	0.258930
627.000000	0.259037
628.000000	0.259207
629.000000	0.259337
630.000000	0.259368
631.000000	0.259518
632.000000	0.259698
633.000000	0.259863
634.000000	0.259966
635.000000	0.260002
636.000000	0.260008
637.000000	0.260016
638.000000	0.260121
639.000000	0.260202
640.000000	0.260262
641.000000	0.260253
642.000000	0.260367
643.000000	0.260533
644.000000	0.260616
645.000000	0.260743
646.000000	0.260889
647.000000	0.261006
648.000000	0.261137
649.000000	0.261367
650.000000	0.261641
651.000000	0.261761
652.000000	0.261933
653.000000	0.262158
654.000000	0.262283
655.000000	0.262466
656.000000	0.262706
657.000000	0.262915
658.000000	0.263068
659.000000	0.263239
660.000000	0.263466
661.000000	0.263783
662.000000	0.264037
663.000000	0.264301
664.000000	0.264687
665.000000	0.264920
666.000000	0.265084
667.000000	0.265299
668.000000	0.265547
669.000000	0.265813
670.000000	0.266080
671.000000	0.266299
672.000000	0.266584
673.000000	0.266915
674.000000	0.267187
675.000000	0.267433
676.000000	0.267725
677.000000	0.268130
678.000000	0.268412
679.000000	0.268697
680.000000	0.269075
681.000000	0.269407
682.000000	0.269726
683.000000	0.270010
684.000000	0.270393
685.000000	0.270722
686.000000	0.271053
687.000000	0.271449
688.000000	0.271787
689.000000	0.272120
690.000000	0.272523
691.000000	0.272933
692.000000	0.273307
693.000000	0.273700
694.000000	0.274124
695.000000	0.274549
696.000000	0.274968
697.000000	0.275382
698.000000	0.275766
699.000000	0.276169
700.000000	0.276630
701.000000	0.277076
702.000000	0.277521
703.000000	0.277950
704.000000	0.278357
705.000000	0.278754
706.000000	0.279132
707.000000	0.279554
708.000000	0.279958
709.000000	0.280385
710.000000	0.280878
711.000000	0.281335
712.000000	0.281765
713.000000	0.282200
714.000000	0.282646
715.000000	0.283103
716.000000	0.283569
717.000000	0.284010
718.000000	0.284449
719.000000	0.284883
720.000000	0.285320
721.000000	0.285755
722.000000	0.286109
723.000000	0.286447
724.000000	0.286861
725.000000	0.287271
726.000000	0.287696
727.000000	0.288044
728.000000	0.288369
729.000000	0.288712
730.000000	0.289049
731.000000	0.289403
732.000000	0.289767
733.000000	0.290152
734.000000	0.290484
735.000000	0.290797
736.000000	0.291168
737.000000	0.291461
738.000000	0.291738
739.000000	0.292098
740.000000	0.292440
741.000000	0.292812
742.000000	0.293169
743.000000	0.293475
744.000000	0.293785
745.000000	0.293996
746.000000	0.294182
747.000000	0.294375
748.000000	0.294602
749.000000	0.294890
750.000000	0.295203
751.000000	0.295474
752.000000	0.295746
753.000000	0.296033
754.000000	0.296298
755.000000	0.296540
756.000000	0.296755
757.000000	0.296906
758.000000	0.297088
759.000000	0.297339
760.000000	0.297578
761.000000	0.297758
762.000000	0.297887
763.000000	0.297986
764.000000	0.298163
765.000000	0.298306
766.000000	0.298442
767.000000	0.298599
768.000000	0.298735
769.000000	0.298824
770.000000	0.298925
771.000000	0.299225
772.000000	0.299482
773.000000	0.299595
774.000000	0.299663
775.000000	0.299785
776.000000	0.299907
777.000000	0.299963
778.000000	0.299979
779.000000	0.300054
780.000000	0.300176
781.000000	0.300204
782.000000	0.300269
783.000000	0.300422
784.000000	0.300506
785.000000	0.300516
786.000000	0.300509
787.000000	0.300512
788.000000	0.300502
789.000000	0.300578
790.000000	0.300685
791.000000	0.300736
792.000000	0.300801
793.000000	0.300877
794.000000	0.300945
795.000000	0.300934
796.000000	0.300890
797.000000	0.300876
798.000000	0.300988
799.000000	0.301040
800.000000	0.301093
801.000000	0.301250
802.000000	0.301337
803.000000	0.301356
804.000000	0.301346
805.000000	0.301253
806.000000	0.301190
807.000000	0.301218
808.000000	0.301221
809.000000	0.301261
810.000000	0.301299
811.000000	0.301294
812.000000	0.301290
813.000000	0.301320
814.000000	0.301385
815.000000	0.301475
816.000000	0.301374
817.000000	0.301264
818.000000	0.301271
819.000000	0.301246
820.000000	0.301250
821.000000	0.301274
822.000000	0.301345
823.000000	0.301347
824.000000	0.301264
825.000000	0.301235
826.000000	0.301180
827.000000	0.301123
828.000000	0.301119
829.000000	0.301114
830.000000	0.301056
831.000000	0.301001
832.000000	0.300907
833.000000	0.300886
834.000000	0.300868
835.000000	0.300816
836.000000	0.300728
837.000000	0.300654
838.000000	0.300630
839.000000	0.300632
840.000000	0.300605
841.000000	0.300577
842.000000	0.300547
843.000000	0.300535
844.000000	0.300522
845.000000	0.300466
846.000000	0.300383
847.000000	0.300342
848.000000	0.300283
849.000000	0.300172
850.000000	0.300107
851.000000	0.299994
852.000000	0.299876
853.000000	0.299890
854.000000	0.299753
855.000000	0.299637
856.000000	0.299619
857.000000	0.299453
858.000000	0.299269
859.000000	0.299082
860.000000	0.298914
861.000000	0.298889
862.000000	0.298959
863.000000	0.298936
864.000000	0.298877
865.000000	0.298752
866.000000	0.298586
867.000000	0.298437
868.000000	0.298344
869.000000	0.298269
870.000000	0.298235
871.000000	0.298099
872.000000	0.297914
873.000000	0.297678
874.000000	0.297445
875.000000	0.297305
876.000000	0.297246
877.000000	0.297131
878.000000	0.296934
879.000000	0.296725
880.000000	0.296450
881.000000	0.296304
882.000000	0.296043
883.000000	0.295715
884.000000	0.295426
885.000000	0.295300
886.000000	0.295208
887.000000	0.295092
888.000000	0.294982
889.000000	0.294893
890.000000	0.294751
891.000000	0.294656
892.000000	0.294437
893.000000	0.294272
894.000000	0.294295
895.000000	0.294141
896.000000	0.293885
897.000000	0.293602
898.000000	0.293358
899.000000	0.293051
900.000000	0.292769
901.000000	0.292552
902.000000	0.292493
903.000000	0.292372
904.000000	0.292243
905.000000	0.292113
906.000000	0.291967
907.000000	0.291790
908.000000	0.291621
909.000000	0.291384
910.000000	0.291152
911.000000	0.290946
912.000000	0.290755
913.000000	0.290391
914.000000	0.290197
915.000000	0.290173
916.000000	0.289896
917.000000	0.289479
918.000000	0.289202
919.000000	0.289142
920.000000	0.288883
921.000000	0.288460
922.000000	0.288064
923.000000	0.287906
924.000000	0.287680
925.000000	0.287491
926.000000	0.287381
927.000000	0.287073
928.000000	0.287029
929.000000	0.286945
930.000000	0.286442
931.000000	0.286253
932.000000	0.286045
933.000000	0.285699
934.000000	0.285292
935.000000	0.285053
936.000000	0.284946
937.000000	0.284801
938.000000	0.284703
939.000000	0.284635
940.000000	0.284467
941.000000	0.284188
942.000000	0.283975
943.000000	0.283718
944.000000	0.283283
945.000000	0.282953
946.000000	0.282749
947.000000	0.282619
948.000000	0.282392
949.000000	0.281877
950.000000	0.281575
951.000000	0.281535
952.000000	0.281459
953.000000	0.281219
954.000000	0.280943
955.000000	0.280685
956.000000	0.280427
957.000000	0.280160
958.000000	0.279916
959.000000	0.279831
960.000000	0.279687
961.000000	0.279537
962.000000	0.279390
963.000000	0.279236
964.000000	0.278846
965.000000	0.278480
966.000000	0.278263
967.000000	0.278110
968.000000	0.277925
969.000000	0.277596
970.000000	0.277198
971.000000	0.277098
972.000000	0.277074
973.000000	0.276879
974.000000	0.276510
975.000000	0.276288
976.000000	0.276115
977.000000	0.275879
978.000000	0.275756
979.000000	0.275781
980.000000	0.275622
981.000000	0.275316
982.000000	0.275201
983.000000	0.274852
984.000000	0.274414
985.000000	0.274497
986.000000	0.274563
987.000000	0.274431
988.000000	0.273997
989.000000	0.273538
990.000000	0.273459
991.000000	0.273447
992.000000	0.273117
993.000000	0.272855
994.000000	0.272855
995.000000	0.273033
996.000000	0.272785
997.000000	0.272575
998.000000	0.272339
999.000000	0.272132
1000.000000	0.272033
1001.000000	0.272280
1002.000000	0.272341
1003.000000	0.271882
1004.000000	0.271516
1005.000000	0.270892
1006.000000	0.270543
1007.000000	0.269941
1008.000000	0.270559
1009.000000	0.271404
1010.000000	0.271531
1011.000000	0.272392
1012.000000	0.272237
1013.000000	0.270796
1014.000000	0.270283
1015.000000	0.269985
1016.000000	0.270091
1017.000000	0.271044
1018.000000	0.271381
1019.000000	0.271504
1020.000000	0.271372
1021.000000	0.271080
1022.000000	0.270532
1023.000000	0.270448
1024.000000	0.270385
1025.000000	0.270331
1026.000000	0.269982
1027.000000	0.270225
1028.000000	0.270777
1029.000000	0.270649
1030.000000	0.270760
1031.000000	0.270556
1032.000000	0.270003
1033.000000	0.269963
1034.000000	0.269843
1035.000000	0.269665
1036.000000	0.269988
1037.000000	0.270877
1038.000000	0.270911
1039.000000	0.270733
1040.000000	0.271269
1041.000000	0.271104
1042.000000	0.270500
1043.000000	0.270860
1044.000000	0.271198
1045.000000	0.270905
1046.000000	0.271338
1047.000000	0.271734
1048.000000	0.272252
1049.000000	0.272338
1050.000000	0.272396
1051.000000	0.272531
1052.000000	0.272263
1053.000000	0.272312
1054.000000	0.273002
1055.000000	0.273215
1056.000000	0.273134
1057.000000	0.273385
1058.000000	0.273319
1059.000000	0.273108
1060.000000	0.273594
1061.000000	0.273761
1062.000000	0.273381
1063.000000	0.273337
1064.000000	0.273448
1065.000000	0.273280
1066.000000	0.273482
1067.000000	0.274392
1068.000000	0.274694
1069.000000	0.274516
1070.000000	0.274635
1071.000000	0.274843
1072.000000	0.274984
1073.000000	0.275080
1074.000000	0.275609
1075.000000	0.276023
1076.000000	0.276044
1077.000000	0.276020
1078.000000	0.276078
1079.000000	0.276156
1080.000000	0.276020
1081.000000	0.276269
1082.000000	0.277102
1083.000000	0.277330
1084.000000	0.277170
1085.000000	0.277564
1086.000000	0.278034
1087.000000	0.278421
1088.000000	0.279314
1089.000000	0.279770
1090.000000	0.280063
1091.000000	0.279742
1092.000000	0.279294
1093.000000	0.278905
1094.000000	0.278886
1095.000000	0.278692
1096.000000	0.278970
1097.000000	0.280049
1098.000000	0.280390
1099.000000	0.280375
1100.000000	0.280620
1101.000000	0.280725
1102.000000	0.280850
1103.000000	0.281132
1104.000000	0.281345
1105.000000	0.281143
1106.000000	0.281441
1107.000000	0.282363
1108.000000	0.282693
1109.000000	0.282930
1110.000000	0.283347
1111.000000	0.283264
1112.000000	0.282347
1113.000000	0.282491
1114.000000	0.282997
1115.000000	0.283346
1116.000000	0.284224
1117.000000	0.284577
1118.000000	0.284549
1119.000000	0.284607
1120.000000	0.284482
1121.000000	0.284583
1122.000000	0.284904
1123.000000	0.285222
1124.000000	0.285595
1125.000000	0.285745
1126.000000	0.285392
1127.000000	0.285358
1128.000000	0.285403
1129.000000	0.285448
1130.000000	0.285672
1131.000000	0.286328
1132.000000	0.286410
1133.000000	0.286247
1134.000000	0.286343
1135.000000	0.286277
1136.000000	0.286291
1137.000000	0.286530
1138.000000	0.286602
1139.000000	0.286519
1140.000000	0.286662
1141.000000	0.286947
1142.000000	0.287125
1143.000000	0.287266
1144.000000	0.287482
1145.000000	0.287543
1146.000000	0.287419
1147.000000	0.287585
1148.000000	0.287812
1149.000000	0.287967
1150.000000	0.288318
1151.000000	0.288402
1152.000000	0.288073
1153.000000	0.288226
1154.000000	0.288576
1155.000000	0.288708
1156.000000	0.289035
1157.000000	0.289182
1158.000000	0.288993
1159.000000	0.288926
1160.000000	0.288883
1161.000000	0.288868
1162.000000	0.288972
1163.000000	0.289005
1164.000000	0.288978
1165.000000	0.289108
1166.000000	0.289122
1167.000000	0.288997
1168.000000	0.288956
1169.000000	0.288922
1170.000000	0.288969
1171.000000	0.289088
1172.000000	0.289277
1173.000000	0.289685
1174.000000	0.289769
1175.000000	0.289595
1176.000000	0.289592
1177.000000	0.289547
1178.000000	0.289535
1179.000000	0.289768
1180.000000	0.289815
1181.000000	0.289818
1182.000000	0.289713
1183.000000	0.289752
1184.000000	0.289781
1185.000000	0.289810
1186.000000	0.289873
1187.000000	0.289894
1188.000000	0.289879
1189.000000	0.289868
1190.000000	0.289922
1191.000000	0.289915
1192.000000	0.289992
1193.000000	0.290047
1194.000000	0.289903
1195.000000	0.289869
1196.000000	0.289773
1197.000000	0.289766
1198.000000	0.289905
1199.000000	0.289983
1200.000000	0.290138
1201.000000	0.290110
1202.000000	0.290034
1203.000000	0.290014
1204.000000	0.289983
1205.000000	0.290105
1206.000000	0.290133
1207.000000	0.290307
1208.000000	0.290338
1209.000000	0.290299
1210.000000	0.290336
1211.000000	0.290404
1212.000000	0.290439
1213.000000	0.290551
1214.000000	0.290607
1215.000000	0.290598
1216.000000	0.290570
1217.000000	0.290461
1218.000000	0.290386
1219.000000	0.290339
1220.000000	0.290295
1221.000000	0.290266
1222.000000	0.290226
1223.000000	0.290168
1224.000000	0.290281
1225.000000	0.290251
1226.000000	0.290266
1227.000000	0.290412
1228.000000	0.290400
1229.000000	0.290329
1230.000000	0.290210
1231.000000	0.290148
1232.000000	0.290046
1233.000000	0.290162
1234.000000	0.290606
1235.000000	0.290654
1236.000000	0.290419
1237.000000	0.290380
1238.000000	0.290158
1239.000000	0.290059
1240.000000	0.290110
1241.000000	0.290188
1242.000000	0.290134
1243.000000	0.290123
1244.000000	0.290267
1245.000000	0.290409
1246.000000	0.290456
1247.000000	0.290483
1248.000000	0.290590
1249.000000	0.290737
1250.000000	0.290728
1251.000000	0.290766
1252.000000	0.290742
1253.000000	0.290536
1254.000000	0.290434
1255.000000	0.290445
1256.000000	0.290380
1257.000000	0.290205
1258.000000	0.290202
1259.000000	0.290214
1260.000000	0.290288
1261.000000	0.290468
1262.000000	0.290579
1263.000000	0.290696
1264.000000	0.290764
1265.000000	0.290847
1266.000000	0.290913
1267.000000	0.291082
1268.000000	0.291133
1269.000000	0.291024
1270.000000	0.291059
1271.000000	0.290939
1272.000000	0.290876
1273.000000	0.290988
1274.000000	0.290841
1275.000000	0.290772
1276.000000	0.290742
1277.000000	0.290745
1278.000000	0.290670
1279.000000	0.290637
1280.000000	0.290519
1281.000000	0.290457
1282.000000	0.290525
1283.000000	0.290562
1284.000000	0.290570
1285.000000	0.290567
1286.000000	0.290471
1287.000000	0.290438
1288.000000	0.290495
1289.000000	0.290425
1290.000000	0.290322
1291.000000	0.290255
1292.000000	0.290213
1293.000000	0.290281
1294.000000	0.290309
1295.000000	0.290302
1296.000000	0.290356
1297.000000	0.290362
1298.000000	0.290393
1299.000000	0.290509
1300.000000	0.290683
1301.000000	0.290742
1302.000000	0.290689
1303.000000	0.290670
1304.000000	0.290632
1305.000000	0.290519
1306.000000	0.290514
1307.000000	0.290692
1308.000000	0.290801
1309.000000	0.290878
1310.000000	0.290937
1311.000000	0.291044
1312.000000	0.291059
1313.000000	0.290992
1314.000000	0.290894
1315.000000	0.290737
1316.000000	0.290631
1317.000000	0.290617
1318.000000	0.290734
1319.000000	0.290680
1320.000000	0.290617
1321.000000	0.290678
1322.000000	0.290560
1323.000000	0.290554
1324.000000	0.290676
1325.000000	0.290525
1326.000000	0.290322
1327.000000	0.290173
1328.000000	0.290063
1329.000000	0.289968
1330.000000	0.289941
1331.000000	0.289952
1332.000000	0.290147
1333.000000	0.290082
1334.000000	0.289929
1335.000000	0.289959
1336.000000	0.289793
1337.000000	0.289829
1338.000000	0.290122
1339.000000	0.290275
1340.000000	0.290211
1341.000000	0.290336
1342.000000	0.290269
1343.000000	0.290111
1344.000000	0.290025
1345.000000	0.289898
1346.000000	0.289938
1347.000000	0.290011
1348.000000	0.290088
1349.000000	0.290076
1350.000000	0.290024
1351.000000	0.289791
1352.000000	0.289465
1353.000000	0.289298
1354.000000	0.289271
1355.000000	0.289344
1356.000000	0.289526
1357.000000	0.289553
1358.000000	0.289430
1359.000000	0.289365
1360.000000	0.289338
1361.000000	0.289370
1362.000000	0.289366
1363.000000	0.289415
1364.000000	0.289430
1365.000000	0.289351
1366.000000	0.289294
1367.000000	0.289279
1368.000000	0.289165
1369.000000	0.289108
1370.000000	0.289060
1371.000000	0.288884
1372.000000	0.288557
1373.000000	0.288171
1374.000000	0.288073
1375.000000	0.288189
1376.000000	0.288314
1377.000000	0.288420
1378.000000	0.288486
1379.000000	0.288440
1380.000000	0.288383
1381.000000	0.288332
1382.000000	0.288114
1383.000000	0.287930
1384.000000	0.287747
1385.000000	0.287536
1386.000000	0.287505
1387.000000	0.287491
1388.000000	0.287475
1389.000000	0.287510
1390.000000	0.287448
1391.000000	0.287221
1392.000000	0.286999
1393.000000	0.286770
1394.000000	0.286523
1395.000000	0.286343
1396.000000	0.286238
1397.000000	0.285995
1398.000000	0.285699
1399.000000	0.285369
1400.000000	0.284889
1401.000000	0.284474
1402.000000	0.284070
1403.000000	0.283779
1404.000000	0.283600
1405.000000	0.283394
1406.000000	0.283205
1407.000000	0.283009
1408.000000	0.282706
1409.000000	0.282523
1410.000000	0.282457
1411.000000	0.282242
1412.000000	0.281987
1413.000000	0.281910
1414.000000	0.281761
1415.000000	0.281632
1416.000000	0.281551
1417.000000	0.281311
1418.000000	0.281130
1419.000000	0.280974
1420.000000	0.280643
1421.000000	0.280492
1422.000000	0.280346
1423.000000	0.280157
1424.000000	0.279995
1425.000000	0.279786
1426.000000	0.279402
1427.000000	0.279070
1428.000000	0.278805
1429.000000	0.278570
1430.000000	0.278478
1431.000000	0.278468
1432.000000	0.278377
1433.000000	0.278341
1434.000000	0.278270
1435.000000	0.278165
1436.000000	0.278098
1437.000000	0.278120
1438.000000	0.278018
1439.000000	0.277860
1440.000000	0.277791
1441.000000	0.277738
1442.000000	0.277677
1443.000000	0.277606
1444.000000	0.277550
1445.000000	0.277417
1446.000000	0.277324
1447.000000	0.277263
1448.000000	0.277357
1449.000000	0.277510
1450.000000	0.277555
1451.000000	0.277632
1452.000000	0.277596
1453.000000	0.277482
1454.000000	0.277409
1455.000000	0.277444
1456.000000	0.277566
1457.000000	0.277684
1458.000000	0.277906
1459.000000	0.278016
1460.000000	0.278000
1461.000000	0.278040
1462.000000	0.278023
1463.000000	0.278036
1464.000000	0.278134
1465.000000	0.278118
1466.000000	0.278036
1467.000000	0.278040
1468.000000	0.278001
1469.000000	0.278051
1470.000000	0.278176
1471.000000	0.278140
1472.000000	0.278021
1473.000000	0.278076
1474.000000	0.278055
1475.000000	0.278068
1476.000000	0.278205
1477.000000	0.278267
1478.000000	0.278228
1479.000000	0.278224
1480.000000	0.278307
1481.000000	0.278359
1482.000000	0.278455
1483.000000	0.278595
1484.000000	0.278792
1485.000000	0.278872
1486.000000	0.278925
1487.000000	0.279013
1488.000000	0.279029
1489.000000	0.279140
1490.000000	0.279205
1491.000000	0.279315
1492.000000	0.279460
1493.000000	0.279566
1494.000000	0.279639
1495.000000	0.279704
1496.000000	0.279741
1497.000000	0.279752
1498.000000	0.279747
1499.000000	0.279770
1500.000000	0.279834
1501.000000	0.279965
1502.000000	0.280049
1503.000000	0.280113
1504.000000	0.280223
1505.000000	0.280230
1506.000000	0.280259
1507.000000	0.280395
1508.000000	0.280432
1509.000000	0.280438
1510.000000	0.280546
1511.000000	0.280636
1512.000000	0.280656
1513.000000	0.280695
1514.000000	0.280784
1515.000000	0.280842
1516.000000	0.280994
1517.000000	0.281088
1518.000000	0.281068
1519.000000	0.281057
1520.000000	0.281071
1521.000000	0.281134
1522.000000	0.281252
1523.000000	0.281213
1524.000000	0.281125
1525.000000	0.281206
1526.000000	0.281147
1527.000000	0.281121
1528.000000	0.281243
1529.000000	0.281147
1530.000000	0.281010
1531.000000	0.281091
1532.000000	0.281129
1533.000000	0.281021
1534.000000	0.281003
1535.000000	0.281014
1536.000000	0.280944
1537.000000	0.281001
1538.000000	0.281036
1539.000000	0.280995
1540.000000	0.280979
1541.000000	0.281029
1542.000000	0.281104
1543.000000	0.281181
1544.000000	0.281377
1545.000000	0.281549
1546.000000	0.281626
1547.000000	0.281718
1548.000000	0.281666
1549.000000	0.281582
1550.000000	0.281640
1551.000000	0.281680
1552.000000	0.281689
1553.000000	0.281690
1554.000000	0.281591
1555.000000	0.281483
1556.000000	0.281446
1557.000000	0.281362
1558.000000	0.281306
1559.000000	0.281195
1560.000000	0.281126
1561.000000	0.281095
1562.000000	0.281105
1563.000000	0.281228
1564.000000	0.281271
1565.000000	0.281323
1566.000000	0.281273
1567.000000	0.281174
1568.000000	0.281156
1569.000000	0.281238
1570.000000	0.281228
1571.000000	0.281201
1572.000000	0.281195
1573.000000	0.281179
1574.000000	0.281108
1575.000000	0.281031
1576.000000	0.281005
1577.000000	0.280947
1578.000000	0.280837
1579.000000	0.280791
1580.000000	0.280763
1581.000000	0.280680
1582.000000	0.280691
1583.000000	0.280870
1584.000000	0.280905
1585.000000	0.280997
1586.000000	0.281025
1587.000000	0.280918
1588.000000	0.280876
1589.000000	0.280836
1590.000000	0.280832
1591.000000	0.280903
1592.000000	0.280977
1593.000000	0.281132
1594.000000	0.281131
1595.000000	0.281107
1596.000000	0.281129
1597.000000	0.281119
1598.000000	0.281073
1599.000000	0.281075
1600.000000	0.281014
1601.000000	0.280894
1602.000000	0.280855
1603.000000	0.280936
1604.000000	0.280945
1605.000000	0.280940
1606.000000	0.280939
1607.000000	0.280964
1608.000000	0.280947
1609.000000	0.280973
1610.000000	0.280995
1611.000000	0.281035
1612.000000	0.281016
1613.000000	0.281057
1614.000000	0.281062
1615.000000	0.281053
1616.000000	0.281067
1617.000000	0.281035
1618.000000	0.281071
1619.000000	0.281110
1620.000000	0.281169
1621.000000	0.281370
1622.000000	0.281464
1623.000000	0.281411
1624.000000	0.281509
1625.000000	0.281508
1626.000000	0.281527
1627.000000	0.281730
1628.000000	0.281790
1629.000000	0.281731
1630.000000	0.281747
1631.000000	0.281633
1632.000000	0.281600
1633.000000	0.281685
1634.000000	0.281667
1635.000000	0.281660
1636.000000	0.281645
1637.000000	0.281560
1638.000000	0.281541
1639.000000	0.281648
1640.000000	0.281632
1641.000000	0.281572
1642.000000	0.281619
1643.000000	0.281744
1644.000000	0.281831
1645.000000	0.281992
1646.000000	0.282082
1647.000000	0.282147
1648.000000	0.282115
1649.000000	0.282125
1650.000000	0.282119
1651.000000	0.282015
1652.000000	0.282030
1653.000000	0.282106
1654.000000	0.282143
1655.000000	0.282174
1656.000000	0.282055
1657.000000	0.281846
1658.000000	0.281795
1659.000000	0.281871
1660.000000	0.281856
1661.000000	0.281821
1662.000000	0.281854
1663.000000	0.281790
1664.000000	0.281745
1665.000000	0.281821
1666.000000	0.281888
1667.000000	0.281799
1668.000000	0.281809
1669.000000	0.281928
1670.000000	0.281854
1671.000000	0.281719
1672.000000	0.281796
1673.000000	0.281874
1674.000000	0.282080
1675.000000	0.282326
1676.000000	0.282177
1677.000000	0.282020
1678.000000	0.281858
1679.000000	0.281638
1680.000000	0.281649
1681.000000	0.281740
1682.000000	0.281871
1683.000000	0.282014
1684.000000	0.281984
1685.000000	0.282038
1686.000000	0.282087
1687.000000	0.282098
1688.000000	0.282215
1689.000000	0.282264
1690.000000	0.282248
1691.000000	0.282245
1692.000000	0.282086
1693.000000	0.282087
1694.000000	0.282208
1695.000000	0.282249
1696.000000	0.282320
1697.000000	0.282351
1698.000000	0.282293
1699.000000	0.282328
1700.000000	0.282498
1701.000000	0.282625
1702.000000	0.282512
1703.000000	0.282520
1704.000000	0.282672
1705.000000	0.282739
1706.000000	0.282934
1707.000000	0.283010
1708.000000	0.282863
1709.000000	0.282817
1710.000000	0.282932
1711.000000	0.282924
1712.000000	0.282963
1713.000000	0.282875
1714.000000	0.282574
1715.000000	0.282483
1716.000000	0.282467
1717.000000	0.282447
1718.000000	0.282502
1719.000000	0.282538
1720.000000	0.282638
1721.000000	0.282645
1722.000000	0.282665
1723.000000	0.282629
1724.000000	0.282451
1725.000000	0.282431
1726.000000	0.282399
1727.000000	0.282396
1728.000000	0.282405
1729.000000	0.282396
1730.000000	0.282527
1731.000000	0.282576
1732.000000	0.282566
1733.000000	0.282758
1734.000000	0.282909
1735.000000	0.283029
1736.000000	0.283271
1737.000000	0.283350
1738.000000	0.283321
1739.000000	0.283243
1740.000000	0.283069
1741.000000	0.283000
1742.000000	0.282864
1743.000000	0.282895
1744.000000	0.283081
1745.000000	0.283131
1746.000000	0.283182
1747.000000	0.282982
1748.000000	0.282903
1749.000000	0.282859
1750.000000	0.282778
1751.000000	0.283012
1752.000000	0.283118
1753.000000	0.282902
1754.000000	0.282793
1755.000000	0.282594
1756.000000	0.282461
1757.000000	0.282362
1758.000000	0.282372
1759.000000	0.282514
1760.000000	0.282551
1761.000000	0.282611
1762.000000	0.282608
1763.000000	0.282417
1764.000000	0.282434
1765.000000	0.282578
1766.000000	0.282635
1767.000000	0.282628
1768.000000	0.282695
1769.000000	0.282917
1770.000000	0.282959
1771.000000	0.282987
1772.000000	0.282917
1773.000000	0.282499
1774.000000	0.282373
1775.000000	0.282449
1776.000000	0.282446
1777.000000	0.282462
1778.000000	0.282440
1779.000000	0.282355
1780.000000	0.282381
1781.000000	0.282428
1782.000000	0.282466
1783.000000	0.282604
1784.000000	0.282566
1785.000000	0.282602
1786.000000	0.282622
1787.000000	0.282643
1788.000000	0.282689
1789.000000	0.282595
1790.000000	0.282416
1791.000000	0.282256
1792.000000	0.282060
1793.000000	0.282036
1794.000000	0.282233
1795.000000	0.282328
1796.000000	0.282513
1797.000000	0.282585
1798.000000	0.282433
1799.000000	0.282440
1800.000000	0.282557
1801.000000	0.282326
1802.000000	0.282532
1803.000000	0.282573
1804.000000	0.282750
1805.000000	0.282680
1806.000000	0.282790
1807.000000	0.282944
1808.000000	0.283131
1809.000000	0.283263
1810.000000	0.283644
1811.000000	0.283896
1812.000000	0.284528
1813.000000	0.284636
1814.000000	0.284341
1815.000000	0.284243
1816.000000	0.284292
1817.000000	0.283717
1818.000000	0.282482
1819.000000	0.282251
1820.000000	0.281957
1821.000000	0.280926
1822.000000	0.280648
1823.000000	0.281159
1824.000000	0.281137
1825.000000	0.280336
1826.000000	0.280723
1827.000000	0.282153
1828.000000	0.282543
1829.000000	0.282734
1830.000000	0.283569
1831.000000	0.283296
1832.000000	0.281188
1833.000000	0.281050
1834.000000	0.281781
1835.000000	0.281858
1836.000000	0.282472
1837.000000	0.282791
1838.000000	0.282598
1839.000000	0.281979
1840.000000	0.282125
1841.000000	0.282423
1842.000000	0.282432
1843.000000	0.282279
1844.000000	0.282347
1845.000000	0.282384
1846.000000	0.282226
1847.000000	0.281837
1848.000000	0.281525
1849.000000	0.281411
1850.000000	0.281508
1851.000000	0.281605
1852.000000	0.281872
1853.000000	0.282330
1854.000000	0.282878
1855.000000	0.282990
1856.000000	0.283028
1857.000000	0.283366
1858.000000	0.282709
1859.000000	0.281555
1860.000000	0.280725
1861.000000	0.279711
1862.000000	0.279438
1863.000000	0.279837
1864.000000	0.280128
1865.000000	0.281491
1866.000000	0.281606
1867.000000	0.281080
1868.000000	0.280404
1869.000000	0.279269
1870.000000	0.277953
1871.000000	0.277621
1872.000000	0.276852
1873.000000	0.276199
1874.000000	0.275710
1875.000000	0.275163
1876.000000	0.274290
1877.000000	0.273419
1878.000000	0.272448
1879.000000	0.271558
1880.000000	0.271477
1881.000000	0.270838
1882.000000	0.269988
1883.000000	0.269775
1884.000000	0.268983
1885.000000	0.267259
1886.000000	0.266108
1887.000000	0.265204
1888.000000	0.263511
1889.000000	0.262720
1890.000000	0.262305
1891.000000	0.262048
1892.000000	0.261890
1893.000000	0.261183
1894.000000	0.260013
1895.000000	0.258639
1896.000000	0.256986
1897.000000	0.255473
1898.000000	0.253909
1899.000000	0.252870
1900.000000	0.251662
1901.000000	0.250698
1902.000000	0.249916
1903.000000	0.248584
1904.000000	0.247987
1905.000000	0.246954
1906.000000	0.246040
1907.000000	0.244983
1908.000000	0.244544
1909.000000	0.244207
1910.000000	0.244459
1911.000000	0.244319
1912.000000	0.243824
1913.000000	0.242900
1914.000000	0.241476
1915.000000	0.240470
1916.000000	0.240201
1917.000000	0.239910
1918.000000	0.240031
1919.000000	0.240423
1920.000000	0.240677
1921.000000	0.240084
1922.000000	0.239532
1923.000000	0.239320
1924.000000	0.239199
1925.000000	0.239356
1926.000000	0.239557
1927.000000	0.239879
1928.000000	0.240129
1929.000000	0.240411
1930.000000	0.240551
1931.000000	0.240827
1932.000000	0.240796
1933.000000	0.240225
1934.000000	0.240019
1935.000000	0.239983
1936.000000	0.240420
1937.000000	0.240848
1938.000000	0.240457
1939.000000	0.240449
1940.000000	0.240465
1941.000000	0.240171
1942.000000	0.240168
1943.000000	0.240722
1944.000000	0.240162
1945.000000	0.239897
1946.000000	0.239929
1947.000000	0.239486
1948.000000	0.240230
1949.000000	0.240483
1950.000000	0.239655
1951.000000	0.239328
1952.000000	0.239293
1953.000000	0.238774
1954.000000	0.238610
1955.000000	0.239311
1956.000000	0.239308
1957.000000	0.239285
1958.000000	0.239538
1959.000000	0.239366
1960.000000	0.239208
1961.000000	0.239597
1962.000000	0.239723
1963.000000	0.239807
1964.000000	0.239502
1965.000000	0.239634
1966.000000	0.239488
1967.000000	0.238543
1968.000000	0.237948
1969.000000	0.237613
1970.000000	0.236883
1971.000000	0.236747
1972.000000	0.237433
1973.000000	0.237426
1974.000000	0.237191
1975.000000	0.237248
1976.000000	0.237227
1977.000000	0.237045
1978.000000	0.237667
1979.000000	0.238323
1980.000000	0.238898
1981.000000	0.239321
1982.000000	0.239089
1983.000000	0.238583
1984.000000	0.238736
1985.000000	0.239450
1986.000000	0.239706
1987.000000	0.240067
1988.000000	0.240832
1989.000000	0.241066
1990.000000	0.240417
1991.000000	0.239873
1992.000000	0.239718
1993.000000	0.239519
1994.000000	0.239410
1995.000000	0.239803
1996.000000	0.240074
1997.000000	0.240518
1998.000000	0.241318
1999.000000	0.241848
2000.000000	0.242367
2001.000000	0.242938
2002.000000	0.243214
2003.000000	0.243263
2004.000000	0.243516
2005.000000	0.243698
2006.000000	0.243921
2007.000000	0.244435
2008.000000	0.244780
2009.000000	0.245001
2010.000000	0.245460
2011.000000	0.246077
2012.000000	0.246301
2013.000000	0.246476
2014.000000	0.246344
2015.000000	0.246175
2016.000000	0.245667
2017.000000	0.245850
2018.000000	0.246795
2019.000000	0.247649
2020.000000	0.248471
2021.000000	0.248616
2022.000000	0.247711
2023.000000	0.247778
2024.000000	0.247953
2025.000000	0.248122
2026.000000	0.248641
2027.000000	0.249298
2028.000000	0.249105
2029.000000	0.249012
2030.000000	0.249219
2031.000000	0.249257
2032.000000	0.250024
2033.000000	0.250495
2034.000000	0.250676
2035.000000	0.250960
2036.000000	0.251157
2037.000000	0.250906
2038.000000	0.250971
2039.000000	0.251395
2040.000000	0.251689
2041.000000	0.251645
2042.000000	0.251934
2043.000000	0.252304
2044.000000	0.252603
2045.000000	0.252772
2046.000000	0.252907
2047.000000	0.253254
2048.000000	0.253490
2049.000000	0.253983
2050.000000	0.254618
2051.000000	0.255100
2052.000000	0.255657
2053.000000	0.255778
2054.000000	0.255990
2055.000000	0.255749
2056.000000	0.255232
2057.000000	0.255226
2058.000000	0.254967
2059.000000	0.255568
2060.000000	0.256292
2061.000000	0.257675
2062.000000	0.258105
2063.000000	0.258638
2064.000000	0.258601
2065.000000	0.257544
2066.000000	0.257341
2067.000000	0.257499
2068.000000	0.258177
2069.000000	0.258858
2070.000000	0.259488
2071.000000	0.259720
2072.000000	0.259100
2073.000000	0.258147
2074.000000	0.257409
2075.000000	0.257030
2076.000000	0.256957
2077.000000	0.256754
2078.000000	0.256861
2079.000000	0.256703
2080.000000	0.255841
2081.000000	0.255924
2082.000000	0.256541
2083.000000	0.257237
2084.000000	0.258152
2085.000000	0.259199
2086.000000	0.259301
2087.000000	0.259410
2088.000000	0.259423
2089.000000	0.259571
2090.000000	0.259823
2091.000000	0.260344
2092.000000	0.260410
2093.000000	0.260251
2094.000000	0.260343
2095.000000	0.260393
2096.000000	0.260618
2097.000000	0.261287
2098.000000	0.261524
2099.000000	0.260904
2100.000000	0.260504
2101.000000	0.260467
2102.000000	0.260229
2103.000000	0.261297
2104.000000	0.261898
2105.000000	0.262397
2106.000000	0.263248
2107.000000	0.263456
2108.000000	0.262880
2109.000000	0.262849
2110.000000	0.262283
2111.000000	0.262048
2112.000000	0.261954
2113.000000	0.262265
2114.000000	0.262415
2115.000000	0.262318
2116.000000	0.262489
2117.000000	0.262803
2118.000000	0.262516
2119.000000	0.262493
2120.000000	0.262954
2121.000000	0.263774
2122.000000	0.264054
2123.000000	0.264881
2124.000000	0.264891
2125.000000	0.263882
2126.000000	0.263142
2127.000000	0.262196
2128.000000	0.261791
2129.000000	0.261335
2130.000000	0.261108
2131.000000	0.261448
2132.000000	0.261139
2133.000000	0.261234
2134.000000	0.261830
2135.000000	0.262397
2136.000000	0.263493
2137.000000	0.264023
2138.000000	0.264132
2139.000000	0.264603
2140.000000	0.265554
2141.000000	0.265493
2142.000000	0.264951
2143.000000	0.264461
2144.000000	0.263023
2145.000000	0.262318
2146.000000	0.262033
2147.000000	0.262592
2148.000000	0.262488
2149.000000	0.263036
2150.000000	0.264072
2151.000000	0.264852
2152.000000	0.264826
2153.000000	0.264415
2154.000000	0.264288
2155.000000	0.263538
2156.000000	0.263238
2157.000000	0.263747
2158.000000	0.263497
2159.000000	0.262631
2160.000000	0.262189
2161.000000	0.261403
2162.000000	0.261499
2163.000000	0.262343
2164.000000	0.262681
2165.000000	0.263529
2166.000000	0.263741
2167.000000	0.263763
2168.000000	0.263677
2169.000000	0.263306
2170.000000	0.264016
2171.000000	0.263812
2172.000000	0.263063
2173.000000	0.262752
2174.000000	0.261806
2175.000000	0.261851
2176.000000	0.263284
2177.000000	0.263478
2178.000000	0.263623
2179.000000	0.263811
2180.000000	0.262478
2181.000000	0.262847
2182.000000	0.264076
2183.000000	0.265024
2184.000000	0.266476
2185.000000	0.266712
2186.000000	0.265435
2187.000000	0.265482
2188.000000	0.265313
2189.000000	0.265293
2190.000000	0.266361
2191.000000	0.267439
2192.000000	0.267328
2193.000000	0.266272
2194.000000	0.266061
2195.000000	0.265099
2196.000000	0.264294
2197.000000	0.264063
2198.000000	0.264072
2199.000000	0.264126
2200.000000	0.264089
2201.000000	0.264376
2202.000000	0.264983
2203.000000	0.265022
2204.000000	0.265973
2205.000000	0.266739
2206.000000	0.265551
2207.000000	0.263550
2208.000000	0.261460
2209.000000	0.259861
2210.000000	0.260497
2211.000000	0.260660
2212.000000	0.260116
2213.000000	0.260073
2214.000000	0.260000
2215.000000	0.260744
2216.000000	0.261947
2217.000000	0.263261
2218.000000	0.265412
2219.000000	0.266405
2220.000000	0.267652
2221.000000	0.267772
2222.000000	0.266763
2223.000000	0.265813
2224.000000	0.264425
2225.000000	0.262438
2226.000000	0.260237
2227.000000	0.259609
2228.000000	0.259011
2229.000000	0.259775
2230.000000	0.260836
2231.000000	0.261524
2232.000000	0.262991
2233.000000	0.263153
2234.000000	0.264691
2235.000000	0.267822
2236.000000	0.268743
2237.000000	0.269088
2238.000000	0.268990
2239.000000	0.266989
2240.000000	0.265746
2241.000000	0.265090
2242.000000	0.263802
2243.000000	0.261644
2244.000000	0.260792
2245.000000	0.260043
2246.000000	0.260240
2247.000000	0.261436
2248.000000	0.262516
2249.000000	0.265249
2250.000000	0.264859
2251.000000	0.266275
2252.000000	0.265956
2253.000000	0.262745
2254.000000	0.263528
2255.000000	0.263454
2256.000000	0.264229
2257.000000	0.267577
2258.000000	0.268598
2259.000000	0.267782
2260.000000	0.266782
2261.000000	0.265514
2262.000000	0.262686
2263.000000	0.261466
2264.000000	0.260619
2265.000000	0.259914
2266.000000	0.260331
2267.000000	0.259985
2268.000000	0.259394
2269.000000	0.259266
2270.000000	0.258359
2271.000000	0.258364
2272.000000	0.259614
2273.000000	0.260379
2274.000000	0.262021
2275.000000	0.262500
2276.000000	0.262925
2277.000000	0.260965
2278.000000	0.258127
2279.000000	0.256129
2280.000000	0.255275
2281.000000	0.255360
2282.000000	0.256931
2283.000000	0.258297
2284.000000	0.258924
2285.000000	0.259103
2286.000000	0.259667
2287.000000	0.258763
2288.000000	0.256632
2289.000000	0.256622
2290.000000	0.256210
2291.000000	0.257240
2292.000000	0.260163
2293.000000	0.260300
2294.000000	0.260603
2295.000000	0.260994
2296.000000	0.259927
2297.000000	0.256700
2298.000000	0.255830
2299.000000	0.255188
2300.000000	0.254983
2301.000000	0.256774
2302.000000	0.257317
2303.000000	0.257169
2304.000000	0.256260
2305.000000	0.254407
2306.000000	0.252964
2307.000000	0.249529
2308.000000	0.250625
2309.000000	0.252740
2310.000000	0.252585
2311.000000	0.254267
2312.000000	0.253337
2313.000000	0.251518
2314.000000	0.253035
2315.000000	0.256129
2316.000000	0.257817
2317.000000	0.256371
2318.000000	0.255060
2319.000000	0.251909
2320.000000	0.249136
2321.000000	0.251083
2322.000000	0.252395
2323.000000	0.253730
2324.000000	0.256102
2325.000000	0.256066
2326.000000	0.255196
2327.000000	0.253684
2328.000000	0.251158
2329.000000	0.249412
2330.000000	0.247199
2331.000000	0.244887
2332.000000	0.244186
2333.000000	0.244993
2334.000000	0.247387
2335.000000	0.249577
2336.000000	0.253872
2337.000000	0.254953
2338.000000	0.253945
2339.000000	0.253445
2340.000000	0.251177
2341.000000	0.250655
2342.000000	0.251137
2343.000000	0.250402
2344.000000	0.251409
2345.000000	0.250568
2346.000000	0.245295
2347.000000	0.244690
2348.000000	0.246591
2349.000000	0.245981
2350.000000	0.248176
2351.000000	0.251808
2352.000000	0.250456
2353.000000	0.249531
2354.000000	0.248453
2355.000000	0.247419
2356.000000	0.246755
2357.000000	0.246132
2358.000000	0.246286
2359.000000	0.247600
2360.000000	0.249149
2361.000000	0.249368
2362.000000	0.247596
2363.000000	0.243373
2364.000000	0.240352
2365.000000	0.237859
2366.000000	0.236852
2367.000000	0.239760
2368.000000	0.241630
2369.000000	0.245431
2370.000000	0.246999
2371.000000	0.243930
2372.000000	0.243050
2373.000000	0.241374
2374.000000	0.238338
2375.000000	0.236349
2376.000000	0.238783
2377.000000	0.241754
2378.000000	0.245177
2379.000000	0.248458
2380.000000	0.243831
2381.000000	0.238469
2382.000000	0.230594
2383.000000	0.224762
2384.000000	0.227253
2385.000000	0.228141
2386.000000	0.230476
2387.000000	0.234553
2388.000000	0.235005
2389.000000	0.233076
2390.000000	0.236178
2391.000000	0.239128
2392.000000	0.236561
2393.000000	0.237426
2394.000000	0.238009
2395.000000	0.239090
2396.000000	0.241922
2397.000000	0.242176
2398.000000	0.239667
2399.000000	0.233840
2400.000000	0.233818
2401.000000	0.239329
2402.000000	0.246647
2403.000000	0.251366
2404.000000	0.246319
2405.000000	0.236013
2406.000000	0.225567
2407.000000	0.222916
2408.000000	0.222643
2409.000000	0.221777
2410.000000	0.225701
2411.000000	0.225245
2412.000000	0.225425
2413.000000	0.229506
2414.000000	0.227092
2415.000000	0.221321
2416.000000	0.215659
2417.000000	0.213582
2418.000000	0.217631
2419.000000	0.221463
2420.000000	0.233122
2421.000000	0.245725
2422.000000	0.242928
2423.000000	0.241823
2424.000000	0.237752
2425.000000	0.222168
2426.000000	0.217492
2427.000000	0.215047
2428.000000	0.212577
2429.000000	0.215184
2430.000000	0.215131
2431.000000	0.219644
2432.000000	0.212668
2433.000000	0.202789
2434.000000	0.199418
2435.000000	0.195367
2436.000000	0.204634
2437.000000	0.222767
2438.000000	0.244656
2439.000000	0.259020
2440.000000	0.260214
2441.000000	0.241312
2442.000000	0.214770
2443.000000	0.197804
2444.000000	0.179820
2445.000000	0.182349
2446.000000	0.191768
2447.000000	0.194168
2448.000000	0.202203
2449.000000	0.205437
2450.000000	0.221459
2451.000000	0.234867
2452.000000	0.241578
2453.000000	0.256141
2454.000000	0.238813
2455.000000	0.216851
2456.000000	0.208448
2457.000000	0.197416
2458.000000	0.196031
2459.000000	0.195547
2460.000000	0.204738
2461.000000	0.208241
2462.000000	0.214440
2463.000000	0.219570
2464.000000	0.212513
2465.000000	0.211987
2466.000000	0.200173
2467.000000	0.193939
2468.000000	0.203047
2469.000000	0.211599
2470.000000	0.215503
2471.000000	0.220426
2472.000000	0.214773
2473.000000	0.200025
2474.000000	0.190852
2475.000000	0.186374
2476.000000	0.192421
2477.000000	0.194682
2478.000000	0.193810
2479.000000	0.196847
2480.000000	0.187753
2481.000000	0.172794
2482.000000	0.168579
2483.000000	0.178915
2484.000000	0.168002
2485.000000	0.155003
2486.000000	0.167155
2487.000000	0.154696
2488.000000	0.168795
2489.000000	0.199709
2490.000000	0.190072
2491.000000	0.187626
2492.000000	0.185825
2493.000000	0.181433
2494.000000	0.188124
2495.000000	0.227488
2496.000000	0.208453
2497.000000	0.130068
2498.000000	0.103946
2499.000000	0.051812
2500.000000	0.036785
