# Wavelength	Nau-2_10_FV7_90_00002.asd.rts.txt
350.000000	0.181201
351.000000	0.187364
352.000000	0.188068
353.000000	0.193402
354.000000	0.204706
355.000000	0.196239
356.000000	0.184269
357.000000	0.177495
358.000000	0.178603
359.000000	0.179179
360.000000	0.182511
361.000000	0.191899
362.000000	0.192916
363.000000	0.188441
364.000000	0.182946
365.000000	0.181875
366.000000	0.186480
367.000000	0.191166
368.000000	0.184218
369.000000	0.183669
370.000000	0.186027
371.000000	0.183258
372.000000	0.187419
373.000000	0.190598
374.000000	0.188900
375.000000	0.193233
376.000000	0.196263
377.000000	0.196157
378.000000	0.196131
379.000000	0.194680
380.000000	0.193790
381.000000	0.196326
382.000000	0.197050
383.000000	0.196481
384.000000	0.195999
385.000000	0.196282
386.000000	0.197856
387.000000	0.200054
388.000000	0.200566
389.000000	0.201071
390.000000	0.200755
391.000000	0.198323
392.000000	0.200014
393.000000	0.202205
394.000000	0.201797
395.000000	0.201449
396.000000	0.201966
397.000000	0.203164
398.000000	0.203739
399.000000	0.204630
400.000000	0.205311
401.000000	0.204678
402.000000	0.204585
403.000000	0.205003
404.000000	0.205654
405.000000	0.206181
406.000000	0.207053
407.000000	0.208140
408.000000	0.208056
409.000000	0.207861
410.000000	0.207938
411.000000	0.208304
412.000000	0.208293
413.000000	0.208238
414.000000	0.208617
415.000000	0.209175
416.000000	0.209600
417.000000	0.209821
418.000000	0.210283
419.000000	0.210677
420.000000	0.211024
421.000000	0.211620
422.000000	0.211952
423.000000	0.212082
424.000000	0.212326
425.000000	0.212740
426.000000	0.213219
427.000000	0.213624
428.000000	0.213822
429.000000	0.214094
430.000000	0.214579
431.000000	0.215311
432.000000	0.215388
433.000000	0.215152
434.000000	0.215580
435.000000	0.215590
436.000000	0.215507
437.000000	0.215805
438.000000	0.216594
439.000000	0.216657
440.000000	0.215923
441.000000	0.216344
442.000000	0.216657
443.000000	0.216723
444.000000	0.217256
445.000000	0.217438
446.000000	0.217473
447.000000	0.217640
448.000000	0.217823
449.000000	0.218090
450.000000	0.218500
451.000000	0.219071
452.000000	0.219461
453.000000	0.219629
454.000000	0.220085
455.000000	0.220429
456.000000	0.220675
457.000000	0.220855
458.000000	0.221325
459.000000	0.221860
460.000000	0.222262
461.000000	0.222703
462.000000	0.222973
463.000000	0.222997
464.000000	0.223447
465.000000	0.223909
466.000000	0.224293
467.000000	0.224800
468.000000	0.224852
469.000000	0.224740
470.000000	0.225026
471.000000	0.225179
472.000000	0.225375
473.000000	0.225709
474.000000	0.225800
475.000000	0.225655
476.000000	0.225648
477.000000	0.226351
478.000000	0.226577
479.000000	0.226546
480.000000	0.226712
481.000000	0.226948
482.000000	0.227159
483.000000	0.227187
484.000000	0.227787
485.000000	0.228089
486.000000	0.227993
487.000000	0.228343
488.000000	0.228659
489.000000	0.228910
490.000000	0.229307
491.000000	0.229564
492.000000	0.229775
493.000000	0.230009
494.000000	0.230358
495.000000	0.230653
496.000000	0.230822
497.000000	0.231315
498.000000	0.231680
499.000000	0.231880
500.000000	0.232194
501.000000	0.232626
502.000000	0.232976
503.000000	0.232899
504.000000	0.233091
505.000000	0.233478
506.000000	0.233828
507.000000	0.233892
508.000000	0.234021
509.000000	0.234348
510.000000	0.234695
511.000000	0.234944
512.000000	0.235188
513.000000	0.235657
514.000000	0.235977
515.000000	0.236246
516.000000	0.236624
517.000000	0.236926
518.000000	0.237197
519.000000	0.237432
520.000000	0.237733
521.000000	0.237973
522.000000	0.238148
523.000000	0.238412
524.000000	0.238709
525.000000	0.238992
526.000000	0.239261
527.000000	0.239752
528.000000	0.240260
529.000000	0.240596
530.000000	0.241012
531.000000	0.241484
532.000000	0.241903
533.000000	0.242304
534.000000	0.242788
535.000000	0.243326
536.000000	0.243790
537.000000	0.244235
538.000000	0.244693
539.000000	0.245177
540.000000	0.245630
541.000000	0.246020
542.000000	0.246387
543.000000	0.246866
544.000000	0.247344
545.000000	0.247720
546.000000	0.248141
547.000000	0.248612
548.000000	0.249126
549.000000	0.249566
550.000000	0.250072
551.000000	0.250586
552.000000	0.250982
553.000000	0.251473
554.000000	0.252017
555.000000	0.252563
556.000000	0.253088
557.000000	0.253594
558.000000	0.254158
559.000000	0.254611
560.000000	0.255069
561.000000	0.255593
562.000000	0.256085
563.000000	0.256584
564.000000	0.257088
565.000000	0.257505
566.000000	0.258023
567.000000	0.258525
568.000000	0.258940
569.000000	0.259414
570.000000	0.259889
571.000000	0.260301
572.000000	0.260588
573.000000	0.260910
574.000000	0.261246
575.000000	0.261578
576.000000	0.262006
577.000000	0.262364
578.000000	0.262597
579.000000	0.262884
580.000000	0.263187
581.000000	0.263481
582.000000	0.263772
583.000000	0.264040
584.000000	0.264298
585.000000	0.264578
586.000000	0.264792
587.000000	0.265001
588.000000	0.265261
589.000000	0.265336
590.000000	0.265441
591.000000	0.265694
592.000000	0.265892
593.000000	0.266095
594.000000	0.266299
595.000000	0.266454
596.000000	0.266602
597.000000	0.266805
598.000000	0.267026
599.000000	0.267029
600.000000	0.267056
601.000000	0.267245
602.000000	0.267388
603.000000	0.267535
604.000000	0.267707
605.000000	0.267848
606.000000	0.267928
607.000000	0.267975
608.000000	0.268054
609.000000	0.268042
610.000000	0.268020
611.000000	0.268084
612.000000	0.268093
613.000000	0.268071
614.000000	0.268094
615.000000	0.268215
616.000000	0.268267
617.000000	0.268249
618.000000	0.268439
619.000000	0.268495
620.000000	0.268470
621.000000	0.268605
622.000000	0.268721
623.000000	0.268803
624.000000	0.268860
625.000000	0.268906
626.000000	0.268947
627.000000	0.268995
628.000000	0.269068
629.000000	0.269216
630.000000	0.269318
631.000000	0.269407
632.000000	0.269432
633.000000	0.269461
634.000000	0.269552
635.000000	0.269666
636.000000	0.269815
637.000000	0.269959
638.000000	0.269977
639.000000	0.270036
640.000000	0.270189
641.000000	0.270248
642.000000	0.270307
643.000000	0.270405
644.000000	0.270562
645.000000	0.270702
646.000000	0.270878
647.000000	0.271081
648.000000	0.271149
649.000000	0.271263
650.000000	0.271440
651.000000	0.271539
652.000000	0.271634
653.000000	0.271754
654.000000	0.271848
655.000000	0.272082
656.000000	0.272370
657.000000	0.272562
658.000000	0.272756
659.000000	0.272914
660.000000	0.273047
661.000000	0.273320
662.000000	0.273484
663.000000	0.273611
664.000000	0.273858
665.000000	0.274102
666.000000	0.274350
667.000000	0.274610
668.000000	0.274939
669.000000	0.275229
670.000000	0.275450
671.000000	0.275739
672.000000	0.276039
673.000000	0.276335
674.000000	0.276661
675.000000	0.276972
676.000000	0.277291
677.000000	0.277662
678.000000	0.277958
679.000000	0.278223
680.000000	0.278500
681.000000	0.278741
682.000000	0.279019
683.000000	0.279293
684.000000	0.279609
685.000000	0.279908
686.000000	0.280230
687.000000	0.280589
688.000000	0.280872
689.000000	0.281215
690.000000	0.281727
691.000000	0.282222
692.000000	0.282608
693.000000	0.282960
694.000000	0.283387
695.000000	0.283821
696.000000	0.284247
697.000000	0.284671
698.000000	0.285107
699.000000	0.285508
700.000000	0.285847
701.000000	0.286156
702.000000	0.286495
703.000000	0.286856
704.000000	0.287188
705.000000	0.287538
706.000000	0.287872
707.000000	0.288207
708.000000	0.288516
709.000000	0.288809
710.000000	0.289135
711.000000	0.289562
712.000000	0.290014
713.000000	0.290461
714.000000	0.290877
715.000000	0.291218
716.000000	0.291533
717.000000	0.291886
718.000000	0.292217
719.000000	0.292527
720.000000	0.292838
721.000000	0.293139
722.000000	0.293467
723.000000	0.293849
724.000000	0.294106
725.000000	0.294343
726.000000	0.294651
727.000000	0.294953
728.000000	0.295188
729.000000	0.295458
730.000000	0.295793
731.000000	0.296130
732.000000	0.296399
733.000000	0.296655
734.000000	0.297006
735.000000	0.297270
736.000000	0.297538
737.000000	0.297764
738.000000	0.297956
739.000000	0.298276
740.000000	0.298646
741.000000	0.299004
742.000000	0.299322
743.000000	0.299572
744.000000	0.299805
745.000000	0.300037
746.000000	0.300320
747.000000	0.300607
748.000000	0.300868
749.000000	0.301072
750.000000	0.301197
751.000000	0.301374
752.000000	0.301577
753.000000	0.301832
754.000000	0.302179
755.000000	0.302437
756.000000	0.302616
757.000000	0.302746
758.000000	0.302952
759.000000	0.303164
760.000000	0.303296
761.000000	0.303546
762.000000	0.303744
763.000000	0.303885
764.000000	0.304128
765.000000	0.304287
766.000000	0.304373
767.000000	0.304429
768.000000	0.304455
769.000000	0.304524
770.000000	0.304655
771.000000	0.304773
772.000000	0.304896
773.000000	0.304983
774.000000	0.305108
775.000000	0.305285
776.000000	0.305479
777.000000	0.305648
778.000000	0.305841
779.000000	0.306014
780.000000	0.306123
781.000000	0.306100
782.000000	0.306055
783.000000	0.306110
784.000000	0.306179
785.000000	0.306203
786.000000	0.306262
787.000000	0.306379
788.000000	0.306464
789.000000	0.306553
790.000000	0.306608
791.000000	0.306611
792.000000	0.306596
793.000000	0.306573
794.000000	0.306562
795.000000	0.306623
796.000000	0.306622
797.000000	0.306532
798.000000	0.306438
799.000000	0.306431
800.000000	0.306508
801.000000	0.306629
802.000000	0.306799
803.000000	0.306850
804.000000	0.306787
805.000000	0.306840
806.000000	0.306819
807.000000	0.306801
808.000000	0.306839
809.000000	0.306957
810.000000	0.307011
811.000000	0.306910
812.000000	0.306834
813.000000	0.306854
814.000000	0.306950
815.000000	0.307033
816.000000	0.307028
817.000000	0.306968
818.000000	0.306839
819.000000	0.306756
820.000000	0.306664
821.000000	0.306528
822.000000	0.306508
823.000000	0.306563
824.000000	0.306562
825.000000	0.306492
826.000000	0.306500
827.000000	0.306469
828.000000	0.306392
829.000000	0.306392
830.000000	0.306405
831.000000	0.306408
832.000000	0.306242
833.000000	0.306126
834.000000	0.306048
835.000000	0.306001
836.000000	0.305942
837.000000	0.305978
838.000000	0.306101
839.000000	0.306168
840.000000	0.306128
841.000000	0.306015
842.000000	0.305840
843.000000	0.305617
844.000000	0.305430
845.000000	0.305299
846.000000	0.305249
847.000000	0.305265
848.000000	0.305252
849.000000	0.305183
850.000000	0.305251
851.000000	0.305343
852.000000	0.305405
853.000000	0.305368
854.000000	0.305183
855.000000	0.305011
856.000000	0.304869
857.000000	0.304688
858.000000	0.304562
859.000000	0.304442
860.000000	0.304269
861.000000	0.304219
862.000000	0.304195
863.000000	0.303964
864.000000	0.303842
865.000000	0.303703
866.000000	0.303519
867.000000	0.303436
868.000000	0.303339
869.000000	0.303191
870.000000	0.303087
871.000000	0.302902
872.000000	0.302742
873.000000	0.302630
874.000000	0.302627
875.000000	0.302461
876.000000	0.302181
877.000000	0.301920
878.000000	0.301809
879.000000	0.301731
880.000000	0.301516
881.000000	0.301451
882.000000	0.301474
883.000000	0.301476
884.000000	0.301289
885.000000	0.301163
886.000000	0.301078
887.000000	0.301004
888.000000	0.300853
889.000000	0.300631
890.000000	0.300297
891.000000	0.300027
892.000000	0.299780
893.000000	0.299512
894.000000	0.299326
895.000000	0.299179
896.000000	0.298975
897.000000	0.298743
898.000000	0.298563
899.000000	0.298558
900.000000	0.298355
901.000000	0.297904
902.000000	0.297763
903.000000	0.297599
904.000000	0.297415
905.000000	0.297187
906.000000	0.296979
907.000000	0.296869
908.000000	0.296827
909.000000	0.296543
910.000000	0.296366
911.000000	0.296266
912.000000	0.296130
913.000000	0.295807
914.000000	0.295434
915.000000	0.295162
916.000000	0.294978
917.000000	0.294685
918.000000	0.294481
919.000000	0.294445
920.000000	0.294269
921.000000	0.294043
922.000000	0.293864
923.000000	0.293774
924.000000	0.293429
925.000000	0.293140
926.000000	0.293050
927.000000	0.292767
928.000000	0.292462
929.000000	0.292156
930.000000	0.291839
931.000000	0.291555
932.000000	0.291182
933.000000	0.290753
934.000000	0.290381
935.000000	0.290140
936.000000	0.289987
937.000000	0.289756
938.000000	0.289440
939.000000	0.289318
940.000000	0.289241
941.000000	0.288960
942.000000	0.288464
943.000000	0.288017
944.000000	0.287712
945.000000	0.287679
946.000000	0.287677
947.000000	0.287511
948.000000	0.287063
949.000000	0.286883
950.000000	0.286649
951.000000	0.286259
952.000000	0.285968
953.000000	0.285700
954.000000	0.285343
955.000000	0.284849
956.000000	0.284631
957.000000	0.284455
958.000000	0.284222
959.000000	0.283999
960.000000	0.283686
961.000000	0.283347
962.000000	0.283037
963.000000	0.282845
964.000000	0.282822
965.000000	0.282839
966.000000	0.282663
967.000000	0.282350
968.000000	0.282232
969.000000	0.282126
970.000000	0.281777
971.000000	0.281481
972.000000	0.281415
973.000000	0.281410
974.000000	0.281091
975.000000	0.280772
976.000000	0.280361
977.000000	0.279849
978.000000	0.279761
979.000000	0.279553
980.000000	0.279129
981.000000	0.279002
982.000000	0.278794
983.000000	0.278623
984.000000	0.278541
985.000000	0.278356
986.000000	0.278157
987.000000	0.278053
988.000000	0.277965
989.000000	0.277773
990.000000	0.277584
991.000000	0.277345
992.000000	0.277074
993.000000	0.277138
994.000000	0.277104
995.000000	0.276941
996.000000	0.276590
997.000000	0.276310
998.000000	0.276092
999.000000	0.275988
1000.000000	0.275943
1001.000000	0.276041
1002.000000	0.275855
1003.000000	0.276128
1004.000000	0.276420
1005.000000	0.277583
1006.000000	0.277556
1007.000000	0.277158
1008.000000	0.276079
1009.000000	0.275704
1010.000000	0.274655
1011.000000	0.273837
1012.000000	0.274908
1013.000000	0.275135
1014.000000	0.274940
1015.000000	0.275269
1016.000000	0.274929
1017.000000	0.274430
1018.000000	0.274174
1019.000000	0.274003
1020.000000	0.274141
1021.000000	0.273931
1022.000000	0.273892
1023.000000	0.273979
1024.000000	0.273884
1025.000000	0.273890
1026.000000	0.274208
1027.000000	0.274050
1028.000000	0.274267
1029.000000	0.274481
1030.000000	0.274459
1031.000000	0.274638
1032.000000	0.274294
1033.000000	0.274126
1034.000000	0.274223
1035.000000	0.274495
1036.000000	0.274478
1037.000000	0.274486
1038.000000	0.274698
1039.000000	0.274982
1040.000000	0.275225
1041.000000	0.275386
1042.000000	0.275396
1043.000000	0.275092
1044.000000	0.274839
1045.000000	0.274831
1046.000000	0.274761
1047.000000	0.274938
1048.000000	0.275130
1049.000000	0.275303
1050.000000	0.275888
1051.000000	0.276007
1052.000000	0.275480
1053.000000	0.275529
1054.000000	0.276051
1055.000000	0.276284
1056.000000	0.276808
1057.000000	0.277010
1058.000000	0.276749
1059.000000	0.276487
1060.000000	0.276619
1061.000000	0.277014
1062.000000	0.277331
1063.000000	0.277730
1064.000000	0.278009
1065.000000	0.278182
1066.000000	0.278225
1067.000000	0.278073
1068.000000	0.278077
1069.000000	0.277715
1070.000000	0.277904
1071.000000	0.278890
1072.000000	0.279169
1073.000000	0.279313
1074.000000	0.279514
1075.000000	0.279478
1076.000000	0.279817
1077.000000	0.280358
1078.000000	0.280933
1079.000000	0.281174
1080.000000	0.281015
1081.000000	0.281135
1082.000000	0.281252
1083.000000	0.281576
1084.000000	0.282431
1085.000000	0.282587
1086.000000	0.282280
1087.000000	0.282374
1088.000000	0.281935
1089.000000	0.282027
1090.000000	0.282843
1091.000000	0.283435
1092.000000	0.283620
1093.000000	0.283917
1094.000000	0.283807
1095.000000	0.282908
1096.000000	0.283115
1097.000000	0.283693
1098.000000	0.284052
1099.000000	0.285053
1100.000000	0.285367
1101.000000	0.284876
1102.000000	0.285002
1103.000000	0.285162
1104.000000	0.285485
1105.000000	0.286292
1106.000000	0.286707
1107.000000	0.286999
1108.000000	0.287171
1109.000000	0.287070
1110.000000	0.287083
1111.000000	0.287179
1112.000000	0.287266
1113.000000	0.287480
1114.000000	0.287893
1115.000000	0.288132
1116.000000	0.288356
1117.000000	0.288573
1118.000000	0.288686
1119.000000	0.288842
1120.000000	0.289095
1121.000000	0.289230
1122.000000	0.289402
1123.000000	0.289676
1124.000000	0.289714
1125.000000	0.289810
1126.000000	0.289756
1127.000000	0.289843
1128.000000	0.289986
1129.000000	0.290190
1130.000000	0.290449
1131.000000	0.290997
1132.000000	0.291061
1133.000000	0.290807
1134.000000	0.291002
1135.000000	0.291169
1136.000000	0.291316
1137.000000	0.291876
1138.000000	0.292006
1139.000000	0.291746
1140.000000	0.291815
1141.000000	0.291836
1142.000000	0.291981
1143.000000	0.292328
1144.000000	0.292613
1145.000000	0.292688
1146.000000	0.292868
1147.000000	0.292903
1148.000000	0.292723
1149.000000	0.292699
1150.000000	0.292615
1151.000000	0.292759
1152.000000	0.293063
1153.000000	0.293205
1154.000000	0.293386
1155.000000	0.293500
1156.000000	0.293500
1157.000000	0.293493
1158.000000	0.293408
1159.000000	0.293402
1160.000000	0.293354
1161.000000	0.293336
1162.000000	0.293465
1163.000000	0.293681
1164.000000	0.293720
1165.000000	0.293636
1166.000000	0.293664
1167.000000	0.293663
1168.000000	0.293608
1169.000000	0.293530
1170.000000	0.293606
1171.000000	0.293814
1172.000000	0.293856
1173.000000	0.293881
1174.000000	0.293923
1175.000000	0.293793
1176.000000	0.293711
1177.000000	0.293824
1178.000000	0.293868
1179.000000	0.293788
1180.000000	0.293738
1181.000000	0.293836
1182.000000	0.293881
1183.000000	0.293815
1184.000000	0.293800
1185.000000	0.293832
1186.000000	0.293839
1187.000000	0.293864
1188.000000	0.293963
1189.000000	0.294034
1190.000000	0.294108
1191.000000	0.294185
1192.000000	0.294443
1193.000000	0.294630
1194.000000	0.294676
1195.000000	0.294685
1196.000000	0.294506
1197.000000	0.294501
1198.000000	0.294539
1199.000000	0.294585
1200.000000	0.294785
1201.000000	0.294901
1202.000000	0.294773
1203.000000	0.294828
1204.000000	0.294769
1205.000000	0.294602
1206.000000	0.294507
1207.000000	0.294506
1208.000000	0.294438
1209.000000	0.294435
1210.000000	0.294436
1211.000000	0.294398
1212.000000	0.294410
1213.000000	0.294559
1214.000000	0.294570
1215.000000	0.294485
1216.000000	0.294469
1217.000000	0.294341
1218.000000	0.294321
1219.000000	0.294434
1220.000000	0.294555
1221.000000	0.294682
1222.000000	0.294779
1223.000000	0.294825
1224.000000	0.294993
1225.000000	0.295120
1226.000000	0.295159
1227.000000	0.295148
1228.000000	0.295075
1229.000000	0.294999
1230.000000	0.294819
1231.000000	0.294706
1232.000000	0.294772
1233.000000	0.294799
1234.000000	0.294790
1235.000000	0.294777
1236.000000	0.294702
1237.000000	0.294638
1238.000000	0.294459
1239.000000	0.294393
1240.000000	0.294410
1241.000000	0.294308
1242.000000	0.294322
1243.000000	0.294433
1244.000000	0.294396
1245.000000	0.294502
1246.000000	0.294444
1247.000000	0.294277
1248.000000	0.294471
1249.000000	0.294694
1250.000000	0.294808
1251.000000	0.295071
1252.000000	0.295149
1253.000000	0.295008
1254.000000	0.294899
1255.000000	0.294740
1256.000000	0.294701
1257.000000	0.294670
1258.000000	0.294699
1259.000000	0.294856
1260.000000	0.294868
1261.000000	0.294694
1262.000000	0.294623
1263.000000	0.294488
1264.000000	0.294546
1265.000000	0.294663
1266.000000	0.294603
1267.000000	0.294659
1268.000000	0.294670
1269.000000	0.294649
1270.000000	0.294673
1271.000000	0.294652
1272.000000	0.294770
1273.000000	0.294813
1274.000000	0.294871
1275.000000	0.294840
1276.000000	0.294652
1277.000000	0.294695
1278.000000	0.294735
1279.000000	0.294742
1280.000000	0.294885
1281.000000	0.294881
1282.000000	0.294723
1283.000000	0.294730
1284.000000	0.294710
1285.000000	0.294657
1286.000000	0.294524
1287.000000	0.294644
1288.000000	0.294702
1289.000000	0.294724
1290.000000	0.294773
1291.000000	0.294760
1292.000000	0.294776
1293.000000	0.294822
1294.000000	0.294796
1295.000000	0.294857
1296.000000	0.294803
1297.000000	0.294672
1298.000000	0.294709
1299.000000	0.294671
1300.000000	0.294735
1301.000000	0.294797
1302.000000	0.294749
1303.000000	0.294690
1304.000000	0.294737
1305.000000	0.294963
1306.000000	0.294976
1307.000000	0.294969
1308.000000	0.295000
1309.000000	0.294895
1310.000000	0.294855
1311.000000	0.294941
1312.000000	0.294973
1313.000000	0.295040
1314.000000	0.294988
1315.000000	0.294964
1316.000000	0.295222
1317.000000	0.295285
1318.000000	0.295149
1319.000000	0.295061
1320.000000	0.294901
1321.000000	0.294688
1322.000000	0.294588
1323.000000	0.294564
1324.000000	0.294702
1325.000000	0.294842
1326.000000	0.294897
1327.000000	0.294856
1328.000000	0.294683
1329.000000	0.294496
1330.000000	0.294183
1331.000000	0.293991
1332.000000	0.293886
1333.000000	0.293835
1334.000000	0.293899
1335.000000	0.294055
1336.000000	0.294286
1337.000000	0.294410
1338.000000	0.294543
1339.000000	0.294585
1340.000000	0.294432
1341.000000	0.294492
1342.000000	0.294622
1343.000000	0.294601
1344.000000	0.294668
1345.000000	0.294748
1346.000000	0.294599
1347.000000	0.294389
1348.000000	0.294347
1349.000000	0.294156
1350.000000	0.294164
1351.000000	0.294326
1352.000000	0.294355
1353.000000	0.294378
1354.000000	0.294442
1355.000000	0.294358
1356.000000	0.294220
1357.000000	0.294099
1358.000000	0.293954
1359.000000	0.293807
1360.000000	0.293659
1361.000000	0.293513
1362.000000	0.293468
1363.000000	0.293463
1364.000000	0.293447
1365.000000	0.293570
1366.000000	0.293618
1367.000000	0.293600
1368.000000	0.293478
1369.000000	0.293556
1370.000000	0.293358
1371.000000	0.293122
1372.000000	0.292912
1373.000000	0.292690
1374.000000	0.292747
1375.000000	0.292817
1376.000000	0.293044
1377.000000	0.293342
1378.000000	0.293424
1379.000000	0.293426
1380.000000	0.293393
1381.000000	0.293303
1382.000000	0.293276
1383.000000	0.293416
1384.000000	0.293380
1385.000000	0.293151
1386.000000	0.292943
1387.000000	0.292765
1388.000000	0.292671
1389.000000	0.292661
1390.000000	0.292694
1391.000000	0.292674
1392.000000	0.292714
1393.000000	0.292674
1394.000000	0.292759
1395.000000	0.292705
1396.000000	0.292420
1397.000000	0.292220
1398.000000	0.291996
1399.000000	0.291818
1400.000000	0.291671
1401.000000	0.291527
1402.000000	0.291488
1403.000000	0.291290
1404.000000	0.291123
1405.000000	0.290962
1406.000000	0.290675
1407.000000	0.290540
1408.000000	0.290439
1409.000000	0.290357
1410.000000	0.290343
1411.000000	0.290263
1412.000000	0.290103
1413.000000	0.289972
1414.000000	0.289971
1415.000000	0.289984
1416.000000	0.289914
1417.000000	0.289976
1418.000000	0.289960
1419.000000	0.289909
1420.000000	0.289989
1421.000000	0.290018
1422.000000	0.290061
1423.000000	0.290249
1424.000000	0.290205
1425.000000	0.290189
1426.000000	0.290249
1427.000000	0.290211
1428.000000	0.290127
1429.000000	0.290090
1430.000000	0.290115
1431.000000	0.290141
1432.000000	0.290182
1433.000000	0.290389
1434.000000	0.290538
1435.000000	0.290723
1436.000000	0.290854
1437.000000	0.291017
1438.000000	0.291049
1439.000000	0.290967
1440.000000	0.290978
1441.000000	0.291029
1442.000000	0.291077
1443.000000	0.291085
1444.000000	0.291092
1445.000000	0.291152
1446.000000	0.291217
1447.000000	0.291199
1448.000000	0.291262
1449.000000	0.291342
1450.000000	0.291369
1451.000000	0.291551
1452.000000	0.291762
1453.000000	0.291905
1454.000000	0.291908
1455.000000	0.291962
1456.000000	0.292109
1457.000000	0.292159
1458.000000	0.292278
1459.000000	0.292313
1460.000000	0.292175
1461.000000	0.292089
1462.000000	0.292090
1463.000000	0.292071
1464.000000	0.292024
1465.000000	0.291969
1466.000000	0.291872
1467.000000	0.291837
1468.000000	0.291912
1469.000000	0.292006
1470.000000	0.291940
1471.000000	0.291945
1472.000000	0.292069
1473.000000	0.292282
1474.000000	0.292423
1475.000000	0.292449
1476.000000	0.292386
1477.000000	0.292322
1478.000000	0.292325
1479.000000	0.292377
1480.000000	0.292453
1481.000000	0.292437
1482.000000	0.292351
1483.000000	0.292382
1484.000000	0.292469
1485.000000	0.292452
1486.000000	0.292413
1487.000000	0.292403
1488.000000	0.292316
1489.000000	0.292306
1490.000000	0.292342
1491.000000	0.292299
1492.000000	0.292109
1493.000000	0.292072
1494.000000	0.291982
1495.000000	0.291957
1496.000000	0.292097
1497.000000	0.292159
1498.000000	0.292211
1499.000000	0.292261
1500.000000	0.292363
1501.000000	0.292422
1502.000000	0.292443
1503.000000	0.292561
1504.000000	0.292574
1505.000000	0.292510
1506.000000	0.292513
1507.000000	0.292469
1508.000000	0.292523
1509.000000	0.292582
1510.000000	0.292609
1511.000000	0.292614
1512.000000	0.292517
1513.000000	0.292529
1514.000000	0.292622
1515.000000	0.292669
1516.000000	0.292746
1517.000000	0.292777
1518.000000	0.292734
1519.000000	0.292607
1520.000000	0.292598
1521.000000	0.292627
1522.000000	0.292635
1523.000000	0.292714
1524.000000	0.292730
1525.000000	0.292676
1526.000000	0.292584
1527.000000	0.292540
1528.000000	0.292559
1529.000000	0.292592
1530.000000	0.292541
1531.000000	0.292497
1532.000000	0.292492
1533.000000	0.292391
1534.000000	0.292299
1535.000000	0.292312
1536.000000	0.292245
1537.000000	0.292239
1538.000000	0.292225
1539.000000	0.292164
1540.000000	0.292242
1541.000000	0.292284
1542.000000	0.292356
1543.000000	0.292458
1544.000000	0.292342
1545.000000	0.292325
1546.000000	0.292392
1547.000000	0.292502
1548.000000	0.292792
1549.000000	0.292932
1550.000000	0.292945
1551.000000	0.292888
1552.000000	0.292764
1553.000000	0.292746
1554.000000	0.292721
1555.000000	0.292664
1556.000000	0.292547
1557.000000	0.292342
1558.000000	0.292312
1559.000000	0.292328
1560.000000	0.292323
1561.000000	0.292476
1562.000000	0.292467
1563.000000	0.292410
1564.000000	0.292393
1565.000000	0.292343
1566.000000	0.292231
1567.000000	0.292160
1568.000000	0.292072
1569.000000	0.292037
1570.000000	0.291979
1571.000000	0.291901
1572.000000	0.291844
1573.000000	0.291790
1574.000000	0.291708
1575.000000	0.291629
1576.000000	0.291601
1577.000000	0.291556
1578.000000	0.291513
1579.000000	0.291587
1580.000000	0.291639
1581.000000	0.291740
1582.000000	0.291781
1583.000000	0.291813
1584.000000	0.291751
1585.000000	0.291661
1586.000000	0.291636
1587.000000	0.291609
1588.000000	0.291645
1589.000000	0.291764
1590.000000	0.291754
1591.000000	0.291753
1592.000000	0.291728
1593.000000	0.291628
1594.000000	0.291569
1595.000000	0.291550
1596.000000	0.291576
1597.000000	0.291677
1598.000000	0.291731
1599.000000	0.291862
1600.000000	0.291834
1601.000000	0.291718
1602.000000	0.291724
1603.000000	0.291823
1604.000000	0.291789
1605.000000	0.291771
1606.000000	0.291754
1607.000000	0.291649
1608.000000	0.291619
1609.000000	0.291776
1610.000000	0.291764
1611.000000	0.291648
1612.000000	0.291622
1613.000000	0.291708
1614.000000	0.291668
1615.000000	0.291650
1616.000000	0.291676
1617.000000	0.291628
1618.000000	0.291578
1619.000000	0.291538
1620.000000	0.291515
1621.000000	0.291420
1622.000000	0.291532
1623.000000	0.291838
1624.000000	0.291959
1625.000000	0.291969
1626.000000	0.291922
1627.000000	0.291719
1628.000000	0.291693
1629.000000	0.291677
1630.000000	0.291761
1631.000000	0.291936
1632.000000	0.291993
1633.000000	0.292140
1634.000000	0.292154
1635.000000	0.292035
1636.000000	0.292000
1637.000000	0.291987
1638.000000	0.291907
1639.000000	0.291836
1640.000000	0.291799
1641.000000	0.291846
1642.000000	0.291773
1643.000000	0.291750
1644.000000	0.291644
1645.000000	0.291312
1646.000000	0.291156
1647.000000	0.291143
1648.000000	0.291065
1649.000000	0.291120
1650.000000	0.291072
1651.000000	0.290995
1652.000000	0.290937
1653.000000	0.290762
1654.000000	0.290762
1655.000000	0.290810
1656.000000	0.290715
1657.000000	0.290698
1658.000000	0.290703
1659.000000	0.290735
1660.000000	0.290769
1661.000000	0.290824
1662.000000	0.290794
1663.000000	0.290646
1664.000000	0.290565
1665.000000	0.290459
1666.000000	0.290548
1667.000000	0.290632
1668.000000	0.290686
1669.000000	0.290870
1670.000000	0.290823
1671.000000	0.290733
1672.000000	0.290764
1673.000000	0.290706
1674.000000	0.290850
1675.000000	0.290967
1676.000000	0.291066
1677.000000	0.291153
1678.000000	0.291143
1679.000000	0.291120
1680.000000	0.291065
1681.000000	0.291057
1682.000000	0.291014
1683.000000	0.291013
1684.000000	0.291048
1685.000000	0.291028
1686.000000	0.290979
1687.000000	0.290817
1688.000000	0.290597
1689.000000	0.290579
1690.000000	0.290686
1691.000000	0.290896
1692.000000	0.290880
1693.000000	0.290781
1694.000000	0.290668
1695.000000	0.290558
1696.000000	0.290703
1697.000000	0.290663
1698.000000	0.290560
1699.000000	0.290502
1700.000000	0.290329
1701.000000	0.290326
1702.000000	0.290328
1703.000000	0.290249
1704.000000	0.290217
1705.000000	0.290243
1706.000000	0.290314
1707.000000	0.290358
1708.000000	0.290421
1709.000000	0.290433
1710.000000	0.290531
1711.000000	0.290520
1712.000000	0.290487
1713.000000	0.290426
1714.000000	0.290240
1715.000000	0.290165
1716.000000	0.290239
1717.000000	0.290163
1718.000000	0.289919
1719.000000	0.289857
1720.000000	0.289829
1721.000000	0.289861
1722.000000	0.290225
1723.000000	0.290235
1724.000000	0.290017
1725.000000	0.289971
1726.000000	0.289765
1727.000000	0.289614
1728.000000	0.289565
1729.000000	0.289361
1730.000000	0.289072
1731.000000	0.288997
1732.000000	0.289047
1733.000000	0.289070
1734.000000	0.289073
1735.000000	0.289048
1736.000000	0.288937
1737.000000	0.288866
1738.000000	0.288815
1739.000000	0.288834
1740.000000	0.288878
1741.000000	0.288856
1742.000000	0.288847
1743.000000	0.288982
1744.000000	0.289092
1745.000000	0.289219
1746.000000	0.289511
1747.000000	0.289475
1748.000000	0.289495
1749.000000	0.289617
1750.000000	0.289618
1751.000000	0.289653
1752.000000	0.289810
1753.000000	0.289893
1754.000000	0.289887
1755.000000	0.289793
1756.000000	0.289788
1757.000000	0.289672
1758.000000	0.289695
1759.000000	0.289959
1760.000000	0.290072
1761.000000	0.290085
1762.000000	0.290116
1763.000000	0.290148
1764.000000	0.290141
1765.000000	0.290020
1766.000000	0.290061
1767.000000	0.290144
1768.000000	0.290060
1769.000000	0.290075
1770.000000	0.290097
1771.000000	0.289899
1772.000000	0.289856
1773.000000	0.289918
1774.000000	0.289942
1775.000000	0.290052
1776.000000	0.290037
1777.000000	0.290007
1778.000000	0.289841
1779.000000	0.289396
1780.000000	0.289339
1781.000000	0.289374
1782.000000	0.289367
1783.000000	0.289626
1784.000000	0.289529
1785.000000	0.289404
1786.000000	0.289272
1787.000000	0.289183
1788.000000	0.289138
1789.000000	0.289032
1790.000000	0.289445
1791.000000	0.289387
1792.000000	0.289148
1793.000000	0.288970
1794.000000	0.288354
1795.000000	0.288118
1796.000000	0.288318
1797.000000	0.288297
1798.000000	0.288226
1799.000000	0.288221
1800.000000	0.288137
1801.000000	0.287638
1802.000000	0.287969
1803.000000	0.288977
1804.000000	0.289415
1805.000000	0.290137
1806.000000	0.290408
1807.000000	0.290412
1808.000000	0.290161
1809.000000	0.289512
1810.000000	0.288817
1811.000000	0.288610
1812.000000	0.288035
1813.000000	0.288394
1814.000000	0.289873
1815.000000	0.290752
1816.000000	0.292628
1817.000000	0.292778
1818.000000	0.292313
1819.000000	0.290979
1820.000000	0.289381
1821.000000	0.288239
1822.000000	0.287766
1823.000000	0.288530
1824.000000	0.288179
1825.000000	0.287111
1826.000000	0.287088
1827.000000	0.286893
1828.000000	0.287335
1829.000000	0.288352
1830.000000	0.289018
1831.000000	0.289177
1832.000000	0.288325
1833.000000	0.288167
1834.000000	0.288306
1835.000000	0.288309
1836.000000	0.288273
1837.000000	0.288453
1838.000000	0.288948
1839.000000	0.288229
1840.000000	0.288011
1841.000000	0.288769
1842.000000	0.289059
1843.000000	0.289304
1844.000000	0.289539
1845.000000	0.289733
1846.000000	0.289646
1847.000000	0.288897
1848.000000	0.289014
1849.000000	0.288790
1850.000000	0.288844
1851.000000	0.289131
1852.000000	0.289956
1853.000000	0.290243
1854.000000	0.290171
1855.000000	0.290142
1856.000000	0.290122
1857.000000	0.289571
1858.000000	0.288882
1859.000000	0.288784
1860.000000	0.287694
1861.000000	0.286794
1862.000000	0.286404
1863.000000	0.285901
1864.000000	0.286101
1865.000000	0.287269
1866.000000	0.288089
1867.000000	0.289234
1868.000000	0.290589
1869.000000	0.290540
1870.000000	0.290352
1871.000000	0.289383
1872.000000	0.287652
1873.000000	0.286912
1874.000000	0.286627
1875.000000	0.286372
1876.000000	0.286258
1877.000000	0.286024
1878.000000	0.285705
1879.000000	0.285107
1880.000000	0.284550
1881.000000	0.284645
1882.000000	0.284895
1883.000000	0.285302
1884.000000	0.285599
1885.000000	0.285844
1886.000000	0.285467
1887.000000	0.284809
1888.000000	0.283984
1889.000000	0.282544
1890.000000	0.282722
1891.000000	0.282812
1892.000000	0.282251
1893.000000	0.282362
1894.000000	0.281677
1895.000000	0.281061
1896.000000	0.280569
1897.000000	0.280561
1898.000000	0.279218
1899.000000	0.278122
1900.000000	0.277739
1901.000000	0.277131
1902.000000	0.277210
1903.000000	0.277846
1904.000000	0.277768
1905.000000	0.277435
1906.000000	0.277102
1907.000000	0.276628
1908.000000	0.276016
1909.000000	0.275844
1910.000000	0.275941
1911.000000	0.276376
1912.000000	0.277209
1913.000000	0.277918
1914.000000	0.278178
1915.000000	0.278257
1916.000000	0.278778
1917.000000	0.279004
1918.000000	0.279226
1919.000000	0.279786
1920.000000	0.280210
1921.000000	0.279756
1922.000000	0.279618
1923.000000	0.279541
1924.000000	0.279590
1925.000000	0.280213
1926.000000	0.280408
1927.000000	0.280236
1928.000000	0.280152
1929.000000	0.279838
1930.000000	0.279648
1931.000000	0.279954
1932.000000	0.280451
1933.000000	0.281248
1934.000000	0.281737
1935.000000	0.281822
1936.000000	0.282454
1937.000000	0.282313
1938.000000	0.281290
1939.000000	0.280853
1940.000000	0.280489
1941.000000	0.279720
1942.000000	0.279421
1943.000000	0.279937
1944.000000	0.280025
1945.000000	0.280337
1946.000000	0.280824
1947.000000	0.281091
1948.000000	0.281254
1949.000000	0.280905
1950.000000	0.281018
1951.000000	0.281181
1952.000000	0.281652
1953.000000	0.281653
1954.000000	0.281966
1955.000000	0.281813
1956.000000	0.281571
1957.000000	0.281701
1958.000000	0.281583
1959.000000	0.281989
1960.000000	0.281816
1961.000000	0.281238
1962.000000	0.281213
1963.000000	0.281713
1964.000000	0.281735
1965.000000	0.281666
1966.000000	0.281954
1967.000000	0.281564
1968.000000	0.280734
1969.000000	0.280659
1970.000000	0.281200
1971.000000	0.281179
1972.000000	0.281125
1973.000000	0.280966
1974.000000	0.280203
1975.000000	0.279969
1976.000000	0.279914
1977.000000	0.280620
1978.000000	0.280944
1979.000000	0.280926
1980.000000	0.280783
1981.000000	0.280301
1982.000000	0.280365
1983.000000	0.280676
1984.000000	0.280665
1985.000000	0.280882
1986.000000	0.280827
1987.000000	0.280230
1988.000000	0.280315
1989.000000	0.281041
1990.000000	0.281372
1991.000000	0.282106
1992.000000	0.282288
1993.000000	0.281743
1994.000000	0.281598
1995.000000	0.281330
1996.000000	0.281288
1997.000000	0.281499
1998.000000	0.282099
1999.000000	0.282662
2000.000000	0.283561
2001.000000	0.284256
2002.000000	0.284793
2003.000000	0.284555
2004.000000	0.283647
2005.000000	0.282605
2006.000000	0.281508
2007.000000	0.280944
2008.000000	0.280704
2009.000000	0.281045
2010.000000	0.280987
2011.000000	0.281137
2012.000000	0.281027
2013.000000	0.280324
2014.000000	0.280179
2015.000000	0.280760
2016.000000	0.280374
2017.000000	0.280307
2018.000000	0.280434
2019.000000	0.280441
2020.000000	0.280556
2021.000000	0.280996
2022.000000	0.282289
2023.000000	0.282684
2024.000000	0.282897
2025.000000	0.283105
2026.000000	0.282942
2027.000000	0.282256
2028.000000	0.282101
2029.000000	0.282277
2030.000000	0.282446
2031.000000	0.282037
2032.000000	0.282194
2033.000000	0.282566
2034.000000	0.282457
2035.000000	0.282515
2036.000000	0.282411
2037.000000	0.281617
2038.000000	0.281492
2039.000000	0.281910
2040.000000	0.281949
2041.000000	0.282292
2042.000000	0.283049
2043.000000	0.282782
2044.000000	0.282636
2045.000000	0.282486
2046.000000	0.281603
2047.000000	0.281252
2048.000000	0.280931
2049.000000	0.281022
2050.000000	0.281149
2051.000000	0.281254
2052.000000	0.281587
2053.000000	0.281698
2054.000000	0.281955
2055.000000	0.282279
2056.000000	0.281959
2057.000000	0.281362
2058.000000	0.281303
2059.000000	0.281183
2060.000000	0.281369
2061.000000	0.282490
2062.000000	0.282884
2063.000000	0.283134
2064.000000	0.282833
2065.000000	0.282164
2066.000000	0.281787
2067.000000	0.281301
2068.000000	0.281111
2069.000000	0.281598
2070.000000	0.281854
2071.000000	0.281621
2072.000000	0.281900
2073.000000	0.282040
2074.000000	0.281831
2075.000000	0.281861
2076.000000	0.282040
2077.000000	0.281915
2078.000000	0.281785
2079.000000	0.281475
2080.000000	0.280757
2081.000000	0.280624
2082.000000	0.280628
2083.000000	0.280788
2084.000000	0.281291
2085.000000	0.281297
2086.000000	0.281425
2087.000000	0.281290
2088.000000	0.281300
2089.000000	0.281803
2090.000000	0.281855
2091.000000	0.281957
2092.000000	0.281909
2093.000000	0.281424
2094.000000	0.281104
2095.000000	0.280364
2096.000000	0.280449
2097.000000	0.280870
2098.000000	0.281772
2099.000000	0.282533
2100.000000	0.282977
2101.000000	0.282729
2102.000000	0.282319
2103.000000	0.282282
2104.000000	0.282350
2105.000000	0.282340
2106.000000	0.282463
2107.000000	0.282393
2108.000000	0.282184
2109.000000	0.281961
2110.000000	0.281337
2111.000000	0.280982
2112.000000	0.280586
2113.000000	0.280109
2114.000000	0.279976
2115.000000	0.279860
2116.000000	0.279827
2117.000000	0.280364
2118.000000	0.280766
2119.000000	0.281165
2120.000000	0.281195
2121.000000	0.280584
2122.000000	0.280641
2123.000000	0.280914
2124.000000	0.280844
2125.000000	0.281197
2126.000000	0.281052
2127.000000	0.279920
2128.000000	0.279792
2129.000000	0.279980
2130.000000	0.280446
2131.000000	0.280061
2132.000000	0.280140
2133.000000	0.281158
2134.000000	0.281108
2135.000000	0.281797
2136.000000	0.282378
2137.000000	0.282494
2138.000000	0.281827
2139.000000	0.281561
2140.000000	0.281156
2141.000000	0.281033
2142.000000	0.280610
2143.000000	0.280322
2144.000000	0.280887
2145.000000	0.281253
2146.000000	0.281602
2147.000000	0.282200
2148.000000	0.282666
2149.000000	0.283053
2150.000000	0.283252
2151.000000	0.283594
2152.000000	0.283217
2153.000000	0.282023
2154.000000	0.281949
2155.000000	0.282101
2156.000000	0.282117
2157.000000	0.283003
2158.000000	0.283344
2159.000000	0.283275
2160.000000	0.283325
2161.000000	0.283479
2162.000000	0.283619
2163.000000	0.283640
2164.000000	0.283048
2165.000000	0.281910
2166.000000	0.281186
2167.000000	0.280542
2168.000000	0.280234
2169.000000	0.280714
2170.000000	0.280912
2171.000000	0.280533
2172.000000	0.279470
2173.000000	0.278826
2174.000000	0.277407
2175.000000	0.277507
2176.000000	0.278795
2177.000000	0.279383
2178.000000	0.281243
2179.000000	0.281862
2180.000000	0.280854
2181.000000	0.280881
2182.000000	0.280645
2183.000000	0.280028
2184.000000	0.280048
2185.000000	0.279544
2186.000000	0.278764
2187.000000	0.278200
2188.000000	0.277771
2189.000000	0.277935
2190.000000	0.278939
2191.000000	0.280571
2192.000000	0.280448
2193.000000	0.279424
2194.000000	0.278613
2195.000000	0.275492
2196.000000	0.274943
2197.000000	0.277045
2198.000000	0.277323
2199.000000	0.278300
2200.000000	0.278104
2201.000000	0.275105
2202.000000	0.274104
2203.000000	0.273597
2204.000000	0.273321
2205.000000	0.274375
2206.000000	0.274800
2207.000000	0.274228
2208.000000	0.275628
2209.000000	0.277678
2210.000000	0.280193
2211.000000	0.284534
2212.000000	0.287218
2213.000000	0.286372
2214.000000	0.282032
2215.000000	0.279582
2216.000000	0.272884
2217.000000	0.271947
2218.000000	0.275300
2219.000000	0.276824
2220.000000	0.280863
2221.000000	0.282518
2222.000000	0.282622
2223.000000	0.282255
2224.000000	0.281065
2225.000000	0.279245
2226.000000	0.277712
2227.000000	0.277242
2228.000000	0.277433
2229.000000	0.277590
2230.000000	0.276678
2231.000000	0.275992
2232.000000	0.274736
2233.000000	0.274339
2234.000000	0.273915
2235.000000	0.274510
2236.000000	0.274733
2237.000000	0.274983
2238.000000	0.274905
2239.000000	0.273634
2240.000000	0.274367
2241.000000	0.277239
2242.000000	0.278373
2243.000000	0.281045
2244.000000	0.281256
2245.000000	0.277381
2246.000000	0.275901
2247.000000	0.274621
2248.000000	0.273698
2249.000000	0.273213
2250.000000	0.274700
2251.000000	0.275283
2252.000000	0.274226
2253.000000	0.275248
2254.000000	0.275310
2255.000000	0.274507
2256.000000	0.275291
2257.000000	0.274895
2258.000000	0.275644
2259.000000	0.277192
2260.000000	0.277470
2261.000000	0.277207
2262.000000	0.276480
2263.000000	0.274793
2264.000000	0.271063
2265.000000	0.270540
2266.000000	0.271310
2267.000000	0.271587
2268.000000	0.273955
2269.000000	0.274123
2270.000000	0.271645
2271.000000	0.271878
2272.000000	0.273208
2273.000000	0.273976
2274.000000	0.276281
2275.000000	0.276909
2276.000000	0.275818
2277.000000	0.275356
2278.000000	0.276355
2279.000000	0.276565
2280.000000	0.277791
2281.000000	0.277661
2282.000000	0.275585
2283.000000	0.274636
2284.000000	0.273178
2285.000000	0.272792
2286.000000	0.273236
2287.000000	0.273597
2288.000000	0.276390
2289.000000	0.278696
2290.000000	0.278219
2291.000000	0.278107
2292.000000	0.276912
2293.000000	0.274586
2294.000000	0.273396
2295.000000	0.273767
2296.000000	0.272892
2297.000000	0.270713
2298.000000	0.270683
2299.000000	0.272180
2300.000000	0.272450
2301.000000	0.273945
2302.000000	0.273446
2303.000000	0.269827
2304.000000	0.268760
2305.000000	0.268906
2306.000000	0.267718
2307.000000	0.266173
2308.000000	0.266737
2309.000000	0.264593
2310.000000	0.263601
2311.000000	0.266589
2312.000000	0.268514
2313.000000	0.272155
2314.000000	0.274269
2315.000000	0.273652
2316.000000	0.273821
2317.000000	0.271009
2318.000000	0.271202
2319.000000	0.272387
2320.000000	0.271068
2321.000000	0.272455
2322.000000	0.272099
2323.000000	0.272157
2324.000000	0.274223
2325.000000	0.275368
2326.000000	0.276981
2327.000000	0.277828
2328.000000	0.276366
2329.000000	0.274891
2330.000000	0.274852
2331.000000	0.273303
2332.000000	0.272708
2333.000000	0.275084
2334.000000	0.275749
2335.000000	0.276420
2336.000000	0.278352
2337.000000	0.277787
2338.000000	0.274187
2339.000000	0.272819
2340.000000	0.271852
2341.000000	0.271192
2342.000000	0.270654
2343.000000	0.270973
2344.000000	0.270952
2345.000000	0.272171
2346.000000	0.277701
2347.000000	0.278503
2348.000000	0.277999
2349.000000	0.274975
2350.000000	0.270035
2351.000000	0.270095
2352.000000	0.272682
2353.000000	0.276936
2354.000000	0.283144
2355.000000	0.282330
2356.000000	0.279612
2357.000000	0.279261
2358.000000	0.277370
2359.000000	0.275264
2360.000000	0.274985
2361.000000	0.276257
2362.000000	0.274686
2363.000000	0.274673
2364.000000	0.275327
2365.000000	0.272578
2366.000000	0.277103
2367.000000	0.282973
2368.000000	0.282556
2369.000000	0.283463
2370.000000	0.280441
2371.000000	0.275682
2372.000000	0.275729
2373.000000	0.274124
2374.000000	0.265837
2375.000000	0.259726
2376.000000	0.260747
2377.000000	0.260297
2378.000000	0.266867
2379.000000	0.275791
2380.000000	0.273417
2381.000000	0.274539
2382.000000	0.278313
2383.000000	0.275628
2384.000000	0.273411
2385.000000	0.273901
2386.000000	0.270565
2387.000000	0.264116
2388.000000	0.263261
2389.000000	0.263893
2390.000000	0.265328
2391.000000	0.266018
2392.000000	0.270296
2393.000000	0.278588
2394.000000	0.279746
2395.000000	0.284321
2396.000000	0.284235
2397.000000	0.275152
2398.000000	0.269292
2399.000000	0.267207
2400.000000	0.265076
2401.000000	0.259907
2402.000000	0.261160
2403.000000	0.266490
2404.000000	0.269701
2405.000000	0.273171
2406.000000	0.268792
2407.000000	0.255528
2408.000000	0.248728
2409.000000	0.248066
2410.000000	0.251632
2411.000000	0.261118
2412.000000	0.266478
2413.000000	0.268967
2414.000000	0.273158
2415.000000	0.276865
2416.000000	0.282002
2417.000000	0.287253
2418.000000	0.295264
2419.000000	0.300133
2420.000000	0.296837
2421.000000	0.292789
2422.000000	0.286585
2423.000000	0.281407
2424.000000	0.274785
2425.000000	0.271658
2426.000000	0.267646
2427.000000	0.263174
2428.000000	0.265722
2429.000000	0.263685
2430.000000	0.263283
2431.000000	0.259031
2432.000000	0.253397
2433.000000	0.257483
2434.000000	0.265737
2435.000000	0.268127
2436.000000	0.262177
2437.000000	0.263398
2438.000000	0.256962
2439.000000	0.248892
2440.000000	0.257446
2441.000000	0.250188
2442.000000	0.244999
2443.000000	0.259109
2444.000000	0.260625
2445.000000	0.267964
2446.000000	0.275901
2447.000000	0.264050
2448.000000	0.264661
2449.000000	0.268950
2450.000000	0.257276
2451.000000	0.249696
2452.000000	0.239631
2453.000000	0.224755
2454.000000	0.224115
2455.000000	0.225215
2456.000000	0.232556
2457.000000	0.252760
2458.000000	0.246953
2459.000000	0.239679
2460.000000	0.234885
2461.000000	0.216922
2462.000000	0.224382
2463.000000	0.243011
2464.000000	0.252560
2465.000000	0.254022
2466.000000	0.262900
2467.000000	0.261281
2468.000000	0.251789
2469.000000	0.243077
2470.000000	0.226537
2471.000000	0.225808
2472.000000	0.212872
2473.000000	0.228066
2474.000000	0.257530
2475.000000	0.255028
2476.000000	0.271394
2477.000000	0.267038
2478.000000	0.223067
2479.000000	0.179853
2480.000000	0.167330
2481.000000	0.157799
2482.000000	0.171280
2483.000000	0.210366
2484.000000	0.213424
2485.000000	0.201435
2486.000000	0.200129
2487.000000	0.210091
2488.000000	0.222090
2489.000000	0.250291
2490.000000	0.266214
2491.000000	0.322048
2492.000000	0.323664
2493.000000	0.306859
2494.000000	0.307961
2495.000000	0.251118
2496.000000	0.211381
2497.000000	0.181596
2498.000000	0.187665
2499.000000	0.219357
2500.000000	0.245567
