# Wavelength	NAu-1-10_HEX-20_FV7-70_00001.asd.rts.txt
350.000000	0.202593
351.000000	0.185762
352.000000	0.180452
353.000000	0.179136
354.000000	0.178964
355.000000	0.190736
356.000000	0.189241
357.000000	0.178482
358.000000	0.180896
359.000000	0.179011
360.000000	0.176074
361.000000	0.178324
362.000000	0.179918
363.000000	0.181429
364.000000	0.182601
365.000000	0.180913
366.000000	0.181061
367.000000	0.182705
368.000000	0.181748
369.000000	0.178067
370.000000	0.175481
371.000000	0.178010
372.000000	0.180348
373.000000	0.181623
374.000000	0.182090
375.000000	0.181808
376.000000	0.182676
377.000000	0.184634
378.000000	0.185922
379.000000	0.186877
380.000000	0.187419
381.000000	0.188035
382.000000	0.188112
383.000000	0.188283
384.000000	0.189393
385.000000	0.192430
386.000000	0.192633
387.000000	0.191106
388.000000	0.195385
389.000000	0.196066
390.000000	0.194466
391.000000	0.195093
392.000000	0.196903
393.000000	0.198142
394.000000	0.197936
395.000000	0.198294
396.000000	0.199684
397.000000	0.201328
398.000000	0.200767
399.000000	0.200369
400.000000	0.200555
401.000000	0.200896
402.000000	0.201692
403.000000	0.202856
404.000000	0.204148
405.000000	0.204245
406.000000	0.204264
407.000000	0.204767
408.000000	0.205301
409.000000	0.205192
410.000000	0.205002
411.000000	0.206008
412.000000	0.207746
413.000000	0.208868
414.000000	0.208378
415.000000	0.208055
416.000000	0.208301
417.000000	0.209044
418.000000	0.209538
419.000000	0.209927
420.000000	0.210252
421.000000	0.210463
422.000000	0.211279
423.000000	0.212069
424.000000	0.212006
425.000000	0.212094
426.000000	0.212237
427.000000	0.212287
428.000000	0.212456
429.000000	0.212535
430.000000	0.212651
431.000000	0.213501
432.000000	0.213600
433.000000	0.213211
434.000000	0.213481
435.000000	0.214060
436.000000	0.214395
437.000000	0.214112
438.000000	0.213949
439.000000	0.213955
440.000000	0.214181
441.000000	0.214524
442.000000	0.214706
443.000000	0.214717
444.000000	0.214890
445.000000	0.214988
446.000000	0.215076
447.000000	0.215170
448.000000	0.215596
449.000000	0.216060
450.000000	0.216385
451.000000	0.216829
452.000000	0.217475
453.000000	0.218252
454.000000	0.219128
455.000000	0.219766
456.000000	0.220171
457.000000	0.220398
458.000000	0.221241
459.000000	0.222223
460.000000	0.222851
461.000000	0.223313
462.000000	0.223826
463.000000	0.224335
464.000000	0.224769
465.000000	0.225207
466.000000	0.225639
467.000000	0.226128
468.000000	0.226661
469.000000	0.227061
470.000000	0.227302
471.000000	0.227464
472.000000	0.227590
473.000000	0.227769
474.000000	0.228159
475.000000	0.228412
476.000000	0.228590
477.000000	0.228892
478.000000	0.229144
479.000000	0.229432
480.000000	0.229634
481.000000	0.229967
482.000000	0.230263
483.000000	0.230268
484.000000	0.230819
485.000000	0.231250
486.000000	0.231432
487.000000	0.231716
488.000000	0.232057
489.000000	0.232481
490.000000	0.233025
491.000000	0.233111
492.000000	0.233163
493.000000	0.233623
494.000000	0.233885
495.000000	0.234137
496.000000	0.234515
497.000000	0.234975
498.000000	0.235330
499.000000	0.235585
500.000000	0.235782
501.000000	0.236093
502.000000	0.236500
503.000000	0.236819
504.000000	0.237171
505.000000	0.237521
506.000000	0.237827
507.000000	0.238121
508.000000	0.238504
509.000000	0.238950
510.000000	0.239284
511.000000	0.239662
512.000000	0.240109
513.000000	0.240496
514.000000	0.240969
515.000000	0.241444
516.000000	0.241725
517.000000	0.241910
518.000000	0.242340
519.000000	0.243048
520.000000	0.243362
521.000000	0.243616
522.000000	0.243980
523.000000	0.244361
524.000000	0.244727
525.000000	0.245082
526.000000	0.245497
527.000000	0.245939
528.000000	0.246360
529.000000	0.246771
530.000000	0.247184
531.000000	0.247558
532.000000	0.247839
533.000000	0.248298
534.000000	0.248722
535.000000	0.249068
536.000000	0.249496
537.000000	0.249915
538.000000	0.250294
539.000000	0.250621
540.000000	0.251025
541.000000	0.251449
542.000000	0.251848
543.000000	0.252163
544.000000	0.252548
545.000000	0.252994
546.000000	0.253405
547.000000	0.253896
548.000000	0.254453
549.000000	0.254883
550.000000	0.255302
551.000000	0.255700
552.000000	0.256009
553.000000	0.256421
554.000000	0.256850
555.000000	0.257245
556.000000	0.257739
557.000000	0.258127
558.000000	0.258492
559.000000	0.258955
560.000000	0.259343
561.000000	0.259716
562.000000	0.260106
563.000000	0.260513
564.000000	0.260951
565.000000	0.261325
566.000000	0.261673
567.000000	0.262042
568.000000	0.262448
569.000000	0.262941
570.000000	0.263297
571.000000	0.263516
572.000000	0.263822
573.000000	0.264188
574.000000	0.264565
575.000000	0.264949
576.000000	0.265335
577.000000	0.265675
578.000000	0.265997
579.000000	0.266322
580.000000	0.266655
581.000000	0.266970
582.000000	0.267180
583.000000	0.267462
584.000000	0.267794
585.000000	0.268041
586.000000	0.268241
587.000000	0.268507
588.000000	0.268917
589.000000	0.269206
590.000000	0.269445
591.000000	0.269693
592.000000	0.269882
593.000000	0.270112
594.000000	0.270394
595.000000	0.270662
596.000000	0.270837
597.000000	0.271004
598.000000	0.271211
599.000000	0.271334
600.000000	0.271479
601.000000	0.271662
602.000000	0.271785
603.000000	0.271881
604.000000	0.271999
605.000000	0.272200
606.000000	0.272329
607.000000	0.272408
608.000000	0.272572
609.000000	0.272798
610.000000	0.273011
611.000000	0.273145
612.000000	0.273354
613.000000	0.273549
614.000000	0.273689
615.000000	0.273756
616.000000	0.273848
617.000000	0.273968
618.000000	0.274114
619.000000	0.274273
620.000000	0.274410
621.000000	0.274539
622.000000	0.274593
623.000000	0.274627
624.000000	0.274710
625.000000	0.274930
626.000000	0.275057
627.000000	0.275062
628.000000	0.275247
629.000000	0.275450
630.000000	0.275539
631.000000	0.275649
632.000000	0.275827
633.000000	0.276039
634.000000	0.276223
635.000000	0.276438
636.000000	0.276672
637.000000	0.276890
638.000000	0.277080
639.000000	0.277222
640.000000	0.277375
641.000000	0.277523
642.000000	0.277676
643.000000	0.277871
644.000000	0.278130
645.000000	0.278278
646.000000	0.278342
647.000000	0.278371
648.000000	0.278520
649.000000	0.278710
650.000000	0.278886
651.000000	0.279084
652.000000	0.279255
653.000000	0.279440
654.000000	0.279638
655.000000	0.279784
656.000000	0.279951
657.000000	0.280146
658.000000	0.280306
659.000000	0.280475
660.000000	0.280671
661.000000	0.280929
662.000000	0.281121
663.000000	0.281277
664.000000	0.281415
665.000000	0.281509
666.000000	0.281609
667.000000	0.281739
668.000000	0.281893
669.000000	0.282061
670.000000	0.282238
671.000000	0.282400
672.000000	0.282609
673.000000	0.282839
674.000000	0.283009
675.000000	0.283194
676.000000	0.283389
677.000000	0.283584
678.000000	0.283802
679.000000	0.283978
680.000000	0.284096
681.000000	0.284240
682.000000	0.284397
683.000000	0.284531
684.000000	0.284804
685.000000	0.285002
686.000000	0.285163
687.000000	0.285356
688.000000	0.285589
689.000000	0.285791
690.000000	0.285942
691.000000	0.286053
692.000000	0.286183
693.000000	0.286411
694.000000	0.286672
695.000000	0.286896
696.000000	0.287124
697.000000	0.287429
698.000000	0.287621
699.000000	0.287758
700.000000	0.287930
701.000000	0.288163
702.000000	0.288419
703.000000	0.288649
704.000000	0.288832
705.000000	0.289038
706.000000	0.289233
707.000000	0.289427
708.000000	0.289640
709.000000	0.289859
710.000000	0.290080
711.000000	0.290239
712.000000	0.290371
713.000000	0.290535
714.000000	0.290788
715.000000	0.290999
716.000000	0.291157
717.000000	0.291284
718.000000	0.291425
719.000000	0.291623
720.000000	0.291884
721.000000	0.292063
722.000000	0.292161
723.000000	0.292261
724.000000	0.292380
725.000000	0.292528
726.000000	0.292736
727.000000	0.292884
728.000000	0.293078
729.000000	0.293275
730.000000	0.293388
731.000000	0.293513
732.000000	0.293646
733.000000	0.293821
734.000000	0.294010
735.000000	0.294171
736.000000	0.294383
737.000000	0.294530
738.000000	0.294620
739.000000	0.294755
740.000000	0.294848
741.000000	0.294965
742.000000	0.295077
743.000000	0.295192
744.000000	0.295451
745.000000	0.295541
746.000000	0.295565
747.000000	0.295656
748.000000	0.295747
749.000000	0.295852
750.000000	0.295962
751.000000	0.296132
752.000000	0.296283
753.000000	0.296382
754.000000	0.296406
755.000000	0.296515
756.000000	0.296637
757.000000	0.296637
758.000000	0.296771
759.000000	0.296970
760.000000	0.297112
761.000000	0.297278
762.000000	0.297431
763.000000	0.297537
764.000000	0.297636
765.000000	0.297654
766.000000	0.297653
767.000000	0.297696
768.000000	0.297748
769.000000	0.297808
770.000000	0.297871
771.000000	0.297897
772.000000	0.297946
773.000000	0.297956
774.000000	0.297955
775.000000	0.297991
776.000000	0.298040
777.000000	0.298056
778.000000	0.298016
779.000000	0.298042
780.000000	0.298128
781.000000	0.298129
782.000000	0.298189
783.000000	0.298299
784.000000	0.298268
785.000000	0.298323
786.000000	0.298360
787.000000	0.298321
788.000000	0.298300
789.000000	0.298284
790.000000	0.298233
791.000000	0.298145
792.000000	0.298147
793.000000	0.298194
794.000000	0.298234
795.000000	0.298287
796.000000	0.298300
797.000000	0.298279
798.000000	0.298294
799.000000	0.298232
800.000000	0.298152
801.000000	0.298147
802.000000	0.298183
803.000000	0.298165
804.000000	0.298124
805.000000	0.298228
806.000000	0.298163
807.000000	0.298067
808.000000	0.298135
809.000000	0.298202
810.000000	0.298204
811.000000	0.298125
812.000000	0.298099
813.000000	0.298014
814.000000	0.297886
815.000000	0.297861
816.000000	0.297747
817.000000	0.297630
818.000000	0.297564
819.000000	0.297621
820.000000	0.297648
821.000000	0.297550
822.000000	0.297472
823.000000	0.297455
824.000000	0.297413
825.000000	0.297344
826.000000	0.297286
827.000000	0.297231
828.000000	0.297216
829.000000	0.297240
830.000000	0.297227
831.000000	0.297203
832.000000	0.297094
833.000000	0.297026
834.000000	0.297048
835.000000	0.297145
836.000000	0.297030
837.000000	0.296896
838.000000	0.296832
839.000000	0.296791
840.000000	0.296610
841.000000	0.296437
842.000000	0.296364
843.000000	0.296168
844.000000	0.296037
845.000000	0.295992
846.000000	0.295947
847.000000	0.295927
848.000000	0.295893
849.000000	0.295821
850.000000	0.295648
851.000000	0.295482
852.000000	0.295419
853.000000	0.295426
854.000000	0.295295
855.000000	0.295158
856.000000	0.295061
857.000000	0.294986
858.000000	0.294981
859.000000	0.294972
860.000000	0.294921
861.000000	0.294809
862.000000	0.294687
863.000000	0.294549
864.000000	0.294376
865.000000	0.294259
866.000000	0.294244
867.000000	0.294214
868.000000	0.294110
869.000000	0.293934
870.000000	0.293821
871.000000	0.293625
872.000000	0.293488
873.000000	0.293414
874.000000	0.293317
875.000000	0.293182
876.000000	0.293019
877.000000	0.292793
878.000000	0.292582
879.000000	0.292399
880.000000	0.292171
881.000000	0.292157
882.000000	0.292160
883.000000	0.292076
884.000000	0.291808
885.000000	0.291587
886.000000	0.291337
887.000000	0.291066
888.000000	0.290912
889.000000	0.290767
890.000000	0.290512
891.000000	0.290272
892.000000	0.290198
893.000000	0.290085
894.000000	0.289955
895.000000	0.289858
896.000000	0.289702
897.000000	0.289452
898.000000	0.289143
899.000000	0.289050
900.000000	0.288943
901.000000	0.288717
902.000000	0.288613
903.000000	0.288438
904.000000	0.288231
905.000000	0.287986
906.000000	0.287783
907.000000	0.287625
908.000000	0.287472
909.000000	0.287080
910.000000	0.286889
911.000000	0.286774
912.000000	0.286558
913.000000	0.286300
914.000000	0.286061
915.000000	0.285862
916.000000	0.285551
917.000000	0.285468
918.000000	0.285420
919.000000	0.285241
920.000000	0.285201
921.000000	0.285025
922.000000	0.284739
923.000000	0.284494
924.000000	0.284278
925.000000	0.284060
926.000000	0.283843
927.000000	0.283595
928.000000	0.283353
929.000000	0.283114
930.000000	0.282859
931.000000	0.282562
932.000000	0.282291
933.000000	0.282054
934.000000	0.281699
935.000000	0.281577
936.000000	0.281505
937.000000	0.281207
938.000000	0.280963
939.000000	0.280699
940.000000	0.280446
941.000000	0.280391
942.000000	0.279999
943.000000	0.279754
944.000000	0.279761
945.000000	0.279614
946.000000	0.279408
947.000000	0.279191
948.000000	0.278946
949.000000	0.278711
950.000000	0.278602
951.000000	0.278450
952.000000	0.277955
953.000000	0.277473
954.000000	0.277384
955.000000	0.277656
956.000000	0.277535
957.000000	0.277205
958.000000	0.276793
959.000000	0.276529
960.000000	0.276398
961.000000	0.276255
962.000000	0.275986
963.000000	0.275592
964.000000	0.275609
965.000000	0.275645
966.000000	0.275266
967.000000	0.275061
968.000000	0.274783
969.000000	0.274460
970.000000	0.274345
971.000000	0.274322
972.000000	0.274258
973.000000	0.274052
974.000000	0.273829
975.000000	0.273544
976.000000	0.273261
977.000000	0.272977
978.000000	0.272419
979.000000	0.272285
980.000000	0.272286
981.000000	0.272217
982.000000	0.272421
983.000000	0.272431
984.000000	0.272197
985.000000	0.272014
986.000000	0.271751
987.000000	0.271670
988.000000	0.271701
989.000000	0.271262
990.000000	0.271061
991.000000	0.271006
992.000000	0.270830
993.000000	0.270661
994.000000	0.270529
995.000000	0.270494
996.000000	0.270320
997.000000	0.270613
998.000000	0.270670
999.000000	0.270311
1000.000000	0.270118
1001.000000	0.270855
1002.000000	0.270072
1003.000000	0.270173
1004.000000	0.270073
1005.000000	0.270850
1006.000000	0.271273
1007.000000	0.271565
1008.000000	0.271170
1009.000000	0.271488
1010.000000	0.271089
1011.000000	0.270110
1012.000000	0.269487
1013.000000	0.269250
1014.000000	0.269485
1015.000000	0.269731
1016.000000	0.270089
1017.000000	0.270429
1018.000000	0.270496
1019.000000	0.270332
1020.000000	0.270073
1021.000000	0.269729
1022.000000	0.269066
1023.000000	0.268984
1024.000000	0.268973
1025.000000	0.269637
1026.000000	0.270303
1027.000000	0.270626
1028.000000	0.271052
1029.000000	0.271343
1030.000000	0.271169
1031.000000	0.270901
1032.000000	0.270493
1033.000000	0.270158
1034.000000	0.270079
1035.000000	0.270109
1036.000000	0.270196
1037.000000	0.270725
1038.000000	0.270881
1039.000000	0.271034
1040.000000	0.270945
1041.000000	0.271263
1042.000000	0.271419
1043.000000	0.271077
1044.000000	0.271563
1045.000000	0.271657
1046.000000	0.271427
1047.000000	0.271629
1048.000000	0.272223
1049.000000	0.272270
1050.000000	0.272118
1051.000000	0.272111
1052.000000	0.272021
1053.000000	0.271920
1054.000000	0.271759
1055.000000	0.272030
1056.000000	0.272696
1057.000000	0.272993
1058.000000	0.272865
1059.000000	0.273240
1060.000000	0.273531
1061.000000	0.273236
1062.000000	0.273754
1063.000000	0.274767
1064.000000	0.275006
1065.000000	0.274724
1066.000000	0.274850
1067.000000	0.274696
1068.000000	0.274681
1069.000000	0.274859
1070.000000	0.274996
1071.000000	0.275036
1072.000000	0.275226
1073.000000	0.275549
1074.000000	0.276286
1075.000000	0.276195
1076.000000	0.276171
1077.000000	0.276404
1078.000000	0.276064
1079.000000	0.276096
1080.000000	0.276458
1081.000000	0.276740
1082.000000	0.277048
1083.000000	0.277384
1084.000000	0.277862
1085.000000	0.278316
1086.000000	0.278754
1087.000000	0.279131
1088.000000	0.279569
1089.000000	0.279830
1090.000000	0.279929
1091.000000	0.279824
1092.000000	0.279953
1093.000000	0.280215
1094.000000	0.280422
1095.000000	0.280689
1096.000000	0.280965
1097.000000	0.281240
1098.000000	0.281460
1099.000000	0.281705
1100.000000	0.281883
1101.000000	0.281817
1102.000000	0.281953
1103.000000	0.282054
1104.000000	0.282360
1105.000000	0.283006
1106.000000	0.283358
1107.000000	0.283692
1108.000000	0.283894
1109.000000	0.283782
1110.000000	0.283845
1111.000000	0.283979
1112.000000	0.284071
1113.000000	0.284470
1114.000000	0.285326
1115.000000	0.285536
1116.000000	0.285567
1117.000000	0.285732
1118.000000	0.285502
1119.000000	0.285531
1120.000000	0.285938
1121.000000	0.286136
1122.000000	0.286239
1123.000000	0.286569
1124.000000	0.286854
1125.000000	0.287078
1126.000000	0.287164
1127.000000	0.287329
1128.000000	0.287500
1129.000000	0.287682
1130.000000	0.287852
1131.000000	0.288111
1132.000000	0.288247
1133.000000	0.288262
1134.000000	0.288480
1135.000000	0.288822
1136.000000	0.288955
1137.000000	0.289066
1138.000000	0.289137
1139.000000	0.289153
1140.000000	0.289207
1141.000000	0.289131
1142.000000	0.289256
1143.000000	0.289436
1144.000000	0.289644
1145.000000	0.289792
1146.000000	0.289979
1147.000000	0.290169
1148.000000	0.290178
1149.000000	0.290314
1150.000000	0.290625
1151.000000	0.290802
1152.000000	0.290865
1153.000000	0.290941
1154.000000	0.290967
1155.000000	0.290985
1156.000000	0.290972
1157.000000	0.290977
1158.000000	0.290913
1159.000000	0.290901
1160.000000	0.290904
1161.000000	0.290891
1162.000000	0.290895
1163.000000	0.291105
1164.000000	0.291193
1165.000000	0.291222
1166.000000	0.291323
1167.000000	0.291458
1168.000000	0.291461
1169.000000	0.291397
1170.000000	0.291461
1171.000000	0.291553
1172.000000	0.291650
1173.000000	0.291825
1174.000000	0.291937
1175.000000	0.291951
1176.000000	0.291969
1177.000000	0.292057
1178.000000	0.292141
1179.000000	0.292238
1180.000000	0.292242
1181.000000	0.292240
1182.000000	0.292318
1183.000000	0.292414
1184.000000	0.292464
1185.000000	0.292514
1186.000000	0.292584
1187.000000	0.292636
1188.000000	0.292681
1189.000000	0.292635
1190.000000	0.292643
1191.000000	0.292596
1192.000000	0.292480
1193.000000	0.292506
1194.000000	0.292480
1195.000000	0.292469
1196.000000	0.292437
1197.000000	0.292461
1198.000000	0.292542
1199.000000	0.292594
1200.000000	0.292699
1201.000000	0.292702
1202.000000	0.292608
1203.000000	0.292780
1204.000000	0.292759
1205.000000	0.292695
1206.000000	0.292689
1207.000000	0.292774
1208.000000	0.292682
1209.000000	0.292575
1210.000000	0.292626
1211.000000	0.292656
1212.000000	0.292705
1213.000000	0.292996
1214.000000	0.293097
1215.000000	0.293004
1216.000000	0.292992
1217.000000	0.292967
1218.000000	0.292938
1219.000000	0.292929
1220.000000	0.292947
1221.000000	0.292956
1222.000000	0.292866
1223.000000	0.292855
1224.000000	0.293029
1225.000000	0.292943
1226.000000	0.292877
1227.000000	0.292985
1228.000000	0.292917
1229.000000	0.292852
1230.000000	0.292905
1231.000000	0.292837
1232.000000	0.292648
1233.000000	0.292687
1234.000000	0.292830
1235.000000	0.292902
1236.000000	0.292998
1237.000000	0.293053
1238.000000	0.293017
1239.000000	0.292976
1240.000000	0.292925
1241.000000	0.292774
1242.000000	0.292685
1243.000000	0.292744
1244.000000	0.292840
1245.000000	0.292945
1246.000000	0.293012
1247.000000	0.293166
1248.000000	0.293259
1249.000000	0.293261
1250.000000	0.293210
1251.000000	0.293125
1252.000000	0.293149
1253.000000	0.293347
1254.000000	0.293334
1255.000000	0.293250
1256.000000	0.293203
1257.000000	0.293046
1258.000000	0.292974
1259.000000	0.292934
1260.000000	0.292985
1261.000000	0.292987
1262.000000	0.292992
1263.000000	0.293123
1264.000000	0.293178
1265.000000	0.293128
1266.000000	0.293086
1267.000000	0.293095
1268.000000	0.293082
1269.000000	0.292989
1270.000000	0.293016
1271.000000	0.293037
1272.000000	0.293052
1273.000000	0.293053
1274.000000	0.292949
1275.000000	0.292949
1276.000000	0.292992
1277.000000	0.293006
1278.000000	0.293027
1279.000000	0.293001
1280.000000	0.292736
1281.000000	0.292678
1282.000000	0.292812
1283.000000	0.292905
1284.000000	0.293051
1285.000000	0.293097
1286.000000	0.293048
1287.000000	0.292999
1288.000000	0.292913
1289.000000	0.292707
1290.000000	0.292557
1291.000000	0.292505
1292.000000	0.292543
1293.000000	0.292690
1294.000000	0.292786
1295.000000	0.292844
1296.000000	0.292929
1297.000000	0.292973
1298.000000	0.293042
1299.000000	0.293031
1300.000000	0.293028
1301.000000	0.293081
1302.000000	0.293065
1303.000000	0.293187
1304.000000	0.293185
1305.000000	0.293145
1306.000000	0.293112
1307.000000	0.293121
1308.000000	0.293135
1309.000000	0.293160
1310.000000	0.293163
1311.000000	0.293172
1312.000000	0.293125
1313.000000	0.293158
1314.000000	0.293107
1315.000000	0.293016
1316.000000	0.292987
1317.000000	0.292845
1318.000000	0.292699
1319.000000	0.292656
1320.000000	0.292608
1321.000000	0.292553
1322.000000	0.292596
1323.000000	0.292615
1324.000000	0.292614
1325.000000	0.292547
1326.000000	0.292398
1327.000000	0.292266
1328.000000	0.292268
1329.000000	0.292213
1330.000000	0.292178
1331.000000	0.292158
1332.000000	0.292227
1333.000000	0.292166
1334.000000	0.292174
1335.000000	0.292117
1336.000000	0.291893
1337.000000	0.291776
1338.000000	0.291665
1339.000000	0.291402
1340.000000	0.291289
1341.000000	0.291312
1342.000000	0.291291
1343.000000	0.291344
1344.000000	0.291415
1345.000000	0.291383
1346.000000	0.291361
1347.000000	0.291243
1348.000000	0.291153
1349.000000	0.291118
1350.000000	0.291103
1351.000000	0.291153
1352.000000	0.291304
1353.000000	0.291331
1354.000000	0.291379
1355.000000	0.291460
1356.000000	0.291407
1357.000000	0.291309
1358.000000	0.291242
1359.000000	0.291111
1360.000000	0.291070
1361.000000	0.291215
1362.000000	0.291190
1363.000000	0.291061
1364.000000	0.291043
1365.000000	0.290977
1366.000000	0.290882
1367.000000	0.290826
1368.000000	0.290761
1369.000000	0.290771
1370.000000	0.290642
1371.000000	0.290394
1372.000000	0.290279
1373.000000	0.290117
1374.000000	0.289934
1375.000000	0.289906
1376.000000	0.289976
1377.000000	0.290008
1378.000000	0.290078
1379.000000	0.290041
1380.000000	0.290037
1381.000000	0.290122
1382.000000	0.290038
1383.000000	0.290062
1384.000000	0.290003
1385.000000	0.289700
1386.000000	0.289469
1387.000000	0.289201
1388.000000	0.288933
1389.000000	0.288780
1390.000000	0.288616
1391.000000	0.288375
1392.000000	0.288262
1393.000000	0.288084
1394.000000	0.287851
1395.000000	0.287651
1396.000000	0.287499
1397.000000	0.287255
1398.000000	0.286954
1399.000000	0.286629
1400.000000	0.286182
1401.000000	0.285844
1402.000000	0.285528
1403.000000	0.285320
1404.000000	0.285218
1405.000000	0.285157
1406.000000	0.285036
1407.000000	0.284819
1408.000000	0.284476
1409.000000	0.284189
1410.000000	0.283967
1411.000000	0.283653
1412.000000	0.283268
1413.000000	0.282972
1414.000000	0.282835
1415.000000	0.282616
1416.000000	0.282425
1417.000000	0.282284
1418.000000	0.281871
1419.000000	0.281558
1420.000000	0.281369
1421.000000	0.281253
1422.000000	0.281221
1423.000000	0.281243
1424.000000	0.281177
1425.000000	0.281004
1426.000000	0.280659
1427.000000	0.280411
1428.000000	0.280232
1429.000000	0.280079
1430.000000	0.280136
1431.000000	0.280103
1432.000000	0.280021
1433.000000	0.280012
1434.000000	0.279896
1435.000000	0.279666
1436.000000	0.279599
1437.000000	0.279542
1438.000000	0.279445
1439.000000	0.279466
1440.000000	0.279481
1441.000000	0.279461
1442.000000	0.279527
1443.000000	0.279617
1444.000000	0.279719
1445.000000	0.279769
1446.000000	0.279747
1447.000000	0.279670
1448.000000	0.279592
1449.000000	0.279557
1450.000000	0.279521
1451.000000	0.279597
1452.000000	0.279585
1453.000000	0.279446
1454.000000	0.279436
1455.000000	0.279424
1456.000000	0.279475
1457.000000	0.279624
1458.000000	0.279658
1459.000000	0.279627
1460.000000	0.279623
1461.000000	0.279621
1462.000000	0.279558
1463.000000	0.279374
1464.000000	0.279216
1465.000000	0.279122
1466.000000	0.278999
1467.000000	0.278936
1468.000000	0.278922
1469.000000	0.279010
1470.000000	0.279066
1471.000000	0.279112
1472.000000	0.279196
1473.000000	0.279255
1474.000000	0.279221
1475.000000	0.279300
1476.000000	0.279331
1477.000000	0.279265
1478.000000	0.279331
1479.000000	0.279377
1480.000000	0.279444
1481.000000	0.279548
1482.000000	0.279803
1483.000000	0.279899
1484.000000	0.279925
1485.000000	0.279989
1486.000000	0.279958
1487.000000	0.279968
1488.000000	0.280059
1489.000000	0.280203
1490.000000	0.280216
1491.000000	0.280323
1492.000000	0.280530
1493.000000	0.280634
1494.000000	0.280614
1495.000000	0.280723
1496.000000	0.280866
1497.000000	0.280998
1498.000000	0.281193
1499.000000	0.281413
1500.000000	0.281526
1501.000000	0.281514
1502.000000	0.281550
1503.000000	0.281551
1504.000000	0.281451
1505.000000	0.281520
1506.000000	0.281606
1507.000000	0.281540
1508.000000	0.281621
1509.000000	0.281781
1510.000000	0.281856
1511.000000	0.281977
1512.000000	0.282123
1513.000000	0.282102
1514.000000	0.282006
1515.000000	0.282011
1516.000000	0.282083
1517.000000	0.282143
1518.000000	0.282237
1519.000000	0.282231
1520.000000	0.282259
1521.000000	0.282293
1522.000000	0.282359
1523.000000	0.282459
1524.000000	0.282403
1525.000000	0.282432
1526.000000	0.282485
1527.000000	0.282511
1528.000000	0.282616
1529.000000	0.282639
1530.000000	0.282523
1531.000000	0.282523
1532.000000	0.282594
1533.000000	0.282622
1534.000000	0.282722
1535.000000	0.282825
1536.000000	0.282879
1537.000000	0.282916
1538.000000	0.282937
1539.000000	0.283048
1540.000000	0.283090
1541.000000	0.283099
1542.000000	0.283159
1543.000000	0.283156
1544.000000	0.283177
1545.000000	0.283343
1546.000000	0.283466
1547.000000	0.283485
1548.000000	0.283559
1549.000000	0.283586
1550.000000	0.283520
1551.000000	0.283526
1552.000000	0.283586
1553.000000	0.283595
1554.000000	0.283630
1555.000000	0.283670
1556.000000	0.283573
1557.000000	0.283509
1558.000000	0.283491
1559.000000	0.283422
1560.000000	0.283395
1561.000000	0.283477
1562.000000	0.283465
1563.000000	0.283493
1564.000000	0.283508
1565.000000	0.283456
1566.000000	0.283377
1567.000000	0.283368
1568.000000	0.283319
1569.000000	0.283319
1570.000000	0.283284
1571.000000	0.283228
1572.000000	0.283158
1573.000000	0.283008
1574.000000	0.283004
1575.000000	0.283125
1576.000000	0.283106
1577.000000	0.283104
1578.000000	0.283063
1579.000000	0.282956
1580.000000	0.282870
1581.000000	0.282855
1582.000000	0.282850
1583.000000	0.282783
1584.000000	0.282719
1585.000000	0.282832
1586.000000	0.282852
1587.000000	0.282792
1588.000000	0.282779
1589.000000	0.282765
1590.000000	0.282756
1591.000000	0.282762
1592.000000	0.282824
1593.000000	0.283003
1594.000000	0.283028
1595.000000	0.282998
1596.000000	0.283057
1597.000000	0.283204
1598.000000	0.283169
1599.000000	0.283138
1600.000000	0.283061
1601.000000	0.282810
1602.000000	0.282695
1603.000000	0.282777
1604.000000	0.282737
1605.000000	0.282647
1606.000000	0.282604
1607.000000	0.282596
1608.000000	0.282527
1609.000000	0.282526
1610.000000	0.282481
1611.000000	0.282316
1612.000000	0.282302
1613.000000	0.282553
1614.000000	0.282524
1615.000000	0.282531
1616.000000	0.282495
1617.000000	0.282102
1618.000000	0.282001
1619.000000	0.282058
1620.000000	0.282103
1621.000000	0.282294
1622.000000	0.282446
1623.000000	0.282567
1624.000000	0.282648
1625.000000	0.282587
1626.000000	0.282576
1627.000000	0.282555
1628.000000	0.282598
1629.000000	0.282696
1630.000000	0.282828
1631.000000	0.282891
1632.000000	0.283002
1633.000000	0.283249
1634.000000	0.283327
1635.000000	0.283422
1636.000000	0.283428
1637.000000	0.283262
1638.000000	0.283206
1639.000000	0.283191
1640.000000	0.283215
1641.000000	0.283401
1642.000000	0.283428
1643.000000	0.283423
1644.000000	0.283469
1645.000000	0.283484
1646.000000	0.283435
1647.000000	0.283452
1648.000000	0.283371
1649.000000	0.283217
1650.000000	0.283187
1651.000000	0.283270
1652.000000	0.283273
1653.000000	0.283196
1654.000000	0.283187
1655.000000	0.283074
1656.000000	0.283043
1657.000000	0.283210
1658.000000	0.283263
1659.000000	0.283399
1660.000000	0.283494
1661.000000	0.283441
1662.000000	0.283481
1663.000000	0.283549
1664.000000	0.283546
1665.000000	0.283506
1666.000000	0.283618
1667.000000	0.283687
1668.000000	0.283738
1669.000000	0.283881
1670.000000	0.283847
1671.000000	0.283755
1672.000000	0.283761
1673.000000	0.283772
1674.000000	0.283729
1675.000000	0.283676
1676.000000	0.283656
1677.000000	0.283555
1678.000000	0.283477
1679.000000	0.283556
1680.000000	0.283524
1681.000000	0.283455
1682.000000	0.283551
1683.000000	0.283669
1684.000000	0.283832
1685.000000	0.283997
1686.000000	0.283912
1687.000000	0.283815
1688.000000	0.283728
1689.000000	0.283624
1690.000000	0.283601
1691.000000	0.283714
1692.000000	0.283786
1693.000000	0.283798
1694.000000	0.283765
1695.000000	0.283710
1696.000000	0.283532
1697.000000	0.283398
1698.000000	0.283386
1699.000000	0.283350
1700.000000	0.283243
1701.000000	0.283320
1702.000000	0.283371
1703.000000	0.283371
1704.000000	0.283564
1705.000000	0.283623
1706.000000	0.283535
1707.000000	0.283561
1708.000000	0.283564
1709.000000	0.283569
1710.000000	0.283770
1711.000000	0.283876
1712.000000	0.284013
1713.000000	0.284016
1714.000000	0.283879
1715.000000	0.283879
1716.000000	0.283882
1717.000000	0.283883
1718.000000	0.284002
1719.000000	0.283992
1720.000000	0.283872
1721.000000	0.283840
1722.000000	0.283814
1723.000000	0.283826
1724.000000	0.283898
1725.000000	0.284022
1726.000000	0.284177
1727.000000	0.284208
1728.000000	0.284148
1729.000000	0.284095
1730.000000	0.284020
1731.000000	0.284073
1732.000000	0.284282
1733.000000	0.284429
1734.000000	0.284488
1735.000000	0.284527
1736.000000	0.284485
1737.000000	0.284511
1738.000000	0.284545
1739.000000	0.284610
1740.000000	0.284735
1741.000000	0.284729
1742.000000	0.284660
1743.000000	0.284735
1744.000000	0.284801
1745.000000	0.284781
1746.000000	0.284784
1747.000000	0.284935
1748.000000	0.284867
1749.000000	0.284798
1750.000000	0.284700
1751.000000	0.284379
1752.000000	0.284338
1753.000000	0.284422
1754.000000	0.284484
1755.000000	0.284641
1756.000000	0.284688
1757.000000	0.284695
1758.000000	0.284672
1759.000000	0.284561
1760.000000	0.284436
1761.000000	0.284118
1762.000000	0.284041
1763.000000	0.284080
1764.000000	0.284151
1765.000000	0.284454
1766.000000	0.284570
1767.000000	0.284500
1768.000000	0.284469
1769.000000	0.284485
1770.000000	0.284497
1771.000000	0.284437
1772.000000	0.284455
1773.000000	0.284464
1774.000000	0.284457
1775.000000	0.284568
1776.000000	0.284594
1777.000000	0.284475
1778.000000	0.284471
1779.000000	0.284510
1780.000000	0.284535
1781.000000	0.284564
1782.000000	0.284554
1783.000000	0.284558
1784.000000	0.284605
1785.000000	0.284529
1786.000000	0.284499
1787.000000	0.284648
1788.000000	0.284806
1789.000000	0.284904
1790.000000	0.285211
1791.000000	0.285198
1792.000000	0.284902
1793.000000	0.284857
1794.000000	0.284769
1795.000000	0.284733
1796.000000	0.285104
1797.000000	0.285098
1798.000000	0.284733
1799.000000	0.284554
1800.000000	0.284267
1801.000000	0.285027
1802.000000	0.284721
1803.000000	0.283806
1804.000000	0.283618
1805.000000	0.283513
1806.000000	0.283486
1807.000000	0.283910
1808.000000	0.284032
1809.000000	0.283701
1810.000000	0.283918
1811.000000	0.284129
1812.000000	0.284398
1813.000000	0.284853
1814.000000	0.285718
1815.000000	0.286131
1816.000000	0.287029
1817.000000	0.286877
1818.000000	0.285713
1819.000000	0.285203
1820.000000	0.284755
1821.000000	0.283322
1822.000000	0.282766
1823.000000	0.282559
1824.000000	0.282587
1825.000000	0.282780
1826.000000	0.283185
1827.000000	0.284177
1828.000000	0.284820
1829.000000	0.284875
1830.000000	0.284505
1831.000000	0.284859
1832.000000	0.285302
1833.000000	0.285554
1834.000000	0.286736
1835.000000	0.286752
1836.000000	0.285366
1837.000000	0.284883
1838.000000	0.284128
1839.000000	0.283692
1840.000000	0.283554
1841.000000	0.283785
1842.000000	0.284197
1843.000000	0.285128
1844.000000	0.285124
1845.000000	0.284932
1846.000000	0.284756
1847.000000	0.283533
1848.000000	0.282931
1849.000000	0.283421
1850.000000	0.283463
1851.000000	0.283400
1852.000000	0.283501
1853.000000	0.283313
1854.000000	0.282332
1855.000000	0.281991
1856.000000	0.281926
1857.000000	0.281444
1858.000000	0.281230
1859.000000	0.281257
1860.000000	0.280575
1861.000000	0.279923
1862.000000	0.279761
1863.000000	0.279697
1864.000000	0.279947
1865.000000	0.281274
1866.000000	0.281711
1867.000000	0.281867
1868.000000	0.281971
1869.000000	0.281507
1870.000000	0.280292
1871.000000	0.279500
1872.000000	0.278504
1873.000000	0.278185
1874.000000	0.278714
1875.000000	0.278651
1876.000000	0.278557
1877.000000	0.278127
1878.000000	0.276811
1879.000000	0.275593
1880.000000	0.274745
1881.000000	0.273836
1882.000000	0.273423
1883.000000	0.272887
1884.000000	0.272182
1885.000000	0.270975
1886.000000	0.269988
1887.000000	0.269071
1888.000000	0.267819
1889.000000	0.266641
1890.000000	0.266295
1891.000000	0.265384
1892.000000	0.264532
1893.000000	0.263945
1894.000000	0.262736
1895.000000	0.261698
1896.000000	0.260958
1897.000000	0.260305
1898.000000	0.258970
1899.000000	0.258089
1900.000000	0.257454
1901.000000	0.256267
1902.000000	0.255260
1903.000000	0.254534
1904.000000	0.253637
1905.000000	0.252492
1906.000000	0.251376
1907.000000	0.250280
1908.000000	0.249113
1909.000000	0.248137
1910.000000	0.247614
1911.000000	0.246781
1912.000000	0.245864
1913.000000	0.244889
1914.000000	0.244108
1915.000000	0.243853
1916.000000	0.243626
1917.000000	0.243395
1918.000000	0.243572
1919.000000	0.243170
1920.000000	0.242640
1921.000000	0.243133
1922.000000	0.242848
1923.000000	0.243079
1924.000000	0.243912
1925.000000	0.243149
1926.000000	0.242792
1927.000000	0.242730
1928.000000	0.242309
1929.000000	0.241353
1930.000000	0.241288
1931.000000	0.241151
1932.000000	0.241033
1933.000000	0.241389
1934.000000	0.241568
1935.000000	0.242115
1936.000000	0.242599
1937.000000	0.242768
1938.000000	0.242689
1939.000000	0.242632
1940.000000	0.242314
1941.000000	0.242378
1942.000000	0.242572
1943.000000	0.242479
1944.000000	0.242677
1945.000000	0.242701
1946.000000	0.242301
1947.000000	0.242702
1948.000000	0.242783
1949.000000	0.242401
1950.000000	0.242403
1951.000000	0.242102
1952.000000	0.241443
1953.000000	0.241336
1954.000000	0.241354
1955.000000	0.240437
1956.000000	0.240071
1957.000000	0.239816
1958.000000	0.239164
1959.000000	0.239593
1960.000000	0.240243
1961.000000	0.240244
1962.000000	0.240344
1963.000000	0.240726
1964.000000	0.240691
1965.000000	0.240011
1966.000000	0.239583
1967.000000	0.239140
1968.000000	0.238800
1969.000000	0.239233
1970.000000	0.240116
1971.000000	0.240821
1972.000000	0.241287
1973.000000	0.241431
1974.000000	0.241111
1975.000000	0.241118
1976.000000	0.240997
1977.000000	0.241174
1978.000000	0.241504
1979.000000	0.241663
1980.000000	0.242349
1981.000000	0.242561
1982.000000	0.242993
1983.000000	0.243753
1984.000000	0.243756
1985.000000	0.243234
1986.000000	0.243053
1987.000000	0.242610
1988.000000	0.242200
1989.000000	0.242812
1990.000000	0.243103
1991.000000	0.243087
1992.000000	0.243151
1993.000000	0.243039
1994.000000	0.243151
1995.000000	0.244042
1996.000000	0.244782
1997.000000	0.245302
1998.000000	0.245836
1999.000000	0.246352
2000.000000	0.246799
2001.000000	0.246981
2002.000000	0.246990
2003.000000	0.246493
2004.000000	0.245903
2005.000000	0.245803
2006.000000	0.246855
2007.000000	0.248176
2008.000000	0.248750
2009.000000	0.249205
2010.000000	0.249697
2011.000000	0.249519
2012.000000	0.249648
2013.000000	0.250279
2014.000000	0.250125
2015.000000	0.249943
2016.000000	0.249242
2017.000000	0.248576
2018.000000	0.248927
2019.000000	0.249093
2020.000000	0.249460
2021.000000	0.249698
2022.000000	0.249818
2023.000000	0.249985
2024.000000	0.250144
2025.000000	0.250367
2026.000000	0.250267
2027.000000	0.250785
2028.000000	0.251830
2029.000000	0.252645
2030.000000	0.253781
2031.000000	0.254498
2032.000000	0.254220
2033.000000	0.254376
2034.000000	0.254618
2035.000000	0.254879
2036.000000	0.255165
2037.000000	0.255962
2038.000000	0.256251
2039.000000	0.256284
2040.000000	0.256481
2041.000000	0.256513
2042.000000	0.256786
2043.000000	0.257289
2044.000000	0.257435
2045.000000	0.257436
2046.000000	0.257085
2047.000000	0.256757
2048.000000	0.255867
2049.000000	0.255957
2050.000000	0.256286
2051.000000	0.256406
2052.000000	0.256856
2053.000000	0.256835
2054.000000	0.256432
2055.000000	0.256413
2056.000000	0.256853
2057.000000	0.257754
2058.000000	0.258598
2059.000000	0.259260
2060.000000	0.259491
2061.000000	0.259089
2062.000000	0.259071
2063.000000	0.259000
2064.000000	0.258964
2065.000000	0.259272
2066.000000	0.259336
2067.000000	0.259748
2068.000000	0.259575
2069.000000	0.259524
2070.000000	0.259707
2071.000000	0.259472
2072.000000	0.259717
2073.000000	0.260017
2074.000000	0.259946
2075.000000	0.260197
2076.000000	0.260770
2077.000000	0.260965
2078.000000	0.261084
2079.000000	0.261222
2080.000000	0.261021
2081.000000	0.261177
2082.000000	0.261407
2083.000000	0.262065
2084.000000	0.262903
2085.000000	0.263738
2086.000000	0.264201
2087.000000	0.263997
2088.000000	0.263403
2089.000000	0.262591
2090.000000	0.262410
2091.000000	0.262785
2092.000000	0.262924
2093.000000	0.263389
2094.000000	0.263628
2095.000000	0.263801
2096.000000	0.263697
2097.000000	0.263288
2098.000000	0.262919
2099.000000	0.262620
2100.000000	0.262809
2101.000000	0.263634
2102.000000	0.264360
2103.000000	0.264497
2104.000000	0.264368
2105.000000	0.264427
2106.000000	0.263878
2107.000000	0.264324
2108.000000	0.265591
2109.000000	0.266340
2110.000000	0.267305
2111.000000	0.268009
2112.000000	0.268514
2113.000000	0.268449
2114.000000	0.268490
2115.000000	0.268178
2116.000000	0.267404
2117.000000	0.266623
2118.000000	0.266003
2119.000000	0.265605
2120.000000	0.265536
2121.000000	0.265671
2122.000000	0.266144
2123.000000	0.267331
2124.000000	0.267840
2125.000000	0.268698
2126.000000	0.268873
2127.000000	0.268247
2128.000000	0.267965
2129.000000	0.267535
2130.000000	0.266738
2131.000000	0.265996
2132.000000	0.265397
2133.000000	0.265991
2134.000000	0.266821
2135.000000	0.267487
2136.000000	0.268964
2137.000000	0.269053
2138.000000	0.267781
2139.000000	0.267296
2140.000000	0.266105
2141.000000	0.265793
2142.000000	0.266087
2143.000000	0.266265
2144.000000	0.267286
2145.000000	0.267901
2146.000000	0.268610
2147.000000	0.269258
2148.000000	0.269050
2149.000000	0.269669
2150.000000	0.269633
2151.000000	0.268914
2152.000000	0.268191
2153.000000	0.266607
2154.000000	0.265854
2155.000000	0.265296
2156.000000	0.264822
2157.000000	0.264526
2158.000000	0.264839
2159.000000	0.265744
2160.000000	0.266109
2161.000000	0.266886
2162.000000	0.267410
2163.000000	0.267528
2164.000000	0.267380
2165.000000	0.267054
2166.000000	0.266620
2167.000000	0.266796
2168.000000	0.266439
2169.000000	0.266465
2170.000000	0.267101
2171.000000	0.267356
2172.000000	0.267483
2173.000000	0.267024
2174.000000	0.265910
2175.000000	0.265856
2176.000000	0.265507
2177.000000	0.266026
2178.000000	0.268559
2179.000000	0.269609
2180.000000	0.270064
2181.000000	0.270400
2182.000000	0.269771
2183.000000	0.268820
2184.000000	0.267746
2185.000000	0.267883
2186.000000	0.268467
2187.000000	0.269228
2188.000000	0.269469
2189.000000	0.268054
2190.000000	0.265435
2191.000000	0.263803
2192.000000	0.263010
2193.000000	0.263077
2194.000000	0.263490
2195.000000	0.265619
2196.000000	0.266416
2197.000000	0.266765
2198.000000	0.267978
2199.000000	0.269941
2200.000000	0.270207
2201.000000	0.270532
2202.000000	0.269896
2203.000000	0.266416
2204.000000	0.263675
2205.000000	0.261690
2206.000000	0.261212
2207.000000	0.261678
2208.000000	0.264130
2209.000000	0.266874
2210.000000	0.269266
2211.000000	0.271805
2212.000000	0.271061
2213.000000	0.269873
2214.000000	0.266426
2215.000000	0.265445
2216.000000	0.264578
2217.000000	0.263474
2218.000000	0.263155
2219.000000	0.263016
2220.000000	0.262039
2221.000000	0.261879
2222.000000	0.263783
2223.000000	0.264000
2224.000000	0.262744
2225.000000	0.262388
2226.000000	0.262919
2227.000000	0.263287
2228.000000	0.265335
2229.000000	0.266516
2230.000000	0.266167
2231.000000	0.266244
2232.000000	0.264952
2233.000000	0.264901
2234.000000	0.264589
2235.000000	0.265731
2236.000000	0.265798
2237.000000	0.264459
2238.000000	0.264914
2239.000000	0.266251
2240.000000	0.266979
2241.000000	0.269695
2242.000000	0.270508
2243.000000	0.269580
2244.000000	0.268633
2245.000000	0.266292
2246.000000	0.265416
2247.000000	0.264784
2248.000000	0.264845
2249.000000	0.265927
2250.000000	0.267229
2251.000000	0.269107
2252.000000	0.267454
2253.000000	0.267842
2254.000000	0.267661
2255.000000	0.265282
2256.000000	0.266956
2257.000000	0.267782
2258.000000	0.268146
2259.000000	0.268312
2260.000000	0.268142
2261.000000	0.267735
2262.000000	0.265614
2263.000000	0.264957
2264.000000	0.265819
2265.000000	0.264686
2266.000000	0.262505
2267.000000	0.262058
2268.000000	0.261401
2269.000000	0.261520
2270.000000	0.263081
2271.000000	0.263638
2272.000000	0.263606
2273.000000	0.264036
2274.000000	0.265597
2275.000000	0.265800
2276.000000	0.265752
2277.000000	0.264527
2278.000000	0.262280
2279.000000	0.260619
2280.000000	0.259183
2281.000000	0.258724
2282.000000	0.258834
2283.000000	0.258773
2284.000000	0.259979
2285.000000	0.259981
2286.000000	0.259725
2287.000000	0.258284
2288.000000	0.256495
2289.000000	0.255865
2290.000000	0.255335
2291.000000	0.256445
2292.000000	0.257512
2293.000000	0.258017
2294.000000	0.258822
2295.000000	0.260530
2296.000000	0.260347
2297.000000	0.258779
2298.000000	0.258296
2299.000000	0.256236
2300.000000	0.255912
2301.000000	0.257871
2302.000000	0.258684
2303.000000	0.259540
2304.000000	0.259902
2305.000000	0.260038
2306.000000	0.259863
2307.000000	0.258447
2308.000000	0.259143
2309.000000	0.259894
2310.000000	0.259223
2311.000000	0.260330
2312.000000	0.260869
2313.000000	0.260278
2314.000000	0.260062
2315.000000	0.260248
2316.000000	0.260437
2317.000000	0.259988
2318.000000	0.260379
2319.000000	0.261283
2320.000000	0.261978
2321.000000	0.261626
2322.000000	0.259983
2323.000000	0.257881
2324.000000	0.254450
2325.000000	0.252734
2326.000000	0.254412
2327.000000	0.256164
2328.000000	0.257459
2329.000000	0.258320
2330.000000	0.258935
2331.000000	0.257728
2332.000000	0.255193
2333.000000	0.254802
2334.000000	0.254307
2335.000000	0.255648
2336.000000	0.260668
2337.000000	0.261620
2338.000000	0.261309
2339.000000	0.260819
2340.000000	0.257176
2341.000000	0.256400
2342.000000	0.258037
2343.000000	0.259169
2344.000000	0.260655
2345.000000	0.260327
2346.000000	0.258865
2347.000000	0.256925
2348.000000	0.253365
2349.000000	0.252525
2350.000000	0.250188
2351.000000	0.249193
2352.000000	0.246154
2353.000000	0.245441
2354.000000	0.246726
2355.000000	0.246164
2356.000000	0.246399
2357.000000	0.247724
2358.000000	0.245789
2359.000000	0.241746
2360.000000	0.245191
2361.000000	0.246607
2362.000000	0.247453
2363.000000	0.254097
2364.000000	0.253750
2365.000000	0.250940
2366.000000	0.247417
2367.000000	0.244181
2368.000000	0.243159
2369.000000	0.241076
2370.000000	0.243134
2371.000000	0.245776
2372.000000	0.246870
2373.000000	0.250696
2374.000000	0.252324
2375.000000	0.254727
2376.000000	0.256961
2377.000000	0.252424
2378.000000	0.250564
2379.000000	0.246512
2380.000000	0.242294
2381.000000	0.244057
2382.000000	0.241740
2383.000000	0.240614
2384.000000	0.242789
2385.000000	0.240527
2386.000000	0.236915
2387.000000	0.236381
2388.000000	0.231947
2389.000000	0.228743
2390.000000	0.233405
2391.000000	0.236746
2392.000000	0.240927
2393.000000	0.250030
2394.000000	0.254375
2395.000000	0.252936
2396.000000	0.251911
2397.000000	0.250115
2398.000000	0.242688
2399.000000	0.233249
2400.000000	0.232855
2401.000000	0.233447
2402.000000	0.234038
2403.000000	0.243953
2404.000000	0.245373
2405.000000	0.239856
2406.000000	0.243378
2407.000000	0.247197
2408.000000	0.246772
2409.000000	0.245515
2410.000000	0.244867
2411.000000	0.238711
2412.000000	0.235495
2413.000000	0.241396
2414.000000	0.244649
2415.000000	0.241812
2416.000000	0.234412
2417.000000	0.232429
2418.000000	0.229756
2419.000000	0.231961
2420.000000	0.243354
2421.000000	0.242714
2422.000000	0.243053
2423.000000	0.247874
2424.000000	0.253952
2425.000000	0.262472
2426.000000	0.264331
2427.000000	0.261631
2428.000000	0.251147
2429.000000	0.246997
2430.000000	0.243000
2431.000000	0.230258
2432.000000	0.226872
2433.000000	0.230683
2434.000000	0.235552
2435.000000	0.252561
2436.000000	0.270694
2437.000000	0.267379
2438.000000	0.260671
2439.000000	0.247363
2440.000000	0.234702
2441.000000	0.237302
2442.000000	0.248574
2443.000000	0.263537
2444.000000	0.266455
2445.000000	0.263297
2446.000000	0.246679
2447.000000	0.217443
2448.000000	0.203645
2449.000000	0.198364
2450.000000	0.202798
2451.000000	0.225973
2452.000000	0.246096
2453.000000	0.252908
2454.000000	0.247715
2455.000000	0.240829
2456.000000	0.236141
2457.000000	0.234840
2458.000000	0.254557
2459.000000	0.278909
2460.000000	0.289101
2461.000000	0.305005
2462.000000	0.312706
2463.000000	0.291737
2464.000000	0.277616
2465.000000	0.269643
2466.000000	0.240160
2467.000000	0.214943
2468.000000	0.200231
2469.000000	0.178254
2470.000000	0.170463
2471.000000	0.191909
2472.000000	0.207902
2473.000000	0.210016
2474.000000	0.225228
2475.000000	0.235818
2476.000000	0.242619
2477.000000	0.269848
2478.000000	0.288290
2479.000000	0.281380
2480.000000	0.259809
2481.000000	0.238627
2482.000000	0.235942
2483.000000	0.227012
2484.000000	0.241070
2485.000000	0.256803
2486.000000	0.220665
2487.000000	0.216663
2488.000000	0.248146
2489.000000	0.284167
2490.000000	0.356670
2491.000000	0.403425
2492.000000	0.397230
2493.000000	0.335682
2494.000000	0.317516
2495.000000	0.286027
2496.000000	0.265659
2497.000000	0.300561
2498.000000	0.283943
2499.000000	0.232634
2500.000000	0.207321
