# Wavelength	NAu-1-20_HEX-60_FV7-20_00000.asd.rts.txt
350.000000	0.232068
351.000000	0.240343
352.000000	0.243562
353.000000	0.231653
354.000000	0.213026
355.000000	0.229783
356.000000	0.236602
357.000000	0.228672
358.000000	0.221832
359.000000	0.220709
360.000000	0.223509
361.000000	0.225188
362.000000	0.217089
363.000000	0.215381
364.000000	0.225288
365.000000	0.223578
366.000000	0.219242
367.000000	0.215814
368.000000	0.213465
369.000000	0.209938
370.000000	0.207880
371.000000	0.210764
372.000000	0.214486
373.000000	0.219383
374.000000	0.225098
375.000000	0.226809
376.000000	0.224413
377.000000	0.221013
378.000000	0.223539
379.000000	0.226278
380.000000	0.227741
381.000000	0.228485
382.000000	0.226263
383.000000	0.225007
384.000000	0.227260
385.000000	0.230126
386.000000	0.230029
387.000000	0.228225
388.000000	0.231014
389.000000	0.233280
390.000000	0.234233
391.000000	0.234378
392.000000	0.236460
393.000000	0.237848
394.000000	0.237095
395.000000	0.239024
396.000000	0.240854
397.000000	0.241511
398.000000	0.242095
399.000000	0.243468
400.000000	0.245265
401.000000	0.246500
402.000000	0.249339
403.000000	0.251433
404.000000	0.251049
405.000000	0.250951
406.000000	0.251258
407.000000	0.252036
408.000000	0.253461
409.000000	0.255212
410.000000	0.256748
411.000000	0.257339
412.000000	0.257024
413.000000	0.257126
414.000000	0.258670
415.000000	0.259164
416.000000	0.259837
417.000000	0.261167
418.000000	0.261370
419.000000	0.261398
420.000000	0.261577
421.000000	0.261753
422.000000	0.262464
423.000000	0.263069
424.000000	0.262851
425.000000	0.263316
426.000000	0.263880
427.000000	0.264066
428.000000	0.264743
429.000000	0.264894
430.000000	0.264436
431.000000	0.264487
432.000000	0.264544
433.000000	0.264649
434.000000	0.265117
435.000000	0.265297
436.000000	0.265311
437.000000	0.265346
438.000000	0.265271
439.000000	0.264969
440.000000	0.264612
441.000000	0.264624
442.000000	0.264486
443.000000	0.264125
444.000000	0.263950
445.000000	0.264267
446.000000	0.264795
447.000000	0.265017
448.000000	0.265780
449.000000	0.266654
450.000000	0.267346
451.000000	0.268187
452.000000	0.269510
453.000000	0.271216
454.000000	0.272950
455.000000	0.274760
456.000000	0.276683
457.000000	0.278569
458.000000	0.280430
459.000000	0.282164
460.000000	0.283683
461.000000	0.284644
462.000000	0.285796
463.000000	0.287191
464.000000	0.288185
465.000000	0.289065
466.000000	0.289833
467.000000	0.290500
468.000000	0.291379
469.000000	0.292242
470.000000	0.292955
471.000000	0.293620
472.000000	0.294199
473.000000	0.294710
474.000000	0.295216
475.000000	0.295513
476.000000	0.295836
477.000000	0.296535
478.000000	0.297037
479.000000	0.297557
480.000000	0.298182
481.000000	0.298416
482.000000	0.298731
483.000000	0.299311
484.000000	0.299893
485.000000	0.300370
486.000000	0.300853
487.000000	0.301104
488.000000	0.301564
489.000000	0.302220
490.000000	0.302725
491.000000	0.303282
492.000000	0.303803
493.000000	0.304056
494.000000	0.304716
495.000000	0.305392
496.000000	0.305786
497.000000	0.306381
498.000000	0.306998
499.000000	0.307629
500.000000	0.308241
501.000000	0.308763
502.000000	0.309296
503.000000	0.309912
504.000000	0.310436
505.000000	0.310980
506.000000	0.311644
507.000000	0.312149
508.000000	0.312677
509.000000	0.313293
510.000000	0.313949
511.000000	0.314636
512.000000	0.315293
513.000000	0.315730
514.000000	0.316435
515.000000	0.317337
516.000000	0.318106
517.000000	0.318706
518.000000	0.319305
519.000000	0.319948
520.000000	0.320675
521.000000	0.321411
522.000000	0.322096
523.000000	0.322604
524.000000	0.323392
525.000000	0.324326
526.000000	0.325007
527.000000	0.325726
528.000000	0.326412
529.000000	0.327036
530.000000	0.327821
531.000000	0.328701
532.000000	0.329516
533.000000	0.330363
534.000000	0.331188
535.000000	0.331955
536.000000	0.332689
537.000000	0.333568
538.000000	0.334479
539.000000	0.335195
540.000000	0.336053
541.000000	0.336945
542.000000	0.337758
543.000000	0.338440
544.000000	0.339169
545.000000	0.339951
546.000000	0.340768
547.000000	0.341666
548.000000	0.342580
549.000000	0.343249
550.000000	0.343981
551.000000	0.344805
552.000000	0.345607
553.000000	0.346419
554.000000	0.347228
555.000000	0.348029
556.000000	0.348820
557.000000	0.349516
558.000000	0.350263
559.000000	0.351062
560.000000	0.351763
561.000000	0.352491
562.000000	0.353304
563.000000	0.353950
564.000000	0.354537
565.000000	0.355112
566.000000	0.355848
567.000000	0.356572
568.000000	0.357171
569.000000	0.357819
570.000000	0.358372
571.000000	0.358844
572.000000	0.359431
573.000000	0.360005
574.000000	0.360479
575.000000	0.360875
576.000000	0.361411
577.000000	0.361970
578.000000	0.362500
579.000000	0.362992
580.000000	0.363460
581.000000	0.363886
582.000000	0.364190
583.000000	0.364534
584.000000	0.364907
585.000000	0.365209
586.000000	0.365555
587.000000	0.365927
588.000000	0.366285
589.000000	0.366690
590.000000	0.367010
591.000000	0.367211
592.000000	0.367522
593.000000	0.367827
594.000000	0.368093
595.000000	0.368373
596.000000	0.368553
597.000000	0.368729
598.000000	0.368937
599.000000	0.369112
600.000000	0.369265
601.000000	0.369348
602.000000	0.369557
603.000000	0.369743
604.000000	0.369872
605.000000	0.370083
606.000000	0.370277
607.000000	0.370420
608.000000	0.370504
609.000000	0.370629
610.000000	0.370793
611.000000	0.370957
612.000000	0.371045
613.000000	0.371158
614.000000	0.371366
615.000000	0.371434
616.000000	0.371461
617.000000	0.371465
618.000000	0.371519
619.000000	0.371610
620.000000	0.371696
621.000000	0.371793
622.000000	0.371796
623.000000	0.371850
624.000000	0.372041
625.000000	0.372080
626.000000	0.372131
627.000000	0.372270
628.000000	0.372423
629.000000	0.372663
630.000000	0.372835
631.000000	0.373017
632.000000	0.373160
633.000000	0.373269
634.000000	0.373356
635.000000	0.373548
636.000000	0.373753
637.000000	0.373905
638.000000	0.374104
639.000000	0.374308
640.000000	0.374539
641.000000	0.374657
642.000000	0.374772
643.000000	0.374906
644.000000	0.375046
645.000000	0.375105
646.000000	0.375183
647.000000	0.375321
648.000000	0.375469
649.000000	0.375627
650.000000	0.375780
651.000000	0.375965
652.000000	0.376134
653.000000	0.376323
654.000000	0.376505
655.000000	0.376774
656.000000	0.377047
657.000000	0.377198
658.000000	0.377484
659.000000	0.377740
660.000000	0.377902
661.000000	0.378182
662.000000	0.378375
663.000000	0.378545
664.000000	0.378774
665.000000	0.379015
666.000000	0.379271
667.000000	0.379515
668.000000	0.379733
669.000000	0.379962
670.000000	0.380209
671.000000	0.380363
672.000000	0.380602
673.000000	0.380922
674.000000	0.381203
675.000000	0.381450
676.000000	0.381692
677.000000	0.381983
678.000000	0.382269
679.000000	0.382515
680.000000	0.382736
681.000000	0.383012
682.000000	0.383349
683.000000	0.383635
684.000000	0.383916
685.000000	0.384164
686.000000	0.384465
687.000000	0.384859
688.000000	0.385198
689.000000	0.385513
690.000000	0.385866
691.000000	0.386162
692.000000	0.386444
693.000000	0.386808
694.000000	0.387184
695.000000	0.387544
696.000000	0.387879
697.000000	0.388195
698.000000	0.388485
699.000000	0.388795
700.000000	0.389160
701.000000	0.389477
702.000000	0.389817
703.000000	0.390175
704.000000	0.390508
705.000000	0.390901
706.000000	0.391270
707.000000	0.391588
708.000000	0.391930
709.000000	0.392299
710.000000	0.392698
711.000000	0.393037
712.000000	0.393364
713.000000	0.393707
714.000000	0.393991
715.000000	0.394301
716.000000	0.394641
717.000000	0.394948
718.000000	0.395294
719.000000	0.395605
720.000000	0.395852
721.000000	0.396165
722.000000	0.396481
723.000000	0.396839
724.000000	0.397184
725.000000	0.397459
726.000000	0.397768
727.000000	0.398069
728.000000	0.398368
729.000000	0.398649
730.000000	0.398854
731.000000	0.399138
732.000000	0.399433
733.000000	0.399745
734.000000	0.400019
735.000000	0.400289
736.000000	0.400649
737.000000	0.400890
738.000000	0.401081
739.000000	0.401341
740.000000	0.401538
741.000000	0.401784
742.000000	0.402038
743.000000	0.402268
744.000000	0.402569
745.000000	0.402703
746.000000	0.402800
747.000000	0.402973
748.000000	0.403222
749.000000	0.403466
750.000000	0.403623
751.000000	0.403807
752.000000	0.403985
753.000000	0.404147
754.000000	0.404261
755.000000	0.404359
756.000000	0.404497
757.000000	0.404652
758.000000	0.404760
759.000000	0.404875
760.000000	0.404941
761.000000	0.405016
762.000000	0.405099
763.000000	0.405154
764.000000	0.405225
765.000000	0.405323
766.000000	0.405424
767.000000	0.405496
768.000000	0.405575
769.000000	0.405633
770.000000	0.405653
771.000000	0.405621
772.000000	0.405682
773.000000	0.405700
774.000000	0.405616
775.000000	0.405637
776.000000	0.405713
777.000000	0.405747
778.000000	0.405716
779.000000	0.405682
780.000000	0.405672
781.000000	0.405650
782.000000	0.405645
783.000000	0.405743
784.000000	0.405784
785.000000	0.405728
786.000000	0.405588
787.000000	0.405413
788.000000	0.405315
789.000000	0.405312
790.000000	0.405314
791.000000	0.405236
792.000000	0.405171
793.000000	0.405099
794.000000	0.405006
795.000000	0.404916
796.000000	0.404773
797.000000	0.404606
798.000000	0.404560
799.000000	0.404452
800.000000	0.404342
801.000000	0.404335
802.000000	0.404331
803.000000	0.404231
804.000000	0.404059
805.000000	0.403900
806.000000	0.403720
807.000000	0.403586
808.000000	0.403405
809.000000	0.403271
810.000000	0.403088
811.000000	0.402798
812.000000	0.402595
813.000000	0.402489
814.000000	0.402419
815.000000	0.402291
816.000000	0.402188
817.000000	0.402067
818.000000	0.401798
819.000000	0.401669
820.000000	0.401567
821.000000	0.401385
822.000000	0.401248
823.000000	0.401106
824.000000	0.400905
825.000000	0.400743
826.000000	0.400507
827.000000	0.400244
828.000000	0.400054
829.000000	0.399910
830.000000	0.399768
831.000000	0.399670
832.000000	0.399496
833.000000	0.399388
834.000000	0.399271
835.000000	0.399108
836.000000	0.398864
837.000000	0.398661
838.000000	0.398504
839.000000	0.398245
840.000000	0.397998
841.000000	0.397805
842.000000	0.397635
843.000000	0.397526
844.000000	0.397395
845.000000	0.397232
846.000000	0.397201
847.000000	0.397009
848.000000	0.396758
849.000000	0.396658
850.000000	0.396557
851.000000	0.396384
852.000000	0.396172
853.000000	0.395945
854.000000	0.395681
855.000000	0.395506
856.000000	0.395335
857.000000	0.395174
858.000000	0.394994
859.000000	0.394737
860.000000	0.394625
861.000000	0.394446
862.000000	0.394260
863.000000	0.394114
864.000000	0.393977
865.000000	0.393877
866.000000	0.393823
867.000000	0.393677
868.000000	0.393463
869.000000	0.393134
870.000000	0.392784
871.000000	0.392465
872.000000	0.392324
873.000000	0.392272
874.000000	0.392020
875.000000	0.391736
876.000000	0.391476
877.000000	0.391174
878.000000	0.390876
879.000000	0.390664
880.000000	0.390425
881.000000	0.390317
882.000000	0.390072
883.000000	0.389812
884.000000	0.389709
885.000000	0.389632
886.000000	0.389535
887.000000	0.389439
888.000000	0.389364
889.000000	0.389245
890.000000	0.388996
891.000000	0.388814
892.000000	0.388633
893.000000	0.388358
894.000000	0.388122
895.000000	0.387915
896.000000	0.387740
897.000000	0.387600
898.000000	0.387477
899.000000	0.387218
900.000000	0.387003
901.000000	0.386895
902.000000	0.386954
903.000000	0.386705
904.000000	0.386345
905.000000	0.386081
906.000000	0.385896
907.000000	0.385715
908.000000	0.385601
909.000000	0.385538
910.000000	0.385448
911.000000	0.385297
912.000000	0.385113
913.000000	0.384971
914.000000	0.384827
915.000000	0.384702
916.000000	0.384470
917.000000	0.384203
918.000000	0.384067
919.000000	0.384070
920.000000	0.383919
921.000000	0.383711
922.000000	0.383547
923.000000	0.383473
924.000000	0.383303
925.000000	0.383079
926.000000	0.382875
927.000000	0.382626
928.000000	0.382498
929.000000	0.382373
930.000000	0.382109
931.000000	0.381978
932.000000	0.381841
933.000000	0.381690
934.000000	0.381550
935.000000	0.381335
936.000000	0.381189
937.000000	0.381086
938.000000	0.380873
939.000000	0.380672
940.000000	0.380425
941.000000	0.380183
942.000000	0.379996
943.000000	0.379907
944.000000	0.379774
945.000000	0.379673
946.000000	0.379546
947.000000	0.379507
948.000000	0.379534
949.000000	0.379187
950.000000	0.378950
951.000000	0.378818
952.000000	0.378462
953.000000	0.378484
954.000000	0.378436
955.000000	0.377942
956.000000	0.377665
957.000000	0.377560
958.000000	0.377518
959.000000	0.377536
960.000000	0.377496
961.000000	0.377301
962.000000	0.377028
963.000000	0.377020
964.000000	0.377010
965.000000	0.376921
966.000000	0.376652
967.000000	0.376562
968.000000	0.376425
969.000000	0.376198
970.000000	0.376054
971.000000	0.375688
972.000000	0.375598
973.000000	0.375765
974.000000	0.375715
975.000000	0.375483
976.000000	0.375274
977.000000	0.375208
978.000000	0.375070
979.000000	0.374950
980.000000	0.374849
981.000000	0.375181
982.000000	0.374911
983.000000	0.374571
984.000000	0.374551
985.000000	0.374747
986.000000	0.374854
987.000000	0.374879
988.000000	0.374743
989.000000	0.374531
990.000000	0.374478
991.000000	0.374530
992.000000	0.374576
993.000000	0.374519
994.000000	0.374357
995.000000	0.374215
996.000000	0.373864
997.000000	0.373969
998.000000	0.374073
999.000000	0.374052
1000.000000	0.374163
1001.000000	0.373998
1002.000000	0.374097
1003.000000	0.374194
1004.000000	0.373849
1005.000000	0.372560
1006.000000	0.372202
1007.000000	0.371897
1008.000000	0.372162
1009.000000	0.372770
1010.000000	0.372735
1011.000000	0.373115
1012.000000	0.372847
1013.000000	0.372173
1014.000000	0.372250
1015.000000	0.371836
1016.000000	0.371694
1017.000000	0.372137
1018.000000	0.372321
1019.000000	0.372438
1020.000000	0.372661
1021.000000	0.372430
1022.000000	0.372046
1023.000000	0.372240
1024.000000	0.372344
1025.000000	0.372841
1026.000000	0.373217
1027.000000	0.373190
1028.000000	0.373156
1029.000000	0.373551
1030.000000	0.373898
1031.000000	0.373946
1032.000000	0.374600
1033.000000	0.374865
1034.000000	0.374912
1035.000000	0.374920
1036.000000	0.375046
1037.000000	0.374813
1038.000000	0.374785
1039.000000	0.375135
1040.000000	0.375385
1041.000000	0.375849
1042.000000	0.375605
1043.000000	0.374884
1044.000000	0.375467
1045.000000	0.376194
1046.000000	0.376427
1047.000000	0.377019
1048.000000	0.378344
1049.000000	0.378508
1050.000000	0.377908
1051.000000	0.378113
1052.000000	0.378180
1053.000000	0.378229
1054.000000	0.378942
1055.000000	0.379392
1056.000000	0.379538
1057.000000	0.379884
1058.000000	0.380496
1059.000000	0.380691
1060.000000	0.380761
1061.000000	0.380833
1062.000000	0.380887
1063.000000	0.381243
1064.000000	0.381652
1065.000000	0.382304
1066.000000	0.382723
1067.000000	0.383174
1068.000000	0.383332
1069.000000	0.383137
1070.000000	0.383217
1071.000000	0.383066
1072.000000	0.383379
1073.000000	0.384289
1074.000000	0.384980
1075.000000	0.385474
1076.000000	0.385890
1077.000000	0.385718
1078.000000	0.385742
1079.000000	0.385937
1080.000000	0.386366
1081.000000	0.386680
1082.000000	0.387097
1083.000000	0.387536
1084.000000	0.388093
1085.000000	0.388576
1086.000000	0.389211
1087.000000	0.389657
1088.000000	0.389771
1089.000000	0.389914
1090.000000	0.389810
1091.000000	0.389847
1092.000000	0.390212
1093.000000	0.391060
1094.000000	0.391601
1095.000000	0.392466
1096.000000	0.392762
1097.000000	0.392569
1098.000000	0.392745
1099.000000	0.392666
1100.000000	0.392986
1101.000000	0.393645
1102.000000	0.394064
1103.000000	0.394524
1104.000000	0.394968
1105.000000	0.395263
1106.000000	0.395609
1107.000000	0.395937
1108.000000	0.396291
1109.000000	0.396738
1110.000000	0.397119
1111.000000	0.397561
1112.000000	0.398081
1113.000000	0.398495
1114.000000	0.398955
1115.000000	0.399256
1116.000000	0.399400
1117.000000	0.399662
1118.000000	0.399945
1119.000000	0.400018
1120.000000	0.399989
1121.000000	0.400075
1122.000000	0.399977
1123.000000	0.400435
1124.000000	0.401103
1125.000000	0.401637
1126.000000	0.402443
1127.000000	0.402812
1128.000000	0.402946
1129.000000	0.402790
1130.000000	0.402874
1131.000000	0.402828
1132.000000	0.402793
1133.000000	0.402862
1134.000000	0.403051
1135.000000	0.403099
1136.000000	0.403275
1137.000000	0.403683
1138.000000	0.403962
1139.000000	0.404391
1140.000000	0.404693
1141.000000	0.404827
1142.000000	0.405056
1143.000000	0.405230
1144.000000	0.405393
1145.000000	0.405315
1146.000000	0.405225
1147.000000	0.405312
1148.000000	0.405179
1149.000000	0.405265
1150.000000	0.405653
1151.000000	0.405945
1152.000000	0.406134
1153.000000	0.406347
1154.000000	0.406637
1155.000000	0.406790
1156.000000	0.406843
1157.000000	0.406904
1158.000000	0.406826
1159.000000	0.406846
1160.000000	0.406835
1161.000000	0.406865
1162.000000	0.407092
1163.000000	0.407398
1164.000000	0.407367
1165.000000	0.407347
1166.000000	0.407459
1167.000000	0.407482
1168.000000	0.407513
1169.000000	0.407737
1170.000000	0.407862
1171.000000	0.407896
1172.000000	0.408022
1173.000000	0.408214
1174.000000	0.408280
1175.000000	0.408134
1176.000000	0.408184
1177.000000	0.408474
1178.000000	0.408592
1179.000000	0.408785
1180.000000	0.408834
1181.000000	0.408804
1182.000000	0.408702
1183.000000	0.408803
1184.000000	0.408906
1185.000000	0.409035
1186.000000	0.409222
1187.000000	0.409321
1188.000000	0.409407
1189.000000	0.409487
1190.000000	0.409673
1191.000000	0.409673
1192.000000	0.409704
1193.000000	0.409804
1194.000000	0.409571
1195.000000	0.409547
1196.000000	0.409552
1197.000000	0.409646
1198.000000	0.409958
1199.000000	0.410101
1200.000000	0.410198
1201.000000	0.410344
1202.000000	0.410351
1203.000000	0.410341
1204.000000	0.410314
1205.000000	0.410302
1206.000000	0.410294
1207.000000	0.410374
1208.000000	0.410354
1209.000000	0.410390
1210.000000	0.410476
1211.000000	0.410563
1212.000000	0.410575
1213.000000	0.410725
1214.000000	0.410779
1215.000000	0.410586
1216.000000	0.410573
1217.000000	0.410575
1218.000000	0.410627
1219.000000	0.410832
1220.000000	0.411025
1221.000000	0.411071
1222.000000	0.411173
1223.000000	0.411178
1224.000000	0.411102
1225.000000	0.411088
1226.000000	0.411155
1227.000000	0.411188
1228.000000	0.411309
1229.000000	0.411359
1230.000000	0.411410
1231.000000	0.411404
1232.000000	0.411462
1233.000000	0.411662
1234.000000	0.411916
1235.000000	0.412037
1236.000000	0.412129
1237.000000	0.412201
1238.000000	0.412010
1239.000000	0.412002
1240.000000	0.412130
1241.000000	0.412108
1242.000000	0.412035
1243.000000	0.412163
1244.000000	0.412254
1245.000000	0.412275
1246.000000	0.412292
1247.000000	0.412341
1248.000000	0.412424
1249.000000	0.412415
1250.000000	0.412539
1251.000000	0.412701
1252.000000	0.412724
1253.000000	0.412703
1254.000000	0.412726
1255.000000	0.412634
1256.000000	0.412642
1257.000000	0.412742
1258.000000	0.412875
1259.000000	0.412998
1260.000000	0.413177
1261.000000	0.413384
1262.000000	0.413441
1263.000000	0.413477
1264.000000	0.413407
1265.000000	0.413286
1266.000000	0.413231
1267.000000	0.413257
1268.000000	0.413243
1269.000000	0.413149
1270.000000	0.413136
1271.000000	0.413152
1272.000000	0.413304
1273.000000	0.413544
1274.000000	0.413630
1275.000000	0.413687
1276.000000	0.413693
1277.000000	0.413790
1278.000000	0.413836
1279.000000	0.413831
1280.000000	0.413677
1281.000000	0.413559
1282.000000	0.413367
1283.000000	0.413412
1284.000000	0.413638
1285.000000	0.413722
1286.000000	0.413713
1287.000000	0.413888
1288.000000	0.414119
1289.000000	0.413924
1290.000000	0.413885
1291.000000	0.413913
1292.000000	0.413699
1293.000000	0.413692
1294.000000	0.413713
1295.000000	0.413688
1296.000000	0.413622
1297.000000	0.413549
1298.000000	0.413621
1299.000000	0.413678
1300.000000	0.413751
1301.000000	0.413814
1302.000000	0.413738
1303.000000	0.413666
1304.000000	0.413538
1305.000000	0.413441
1306.000000	0.413318
1307.000000	0.413206
1308.000000	0.413178
1309.000000	0.413222
1310.000000	0.413187
1311.000000	0.413181
1312.000000	0.413131
1313.000000	0.413118
1314.000000	0.412974
1315.000000	0.412778
1316.000000	0.412736
1317.000000	0.412727
1318.000000	0.412635
1319.000000	0.412549
1320.000000	0.412469
1321.000000	0.412115
1322.000000	0.411699
1323.000000	0.411549
1324.000000	0.411365
1325.000000	0.411066
1326.000000	0.411025
1327.000000	0.410952
1328.000000	0.410752
1329.000000	0.410506
1330.000000	0.410232
1331.000000	0.410001
1332.000000	0.409847
1333.000000	0.409629
1334.000000	0.409489
1335.000000	0.409383
1336.000000	0.409164
1337.000000	0.408956
1338.000000	0.408744
1339.000000	0.408616
1340.000000	0.408290
1341.000000	0.408099
1342.000000	0.407986
1343.000000	0.407732
1344.000000	0.407518
1345.000000	0.407284
1346.000000	0.407198
1347.000000	0.406916
1348.000000	0.406591
1349.000000	0.406286
1350.000000	0.405941
1351.000000	0.405582
1352.000000	0.405242
1353.000000	0.405008
1354.000000	0.404685
1355.000000	0.404310
1356.000000	0.404122
1357.000000	0.403915
1358.000000	0.403813
1359.000000	0.403665
1360.000000	0.403430
1361.000000	0.403179
1362.000000	0.402842
1363.000000	0.402323
1364.000000	0.402022
1365.000000	0.401715
1366.000000	0.401501
1367.000000	0.401419
1368.000000	0.401257
1369.000000	0.401174
1370.000000	0.400821
1371.000000	0.400336
1372.000000	0.399964
1373.000000	0.399404
1374.000000	0.398950
1375.000000	0.398693
1376.000000	0.398396
1377.000000	0.398092
1378.000000	0.397782
1379.000000	0.397256
1380.000000	0.396622
1381.000000	0.395970
1382.000000	0.395344
1383.000000	0.394771
1384.000000	0.394038
1385.000000	0.393248
1386.000000	0.392452
1387.000000	0.391550
1388.000000	0.390508
1389.000000	0.389535
1390.000000	0.388637
1391.000000	0.387471
1392.000000	0.386386
1393.000000	0.385335
1394.000000	0.384276
1395.000000	0.383236
1396.000000	0.382420
1397.000000	0.381239
1398.000000	0.379778
1399.000000	0.378429
1400.000000	0.376898
1401.000000	0.375458
1402.000000	0.374154
1403.000000	0.372829
1404.000000	0.371455
1405.000000	0.370013
1406.000000	0.368591
1407.000000	0.367249
1408.000000	0.365785
1409.000000	0.364342
1410.000000	0.362939
1411.000000	0.361351
1412.000000	0.359680
1413.000000	0.358213
1414.000000	0.356742
1415.000000	0.355277
1416.000000	0.353933
1417.000000	0.352611
1418.000000	0.351313
1419.000000	0.350122
1420.000000	0.348850
1421.000000	0.347602
1422.000000	0.346388
1423.000000	0.345174
1424.000000	0.343829
1425.000000	0.342630
1426.000000	0.341418
1427.000000	0.340141
1428.000000	0.338940
1429.000000	0.337721
1430.000000	0.336542
1431.000000	0.335363
1432.000000	0.334296
1433.000000	0.333394
1434.000000	0.332509
1435.000000	0.331765
1436.000000	0.331087
1437.000000	0.330435
1438.000000	0.329821
1439.000000	0.329286
1440.000000	0.328862
1441.000000	0.328628
1442.000000	0.328293
1443.000000	0.327882
1444.000000	0.327645
1445.000000	0.327294
1446.000000	0.326943
1447.000000	0.326876
1448.000000	0.326665
1449.000000	0.326393
1450.000000	0.326239
1451.000000	0.326002
1452.000000	0.325622
1453.000000	0.325237
1454.000000	0.324918
1455.000000	0.324605
1456.000000	0.324434
1457.000000	0.324317
1458.000000	0.324010
1459.000000	0.323706
1460.000000	0.323373
1461.000000	0.322990
1462.000000	0.322732
1463.000000	0.322396
1464.000000	0.322138
1465.000000	0.322030
1466.000000	0.321897
1467.000000	0.321838
1468.000000	0.321783
1469.000000	0.321820
1470.000000	0.321872
1471.000000	0.321986
1472.000000	0.322156
1473.000000	0.322381
1474.000000	0.322486
1475.000000	0.322629
1476.000000	0.322944
1477.000000	0.323208
1478.000000	0.323521
1479.000000	0.323938
1480.000000	0.324306
1481.000000	0.324673
1482.000000	0.325072
1483.000000	0.325617
1484.000000	0.326267
1485.000000	0.326817
1486.000000	0.327390
1487.000000	0.327994
1488.000000	0.328561
1489.000000	0.329166
1490.000000	0.329758
1491.000000	0.330336
1492.000000	0.330783
1493.000000	0.331328
1494.000000	0.331934
1495.000000	0.332440
1496.000000	0.332957
1497.000000	0.333398
1498.000000	0.333729
1499.000000	0.334096
1500.000000	0.334642
1501.000000	0.335101
1502.000000	0.335440
1503.000000	0.335916
1504.000000	0.336282
1505.000000	0.336597
1506.000000	0.337119
1507.000000	0.337505
1508.000000	0.337832
1509.000000	0.338228
1510.000000	0.338558
1511.000000	0.338941
1512.000000	0.339227
1513.000000	0.339383
1514.000000	0.339670
1515.000000	0.339891
1516.000000	0.340082
1517.000000	0.340310
1518.000000	0.340425
1519.000000	0.340547
1520.000000	0.340927
1521.000000	0.341244
1522.000000	0.341465
1523.000000	0.341668
1524.000000	0.341773
1525.000000	0.341996
1526.000000	0.342212
1527.000000	0.342384
1528.000000	0.342541
1529.000000	0.342528
1530.000000	0.342552
1531.000000	0.342753
1532.000000	0.342893
1533.000000	0.343055
1534.000000	0.343253
1535.000000	0.343354
1536.000000	0.343289
1537.000000	0.343286
1538.000000	0.343367
1539.000000	0.343427
1540.000000	0.343601
1541.000000	0.343765
1542.000000	0.343774
1543.000000	0.343838
1544.000000	0.343952
1545.000000	0.344127
1546.000000	0.344332
1547.000000	0.344409
1548.000000	0.344544
1549.000000	0.344636
1550.000000	0.344606
1551.000000	0.344708
1552.000000	0.344897
1553.000000	0.345065
1554.000000	0.345189
1555.000000	0.345263
1556.000000	0.345259
1557.000000	0.345133
1558.000000	0.345141
1559.000000	0.345248
1560.000000	0.345250
1561.000000	0.345245
1562.000000	0.345231
1563.000000	0.345207
1564.000000	0.345201
1565.000000	0.345225
1566.000000	0.345133
1567.000000	0.345096
1568.000000	0.345060
1569.000000	0.345035
1570.000000	0.345033
1571.000000	0.345082
1572.000000	0.345052
1573.000000	0.344983
1574.000000	0.344973
1575.000000	0.344927
1576.000000	0.344954
1577.000000	0.345104
1578.000000	0.345095
1579.000000	0.345079
1580.000000	0.345093
1581.000000	0.345111
1582.000000	0.345089
1583.000000	0.345145
1584.000000	0.345079
1585.000000	0.344974
1586.000000	0.344888
1587.000000	0.344688
1588.000000	0.344641
1589.000000	0.344730
1590.000000	0.344738
1591.000000	0.344837
1592.000000	0.344874
1593.000000	0.344867
1594.000000	0.344793
1595.000000	0.344710
1596.000000	0.344712
1597.000000	0.344666
1598.000000	0.344725
1599.000000	0.344989
1600.000000	0.345115
1601.000000	0.345320
1602.000000	0.345415
1603.000000	0.345496
1604.000000	0.345518
1605.000000	0.345450
1606.000000	0.345468
1607.000000	0.345560
1608.000000	0.345544
1609.000000	0.345548
1610.000000	0.345573
1611.000000	0.345544
1612.000000	0.345619
1613.000000	0.345908
1614.000000	0.346056
1615.000000	0.346312
1616.000000	0.346458
1617.000000	0.346430
1618.000000	0.346518
1619.000000	0.346526
1620.000000	0.346590
1621.000000	0.346746
1622.000000	0.346998
1623.000000	0.347293
1624.000000	0.347521
1625.000000	0.347671
1626.000000	0.347799
1627.000000	0.347837
1628.000000	0.348045
1629.000000	0.348298
1630.000000	0.348625
1631.000000	0.349073
1632.000000	0.349243
1633.000000	0.349304
1634.000000	0.349526
1635.000000	0.349670
1636.000000	0.349889
1637.000000	0.350381
1638.000000	0.350615
1639.000000	0.350676
1640.000000	0.350885
1641.000000	0.351259
1642.000000	0.351397
1643.000000	0.351495
1644.000000	0.351655
1645.000000	0.351672
1646.000000	0.351775
1647.000000	0.352045
1648.000000	0.352216
1649.000000	0.352351
1650.000000	0.352656
1651.000000	0.353180
1652.000000	0.353515
1653.000000	0.353800
1654.000000	0.354112
1655.000000	0.354264
1656.000000	0.354367
1657.000000	0.354555
1658.000000	0.354759
1659.000000	0.354984
1660.000000	0.355297
1661.000000	0.355676
1662.000000	0.355933
1663.000000	0.356061
1664.000000	0.356296
1665.000000	0.356561
1666.000000	0.356827
1667.000000	0.357029
1668.000000	0.357308
1669.000000	0.357576
1670.000000	0.357763
1671.000000	0.358056
1672.000000	0.358458
1673.000000	0.358794
1674.000000	0.359255
1675.000000	0.359743
1676.000000	0.359944
1677.000000	0.360128
1678.000000	0.360272
1679.000000	0.360439
1680.000000	0.360533
1681.000000	0.360665
1682.000000	0.360794
1683.000000	0.360770
1684.000000	0.360877
1685.000000	0.360960
1686.000000	0.360982
1687.000000	0.361187
1688.000000	0.361332
1689.000000	0.361399
1690.000000	0.361358
1691.000000	0.361384
1692.000000	0.361337
1693.000000	0.361278
1694.000000	0.361345
1695.000000	0.361475
1696.000000	0.361584
1697.000000	0.361627
1698.000000	0.361711
1699.000000	0.361797
1700.000000	0.361810
1701.000000	0.361992
1702.000000	0.362075
1703.000000	0.362146
1704.000000	0.362434
1705.000000	0.362557
1706.000000	0.362567
1707.000000	0.362680
1708.000000	0.362755
1709.000000	0.362772
1710.000000	0.362913
1711.000000	0.363080
1712.000000	0.363301
1713.000000	0.363400
1714.000000	0.363563
1715.000000	0.363660
1716.000000	0.363585
1717.000000	0.363597
1718.000000	0.363560
1719.000000	0.363647
1720.000000	0.363898
1721.000000	0.364077
1722.000000	0.364330
1723.000000	0.364559
1724.000000	0.364739
1725.000000	0.365000
1726.000000	0.365257
1727.000000	0.365488
1728.000000	0.365659
1729.000000	0.365751
1730.000000	0.366022
1731.000000	0.366041
1732.000000	0.365825
1733.000000	0.365946
1734.000000	0.365926
1735.000000	0.365999
1736.000000	0.366246
1737.000000	0.366438
1738.000000	0.366571
1739.000000	0.366766
1740.000000	0.367109
1741.000000	0.367205
1742.000000	0.367129
1743.000000	0.367293
1744.000000	0.367449
1745.000000	0.367592
1746.000000	0.367831
1747.000000	0.368096
1748.000000	0.368113
1749.000000	0.367931
1750.000000	0.367876
1751.000000	0.367797
1752.000000	0.367927
1753.000000	0.368222
1754.000000	0.368431
1755.000000	0.368602
1756.000000	0.368706
1757.000000	0.368777
1758.000000	0.368824
1759.000000	0.368680
1760.000000	0.368728
1761.000000	0.368896
1762.000000	0.368927
1763.000000	0.369007
1764.000000	0.369082
1765.000000	0.369046
1766.000000	0.368983
1767.000000	0.368783
1768.000000	0.368714
1769.000000	0.368673
1770.000000	0.368807
1771.000000	0.369175
1772.000000	0.369365
1773.000000	0.369460
1774.000000	0.369592
1775.000000	0.369747
1776.000000	0.369925
1777.000000	0.370061
1778.000000	0.370260
1779.000000	0.370527
1780.000000	0.370672
1781.000000	0.370727
1782.000000	0.370920
1783.000000	0.371155
1784.000000	0.371428
1785.000000	0.371595
1786.000000	0.371856
1787.000000	0.372187
1788.000000	0.372494
1789.000000	0.372758
1790.000000	0.372760
1791.000000	0.372729
1792.000000	0.372731
1793.000000	0.372787
1794.000000	0.372790
1795.000000	0.372935
1796.000000	0.373306
1797.000000	0.373456
1798.000000	0.373592
1799.000000	0.373619
1800.000000	0.373347
1801.000000	0.373679
1802.000000	0.373681
1803.000000	0.373199
1804.000000	0.373957
1805.000000	0.376383
1806.000000	0.376723
1807.000000	0.377057
1808.000000	0.376811
1809.000000	0.375637
1810.000000	0.372387
1811.000000	0.371634
1812.000000	0.371682
1813.000000	0.372057
1814.000000	0.373858
1815.000000	0.374482
1816.000000	0.374883
1817.000000	0.375229
1818.000000	0.375104
1819.000000	0.375410
1820.000000	0.375725
1821.000000	0.375463
1822.000000	0.375659
1823.000000	0.375817
1824.000000	0.375574
1825.000000	0.375459
1826.000000	0.375333
1827.000000	0.374842
1828.000000	0.373680
1829.000000	0.373841
1830.000000	0.373869
1831.000000	0.373516
1832.000000	0.372879
1833.000000	0.372815
1834.000000	0.372814
1835.000000	0.372611
1836.000000	0.372598
1837.000000	0.372654
1838.000000	0.372441
1839.000000	0.371907
1840.000000	0.372405
1841.000000	0.372408
1842.000000	0.372066
1843.000000	0.371226
1844.000000	0.370763
1845.000000	0.370044
1846.000000	0.369644
1847.000000	0.369332
1848.000000	0.369045
1849.000000	0.368991
1850.000000	0.367762
1851.000000	0.366951
1852.000000	0.365876
1853.000000	0.365270
1854.000000	0.364481
1855.000000	0.363885
1856.000000	0.363517
1857.000000	0.363099
1858.000000	0.362509
1859.000000	0.362572
1860.000000	0.362207
1861.000000	0.361373
1862.000000	0.360385
1863.000000	0.359044
1864.000000	0.357817
1865.000000	0.356823
1866.000000	0.355238
1867.000000	0.353304
1868.000000	0.350997
1869.000000	0.348851
1870.000000	0.346791
1871.000000	0.345188
1872.000000	0.343286
1873.000000	0.341270
1874.000000	0.339090
1875.000000	0.336693
1876.000000	0.333798
1877.000000	0.330993
1878.000000	0.327921
1879.000000	0.324434
1880.000000	0.321295
1881.000000	0.317705
1882.000000	0.314175
1883.000000	0.310682
1884.000000	0.306828
1885.000000	0.302406
1886.000000	0.298318
1887.000000	0.294159
1888.000000	0.289358
1889.000000	0.285514
1890.000000	0.281809
1891.000000	0.277642
1892.000000	0.273622
1893.000000	0.269240
1894.000000	0.264452
1895.000000	0.259702
1896.000000	0.254954
1897.000000	0.250635
1898.000000	0.245930
1899.000000	0.241460
1900.000000	0.237346
1901.000000	0.232462
1902.000000	0.228160
1903.000000	0.223853
1904.000000	0.219859
1905.000000	0.216710
1906.000000	0.213041
1907.000000	0.209065
1908.000000	0.205882
1909.000000	0.203090
1910.000000	0.200051
1911.000000	0.197747
1912.000000	0.195453
1913.000000	0.192645
1914.000000	0.189905
1915.000000	0.187570
1916.000000	0.185195
1917.000000	0.183061
1918.000000	0.181306
1919.000000	0.179642
1920.000000	0.177597
1921.000000	0.176418
1922.000000	0.175672
1923.000000	0.175061
1924.000000	0.174981
1925.000000	0.174535
1926.000000	0.174125
1927.000000	0.173979
1928.000000	0.173573
1929.000000	0.172981
1930.000000	0.173057
1931.000000	0.173403
1932.000000	0.173227
1933.000000	0.173765
1934.000000	0.173996
1935.000000	0.173085
1936.000000	0.172906
1937.000000	0.173113
1938.000000	0.173337
1939.000000	0.173496
1940.000000	0.174179
1941.000000	0.174116
1942.000000	0.173319
1943.000000	0.172317
1944.000000	0.171357
1945.000000	0.171049
1946.000000	0.171267
1947.000000	0.171147
1948.000000	0.171109
1949.000000	0.170640
1950.000000	0.170026
1951.000000	0.169574
1952.000000	0.169394
1953.000000	0.168844
1954.000000	0.169040
1955.000000	0.168876
1956.000000	0.168298
1957.000000	0.168036
1958.000000	0.167293
1959.000000	0.166862
1960.000000	0.166682
1961.000000	0.166952
1962.000000	0.167042
1963.000000	0.167319
1964.000000	0.167149
1965.000000	0.167044
1966.000000	0.166940
1967.000000	0.166910
1968.000000	0.166901
1969.000000	0.166944
1970.000000	0.166562
1971.000000	0.165934
1972.000000	0.165643
1973.000000	0.165473
1974.000000	0.165732
1975.000000	0.165834
1976.000000	0.166044
1977.000000	0.166001
1978.000000	0.166452
1979.000000	0.166593
1980.000000	0.166765
1981.000000	0.167588
1982.000000	0.168437
1983.000000	0.169202
1984.000000	0.169939
1985.000000	0.171210
1986.000000	0.171943
1987.000000	0.172400
1988.000000	0.172515
1989.000000	0.172924
1990.000000	0.173021
1991.000000	0.172990
1992.000000	0.173441
1993.000000	0.174255
1994.000000	0.175416
1995.000000	0.176607
1996.000000	0.178308
1997.000000	0.179515
1998.000000	0.180168
1999.000000	0.181256
2000.000000	0.182557
2001.000000	0.183600
2002.000000	0.184386
2003.000000	0.185997
2004.000000	0.187152
2005.000000	0.187175
2006.000000	0.187848
2007.000000	0.188516
2008.000000	0.189078
2009.000000	0.189366
2010.000000	0.190195
2011.000000	0.191101
2012.000000	0.192147
2013.000000	0.193160
2014.000000	0.194905
2015.000000	0.196823
2016.000000	0.198168
2017.000000	0.199951
2018.000000	0.201306
2019.000000	0.202202
2020.000000	0.203146
2021.000000	0.204212
2022.000000	0.205192
2023.000000	0.206352
2024.000000	0.207642
2025.000000	0.209129
2026.000000	0.210857
2027.000000	0.212030
2028.000000	0.213618
2029.000000	0.215003
2030.000000	0.215495
2031.000000	0.216024
2032.000000	0.216753
2033.000000	0.217688
2034.000000	0.218700
2035.000000	0.220420
2036.000000	0.221441
2037.000000	0.222397
2038.000000	0.223108
2039.000000	0.223457
2040.000000	0.223846
2041.000000	0.224959
2042.000000	0.225645
2043.000000	0.226127
2044.000000	0.227332
2045.000000	0.228050
2046.000000	0.228593
2047.000000	0.229690
2048.000000	0.231542
2049.000000	0.232835
2050.000000	0.234018
2051.000000	0.234803
2052.000000	0.234539
2053.000000	0.235061
2054.000000	0.235859
2055.000000	0.236999
2056.000000	0.238544
2057.000000	0.240711
2058.000000	0.241646
2059.000000	0.241725
2060.000000	0.242208
2061.000000	0.242088
2062.000000	0.242475
2063.000000	0.243399
2064.000000	0.244206
2065.000000	0.244989
2066.000000	0.245953
2067.000000	0.247600
2068.000000	0.248794
2069.000000	0.249692
2070.000000	0.250662
2071.000000	0.250793
2072.000000	0.250812
2073.000000	0.251242
2074.000000	0.251561
2075.000000	0.252311
2076.000000	0.253546
2077.000000	0.254695
2078.000000	0.256138
2079.000000	0.257339
2080.000000	0.258542
2081.000000	0.259689
2082.000000	0.260886
2083.000000	0.261803
2084.000000	0.262457
2085.000000	0.263153
2086.000000	0.263267
2087.000000	0.263663
2088.000000	0.264797
2089.000000	0.265995
2090.000000	0.267166
2091.000000	0.269025
2092.000000	0.270092
2093.000000	0.270743
2094.000000	0.271288
2095.000000	0.271094
2096.000000	0.271696
2097.000000	0.272383
2098.000000	0.273269
2099.000000	0.274806
2100.000000	0.276870
2101.000000	0.277967
2102.000000	0.279243
2103.000000	0.280142
2104.000000	0.280407
2105.000000	0.281329
2106.000000	0.282742
2107.000000	0.283516
2108.000000	0.284296
2109.000000	0.284887
2110.000000	0.284842
2111.000000	0.285040
2112.000000	0.285135
2113.000000	0.285075
2114.000000	0.285772
2115.000000	0.286102
2116.000000	0.286573
2117.000000	0.287470
2118.000000	0.288433
2119.000000	0.288203
2120.000000	0.288196
2121.000000	0.288017
2122.000000	0.288300
2123.000000	0.288375
2124.000000	0.288900
2125.000000	0.290283
2126.000000	0.290930
2127.000000	0.290995
2128.000000	0.291807
2129.000000	0.293253
2130.000000	0.293643
2131.000000	0.294098
2132.000000	0.294445
2133.000000	0.293971
2134.000000	0.293934
2135.000000	0.293843
2136.000000	0.293876
2137.000000	0.293748
2138.000000	0.293303
2139.000000	0.292986
2140.000000	0.292672
2141.000000	0.292427
2142.000000	0.292169
2143.000000	0.291927
2144.000000	0.291795
2145.000000	0.292164
2146.000000	0.293141
2147.000000	0.293643
2148.000000	0.294739
2149.000000	0.295971
2150.000000	0.295714
2151.000000	0.296150
2152.000000	0.296959
2153.000000	0.296561
2154.000000	0.296862
2155.000000	0.297955
2156.000000	0.298231
2157.000000	0.298282
2158.000000	0.298128
2159.000000	0.297390
2160.000000	0.297190
2161.000000	0.296636
2162.000000	0.296812
2163.000000	0.298251
2164.000000	0.298539
2165.000000	0.298381
2166.000000	0.298494
2167.000000	0.297827
2168.000000	0.296979
2169.000000	0.297220
2170.000000	0.297361
2171.000000	0.296980
2172.000000	0.296230
2173.000000	0.295728
2174.000000	0.294787
2175.000000	0.294502
2176.000000	0.295107
2177.000000	0.295168
2178.000000	0.295096
2179.000000	0.294977
2180.000000	0.294419
2181.000000	0.294516
2182.000000	0.294166
2183.000000	0.294434
2184.000000	0.295135
2185.000000	0.295362
2186.000000	0.295626
2187.000000	0.295785
2188.000000	0.295616
2189.000000	0.295388
2190.000000	0.295912
2191.000000	0.296689
2192.000000	0.296711
2193.000000	0.296838
2194.000000	0.296110
2195.000000	0.293915
2196.000000	0.293098
2197.000000	0.291900
2198.000000	0.291679
2199.000000	0.293085
2200.000000	0.293694
2201.000000	0.295032
2202.000000	0.295795
2203.000000	0.296106
2204.000000	0.295918
2205.000000	0.293834
2206.000000	0.293058
2207.000000	0.293153
2208.000000	0.291734
2209.000000	0.291973
2210.000000	0.293024
2211.000000	0.293097
2212.000000	0.294387
2213.000000	0.294845
2214.000000	0.293999
2215.000000	0.295780
2216.000000	0.299129
2217.000000	0.301209
2218.000000	0.306305
2219.000000	0.306854
2220.000000	0.303377
2221.000000	0.301637
2222.000000	0.297328
2223.000000	0.296223
2224.000000	0.297350
2225.000000	0.298389
2226.000000	0.298808
2227.000000	0.298735
2228.000000	0.297354
2229.000000	0.295750
2230.000000	0.294913
2231.000000	0.295968
2232.000000	0.299886
2233.000000	0.301498
2234.000000	0.303672
2235.000000	0.306324
2236.000000	0.306409
2237.000000	0.304075
2238.000000	0.302711
2239.000000	0.299342
2240.000000	0.298721
2241.000000	0.298198
2242.000000	0.299418
2243.000000	0.304815
2244.000000	0.306641
2245.000000	0.308758
2246.000000	0.308754
2247.000000	0.304287
2248.000000	0.302698
2249.000000	0.301940
2250.000000	0.299970
2251.000000	0.300794
2252.000000	0.300411
2253.000000	0.299066
2254.000000	0.301590
2255.000000	0.302285
2256.000000	0.301449
2257.000000	0.301195
2258.000000	0.298478
2259.000000	0.295810
2260.000000	0.296294
2261.000000	0.294988
2262.000000	0.292112
2263.000000	0.291498
2264.000000	0.292105
2265.000000	0.291964
2266.000000	0.293318
2267.000000	0.293322
2268.000000	0.291757
2269.000000	0.291297
2270.000000	0.291303
2271.000000	0.290638
2272.000000	0.290182
2273.000000	0.288705
2274.000000	0.286004
2275.000000	0.284301
2276.000000	0.282914
2277.000000	0.280707
2278.000000	0.280601
2279.000000	0.278495
2280.000000	0.274637
2281.000000	0.274313
2282.000000	0.272033
2283.000000	0.270929
2284.000000	0.272920
2285.000000	0.273471
2286.000000	0.274881
2287.000000	0.275375
2288.000000	0.274118
2289.000000	0.272953
2290.000000	0.272537
2291.000000	0.272587
2292.000000	0.272579
2293.000000	0.272865
2294.000000	0.271981
2295.000000	0.268914
2296.000000	0.268143
2297.000000	0.267557
2298.000000	0.267663
2299.000000	0.270821
2300.000000	0.270880
2301.000000	0.268012
2302.000000	0.268363
2303.000000	0.268500
2304.000000	0.268947
2305.000000	0.273709
2306.000000	0.274439
2307.000000	0.272352
2308.000000	0.271708
2309.000000	0.267344
2310.000000	0.263106
2311.000000	0.262604
2312.000000	0.260076
2313.000000	0.260688
2314.000000	0.264111
2315.000000	0.263601
2316.000000	0.261692
2317.000000	0.260441
2318.000000	0.256728
2319.000000	0.255126
2320.000000	0.256451
2321.000000	0.257020
2322.000000	0.257256
2323.000000	0.255077
2324.000000	0.253492
2325.000000	0.251967
2326.000000	0.249895
2327.000000	0.249940
2328.000000	0.248768
2329.000000	0.245547
2330.000000	0.243495
2331.000000	0.242999
2332.000000	0.241954
2333.000000	0.242050
2334.000000	0.244060
2335.000000	0.245584
2336.000000	0.247713
2337.000000	0.247342
2338.000000	0.245258
2339.000000	0.243402
2340.000000	0.238168
2341.000000	0.236731
2342.000000	0.239682
2343.000000	0.240260
2344.000000	0.242273
2345.000000	0.241075
2346.000000	0.235253
2347.000000	0.231522
2348.000000	0.227453
2349.000000	0.223762
2350.000000	0.219829
2351.000000	0.217672
2352.000000	0.215696
2353.000000	0.212090
2354.000000	0.210613
2355.000000	0.213182
2356.000000	0.212933
2357.000000	0.214098
2358.000000	0.216088
2359.000000	0.212949
2360.000000	0.212166
2361.000000	0.213027
2362.000000	0.212208
2363.000000	0.211429
2364.000000	0.207817
2365.000000	0.203784
2366.000000	0.200070
2367.000000	0.196122
2368.000000	0.195651
2369.000000	0.194384
2370.000000	0.189965
2371.000000	0.191277
2372.000000	0.191711
2373.000000	0.188778
2374.000000	0.190963
2375.000000	0.188796
2376.000000	0.189728
2377.000000	0.195829
2378.000000	0.197475
2379.000000	0.200779
2380.000000	0.198159
2381.000000	0.191958
2382.000000	0.189027
2383.000000	0.186770
2384.000000	0.187301
2385.000000	0.188720
2386.000000	0.186082
2387.000000	0.185893
2388.000000	0.190039
2389.000000	0.186598
2390.000000	0.187681
2391.000000	0.191531
2392.000000	0.186352
2393.000000	0.184155
2394.000000	0.181640
2395.000000	0.176777
2396.000000	0.171777
2397.000000	0.170571
2398.000000	0.169120
2399.000000	0.157884
2400.000000	0.157450
2401.000000	0.157109
2402.000000	0.151122
2403.000000	0.159068
2404.000000	0.161351
2405.000000	0.159995
2406.000000	0.160871
2407.000000	0.158329
2408.000000	0.159204
2409.000000	0.158474
2410.000000	0.165352
2411.000000	0.172417
2412.000000	0.169734
2413.000000	0.167963
2414.000000	0.161548
2415.000000	0.148192
2416.000000	0.150087
2417.000000	0.160265
2418.000000	0.159904
2419.000000	0.168444
2420.000000	0.167456
2421.000000	0.156151
2422.000000	0.158406
2423.000000	0.155248
2424.000000	0.156294
2425.000000	0.168518
2426.000000	0.172413
2427.000000	0.172574
2428.000000	0.169830
2429.000000	0.155259
2430.000000	0.141098
2431.000000	0.135194
2432.000000	0.135018
2433.000000	0.141800
2434.000000	0.148344
2435.000000	0.148040
2436.000000	0.151261
2437.000000	0.159800
2438.000000	0.159698
2439.000000	0.150024
2440.000000	0.139224
2441.000000	0.120276
2442.000000	0.103240
2443.000000	0.100407
2444.000000	0.097586
2445.000000	0.105885
2446.000000	0.111870
2447.000000	0.123089
2448.000000	0.150078
2449.000000	0.161325
2450.000000	0.167307
2451.000000	0.164136
2452.000000	0.153458
2453.000000	0.152052
2454.000000	0.163201
2455.000000	0.174487
2456.000000	0.180787
2457.000000	0.174820
2458.000000	0.150007
2459.000000	0.127626
2460.000000	0.109575
2461.000000	0.103529
2462.000000	0.109702
2463.000000	0.122760
2464.000000	0.130501
2465.000000	0.124730
2466.000000	0.120452
2467.000000	0.106402
2468.000000	0.076760
2469.000000	0.046946
2470.000000	0.028902
2471.000000	0.028776
2472.000000	0.047353
2473.000000	0.085401
2474.000000	0.117418
2475.000000	0.139570
2476.000000	0.159845
2477.000000	0.147605
2478.000000	0.120777
2479.000000	0.104580
2480.000000	0.103889
2481.000000	0.129843
2482.000000	0.145378
2483.000000	0.124818
2484.000000	0.071602
2485.000000	0.061031
2486.000000	0.082916
2487.000000	0.070882
2488.000000	0.099151
2489.000000	0.063392
2490.000000	-0.007836
2491.000000	0.031752
2492.000000	0.052254
2493.000000	0.114692
2494.000000	0.151834
2495.000000	0.151215
2496.000000	0.158957
2497.000000	0.175508
2498.000000	0.164357
2499.000000	0.126841
2500.000000	0.116901
