# Wavelength	Nau-2_20_FV7_80_00002.asd.rts.txt
350.000000	0.148759
351.000000	0.182084
352.000000	0.179444
353.000000	0.173796
354.000000	0.182831
355.000000	0.180974
356.000000	0.177713
357.000000	0.177418
358.000000	0.178880
359.000000	0.177629
360.000000	0.177338
361.000000	0.181497
362.000000	0.180901
363.000000	0.174505
364.000000	0.166307
365.000000	0.172971
366.000000	0.177738
367.000000	0.174881
368.000000	0.167274
369.000000	0.167524
370.000000	0.172558
371.000000	0.174259
372.000000	0.169034
373.000000	0.165803
374.000000	0.170709
375.000000	0.179314
376.000000	0.183452
377.000000	0.182264
378.000000	0.181622
379.000000	0.179709
380.000000	0.177567
381.000000	0.177507
382.000000	0.181043
383.000000	0.182169
384.000000	0.178794
385.000000	0.180218
386.000000	0.182515
387.000000	0.183900
388.000000	0.184391
389.000000	0.184612
390.000000	0.184493
391.000000	0.183686
392.000000	0.184471
393.000000	0.185210
394.000000	0.184733
395.000000	0.185079
396.000000	0.185389
397.000000	0.185401
398.000000	0.185719
399.000000	0.186623
400.000000	0.187421
401.000000	0.186951
402.000000	0.186361
403.000000	0.186225
404.000000	0.186837
405.000000	0.187390
406.000000	0.188314
407.000000	0.189456
408.000000	0.189390
409.000000	0.189331
410.000000	0.189670
411.000000	0.190343
412.000000	0.189997
413.000000	0.189388
414.000000	0.189603
415.000000	0.190527
416.000000	0.191323
417.000000	0.191538
418.000000	0.191483
419.000000	0.191532
420.000000	0.191854
421.000000	0.192467
422.000000	0.192667
423.000000	0.192828
424.000000	0.193642
425.000000	0.194585
426.000000	0.195201
427.000000	0.195277
428.000000	0.195194
429.000000	0.195333
430.000000	0.195769
431.000000	0.196245
432.000000	0.196111
433.000000	0.195920
434.000000	0.196813
435.000000	0.197144
436.000000	0.196921
437.000000	0.196651
438.000000	0.197742
439.000000	0.198144
440.000000	0.197297
441.000000	0.197394
442.000000	0.198016
443.000000	0.198643
444.000000	0.198661
445.000000	0.198745
446.000000	0.199035
447.000000	0.199359
448.000000	0.199642
449.000000	0.199826
450.000000	0.200009
451.000000	0.200774
452.000000	0.201182
453.000000	0.201080
454.000000	0.201355
455.000000	0.201989
456.000000	0.202616
457.000000	0.202608
458.000000	0.202967
459.000000	0.203274
460.000000	0.203211
461.000000	0.203682
462.000000	0.204241
463.000000	0.204540
464.000000	0.204867
465.000000	0.205256
466.000000	0.205662
467.000000	0.206091
468.000000	0.205906
469.000000	0.205670
470.000000	0.206203
471.000000	0.206608
472.000000	0.206797
473.000000	0.206892
474.000000	0.207278
475.000000	0.207468
476.000000	0.207534
477.000000	0.207870
478.000000	0.208244
479.000000	0.208623
480.000000	0.208769
481.000000	0.208973
482.000000	0.209277
483.000000	0.209515
484.000000	0.209908
485.000000	0.210183
486.000000	0.210368
487.000000	0.210560
488.000000	0.210715
489.000000	0.210890
490.000000	0.211192
491.000000	0.211535
492.000000	0.211738
493.000000	0.211604
494.000000	0.211977
495.000000	0.212386
496.000000	0.212484
497.000000	0.212836
498.000000	0.213192
499.000000	0.213486
500.000000	0.213684
501.000000	0.213888
502.000000	0.214142
503.000000	0.214383
504.000000	0.214489
505.000000	0.214656
506.000000	0.215031
507.000000	0.215203
508.000000	0.215380
509.000000	0.215647
510.000000	0.215912
511.000000	0.216201
512.000000	0.216513
513.000000	0.216776
514.000000	0.217231
515.000000	0.217699
516.000000	0.217870
517.000000	0.218157
518.000000	0.218564
519.000000	0.218953
520.000000	0.219228
521.000000	0.219543
522.000000	0.219938
523.000000	0.220258
524.000000	0.220669
525.000000	0.221106
526.000000	0.221434
527.000000	0.221973
528.000000	0.222566
529.000000	0.223045
530.000000	0.223586
531.000000	0.224176
532.000000	0.224720
533.000000	0.225235
534.000000	0.225837
535.000000	0.226499
536.000000	0.227078
537.000000	0.227643
538.000000	0.228192
539.000000	0.228698
540.000000	0.229295
541.000000	0.229864
542.000000	0.230330
543.000000	0.230833
544.000000	0.231336
545.000000	0.231795
546.000000	0.232379
547.000000	0.232927
548.000000	0.233469
549.000000	0.234084
550.000000	0.234684
551.000000	0.235269
552.000000	0.235837
553.000000	0.236565
554.000000	0.237275
555.000000	0.237875
556.000000	0.238644
557.000000	0.239355
558.000000	0.240052
559.000000	0.240820
560.000000	0.241537
561.000000	0.242240
562.000000	0.242909
563.000000	0.243630
564.000000	0.244337
565.000000	0.244897
566.000000	0.245661
567.000000	0.246352
568.000000	0.246830
569.000000	0.247395
570.000000	0.247947
571.000000	0.248442
572.000000	0.248892
573.000000	0.249362
574.000000	0.249787
575.000000	0.250124
576.000000	0.250584
577.000000	0.250970
578.000000	0.251203
579.000000	0.251556
580.000000	0.251874
581.000000	0.252103
582.000000	0.252373
583.000000	0.252574
584.000000	0.252730
585.000000	0.252945
586.000000	0.253055
587.000000	0.253209
588.000000	0.253548
589.000000	0.253671
590.000000	0.253712
591.000000	0.253798
592.000000	0.253935
593.000000	0.254003
594.000000	0.254017
595.000000	0.254144
596.000000	0.254153
597.000000	0.254146
598.000000	0.254238
599.000000	0.254180
600.000000	0.254089
601.000000	0.254041
602.000000	0.254079
603.000000	0.254075
604.000000	0.254007
605.000000	0.254011
606.000000	0.253983
607.000000	0.253925
608.000000	0.253895
609.000000	0.253826
610.000000	0.253759
611.000000	0.253743
612.000000	0.253676
613.000000	0.253607
614.000000	0.253600
615.000000	0.253608
616.000000	0.253568
617.000000	0.253466
618.000000	0.253427
619.000000	0.253358
620.000000	0.253311
621.000000	0.253417
622.000000	0.253372
623.000000	0.253274
624.000000	0.253239
625.000000	0.253184
626.000000	0.253073
627.000000	0.252943
628.000000	0.252960
629.000000	0.253039
630.000000	0.253058
631.000000	0.253105
632.000000	0.253207
633.000000	0.253313
634.000000	0.253361
635.000000	0.253433
636.000000	0.253536
637.000000	0.253636
638.000000	0.253668
639.000000	0.253695
640.000000	0.253766
641.000000	0.253786
642.000000	0.253790
643.000000	0.253798
644.000000	0.253843
645.000000	0.254005
646.000000	0.254199
647.000000	0.254334
648.000000	0.254466
649.000000	0.254623
650.000000	0.254789
651.000000	0.254941
652.000000	0.255133
653.000000	0.255335
654.000000	0.255422
655.000000	0.255606
656.000000	0.255878
657.000000	0.256130
658.000000	0.256332
659.000000	0.256521
660.000000	0.256718
661.000000	0.256966
662.000000	0.257219
663.000000	0.257491
664.000000	0.257738
665.000000	0.257992
666.000000	0.258229
667.000000	0.258414
668.000000	0.258703
669.000000	0.259024
670.000000	0.259332
671.000000	0.259649
672.000000	0.259996
673.000000	0.260382
674.000000	0.260825
675.000000	0.261238
676.000000	0.261632
677.000000	0.262064
678.000000	0.262552
679.000000	0.263024
680.000000	0.263456
681.000000	0.263927
682.000000	0.264401
683.000000	0.264824
684.000000	0.265320
685.000000	0.265792
686.000000	0.266273
687.000000	0.266782
688.000000	0.267270
689.000000	0.267802
690.000000	0.268429
691.000000	0.268997
692.000000	0.269491
693.000000	0.270002
694.000000	0.270585
695.000000	0.271136
696.000000	0.271676
697.000000	0.272266
698.000000	0.272836
699.000000	0.273365
700.000000	0.273865
701.000000	0.274381
702.000000	0.274960
703.000000	0.275574
704.000000	0.276149
705.000000	0.276736
706.000000	0.277308
707.000000	0.277892
708.000000	0.278495
709.000000	0.279077
710.000000	0.279637
711.000000	0.280253
712.000000	0.280869
713.000000	0.281475
714.000000	0.282074
715.000000	0.282646
716.000000	0.283228
717.000000	0.283848
718.000000	0.284456
719.000000	0.285068
720.000000	0.285706
721.000000	0.286288
722.000000	0.286777
723.000000	0.287250
724.000000	0.287783
725.000000	0.288321
726.000000	0.288933
727.000000	0.289573
728.000000	0.290212
729.000000	0.290826
730.000000	0.291363
731.000000	0.291929
732.000000	0.292444
733.000000	0.292941
734.000000	0.293494
735.000000	0.293987
736.000000	0.294503
737.000000	0.294960
738.000000	0.295400
739.000000	0.295921
740.000000	0.296406
741.000000	0.296836
742.000000	0.297315
743.000000	0.297822
744.000000	0.298276
745.000000	0.298654
746.000000	0.299042
747.000000	0.299454
748.000000	0.299845
749.000000	0.300214
750.000000	0.300541
751.000000	0.300866
752.000000	0.301219
753.000000	0.301605
754.000000	0.301983
755.000000	0.302281
756.000000	0.302515
757.000000	0.302705
758.000000	0.303059
759.000000	0.303427
760.000000	0.303660
761.000000	0.303931
762.000000	0.304191
763.000000	0.304440
764.000000	0.304779
765.000000	0.305067
766.000000	0.305304
767.000000	0.305514
768.000000	0.305704
769.000000	0.305897
770.000000	0.306114
771.000000	0.306359
772.000000	0.306569
773.000000	0.306701
774.000000	0.306862
775.000000	0.306988
776.000000	0.307084
777.000000	0.307148
778.000000	0.307199
779.000000	0.307242
780.000000	0.307266
781.000000	0.307226
782.000000	0.307245
783.000000	0.307394
784.000000	0.307532
785.000000	0.307657
786.000000	0.307812
787.000000	0.307991
788.000000	0.308101
789.000000	0.308255
790.000000	0.308415
791.000000	0.308516
792.000000	0.308617
793.000000	0.308692
794.000000	0.308730
795.000000	0.308796
796.000000	0.308830
797.000000	0.308787
798.000000	0.308654
799.000000	0.308631
800.000000	0.308691
801.000000	0.308755
802.000000	0.308881
803.000000	0.309009
804.000000	0.309106
805.000000	0.309061
806.000000	0.309030
807.000000	0.309070
808.000000	0.309046
809.000000	0.309091
810.000000	0.309137
811.000000	0.309094
812.000000	0.308946
813.000000	0.308879
814.000000	0.308897
815.000000	0.308856
816.000000	0.308801
817.000000	0.308759
818.000000	0.308673
819.000000	0.308602
820.000000	0.308547
821.000000	0.308468
822.000000	0.308429
823.000000	0.308358
824.000000	0.308233
825.000000	0.308183
826.000000	0.308260
827.000000	0.308270
828.000000	0.308179
829.000000	0.308188
830.000000	0.308179
831.000000	0.308154
832.000000	0.308022
833.000000	0.308038
834.000000	0.308103
835.000000	0.308128
836.000000	0.308087
837.000000	0.308043
838.000000	0.308006
839.000000	0.307910
840.000000	0.307882
841.000000	0.307843
842.000000	0.307675
843.000000	0.307511
844.000000	0.307357
845.000000	0.307197
846.000000	0.307079
847.000000	0.306983
848.000000	0.306855
849.000000	0.306707
850.000000	0.306685
851.000000	0.306713
852.000000	0.306739
853.000000	0.306646
854.000000	0.306515
855.000000	0.306471
856.000000	0.306425
857.000000	0.306246
858.000000	0.306092
859.000000	0.305931
860.000000	0.305612
861.000000	0.305456
862.000000	0.305460
863.000000	0.305419
864.000000	0.305402
865.000000	0.305313
866.000000	0.305148
867.000000	0.305004
868.000000	0.304869
869.000000	0.304680
870.000000	0.304474
871.000000	0.304311
872.000000	0.304066
873.000000	0.303732
874.000000	0.303805
875.000000	0.303767
876.000000	0.303589
877.000000	0.303370
878.000000	0.303100
879.000000	0.302941
880.000000	0.302862
881.000000	0.302961
882.000000	0.302928
883.000000	0.302737
884.000000	0.302442
885.000000	0.302259
886.000000	0.302149
887.000000	0.302079
888.000000	0.301999
889.000000	0.301839
890.000000	0.301521
891.000000	0.301215
892.000000	0.300962
893.000000	0.300712
894.000000	0.300500
895.000000	0.300107
896.000000	0.299873
897.000000	0.299707
898.000000	0.299424
899.000000	0.299287
900.000000	0.299000
901.000000	0.298534
902.000000	0.298405
903.000000	0.298215
904.000000	0.298123
905.000000	0.298214
906.000000	0.298129
907.000000	0.298027
908.000000	0.297945
909.000000	0.297602
910.000000	0.297288
911.000000	0.297033
912.000000	0.296792
913.000000	0.296418
914.000000	0.296060
915.000000	0.295829
916.000000	0.295626
917.000000	0.295395
918.000000	0.295142
919.000000	0.294889
920.000000	0.294752
921.000000	0.294516
922.000000	0.294188
923.000000	0.293878
924.000000	0.293678
925.000000	0.293492
926.000000	0.293282
927.000000	0.293028
928.000000	0.292789
929.000000	0.292459
930.000000	0.291982
931.000000	0.291844
932.000000	0.291598
933.000000	0.291210
934.000000	0.291032
935.000000	0.290762
936.000000	0.290534
937.000000	0.290354
938.000000	0.289928
939.000000	0.289701
940.000000	0.289549
941.000000	0.289194
942.000000	0.288905
943.000000	0.288697
944.000000	0.288463
945.000000	0.288362
946.000000	0.288112
947.000000	0.287806
948.000000	0.287549
949.000000	0.287226
950.000000	0.286880
951.000000	0.286569
952.000000	0.286477
953.000000	0.286478
954.000000	0.286307
955.000000	0.285825
956.000000	0.285514
957.000000	0.285398
958.000000	0.285356
959.000000	0.285272
960.000000	0.284788
961.000000	0.284406
962.000000	0.284247
963.000000	0.283981
964.000000	0.283930
965.000000	0.283724
966.000000	0.283075
967.000000	0.282841
968.000000	0.282871
969.000000	0.282841
970.000000	0.282515
971.000000	0.282113
972.000000	0.281936
973.000000	0.281859
974.000000	0.281430
975.000000	0.281259
976.000000	0.281033
977.000000	0.280516
978.000000	0.280284
979.000000	0.280184
980.000000	0.279947
981.000000	0.279726
982.000000	0.279479
983.000000	0.279333
984.000000	0.279306
985.000000	0.279148
986.000000	0.278691
987.000000	0.278460
988.000000	0.278605
989.000000	0.278543
990.000000	0.278603
991.000000	0.278632
992.000000	0.278440
993.000000	0.278208
994.000000	0.277915
995.000000	0.277763
996.000000	0.277694
997.000000	0.277441
998.000000	0.277140
999.000000	0.277032
1000.000000	0.277172
1001.000000	0.277474
1002.000000	0.277195
1003.000000	0.276676
1004.000000	0.276774
1005.000000	0.277641
1006.000000	0.277751
1007.000000	0.277809
1008.000000	0.278049
1009.000000	0.277645
1010.000000	0.276727
1011.000000	0.276372
1012.000000	0.276340
1013.000000	0.276269
1014.000000	0.276718
1015.000000	0.277131
1016.000000	0.276658
1017.000000	0.276313
1018.000000	0.276273
1019.000000	0.276100
1020.000000	0.276190
1021.000000	0.275824
1022.000000	0.275321
1023.000000	0.274989
1024.000000	0.274080
1025.000000	0.273966
1026.000000	0.274512
1027.000000	0.274830
1028.000000	0.275743
1029.000000	0.276400
1030.000000	0.276175
1031.000000	0.276177
1032.000000	0.276346
1033.000000	0.276475
1034.000000	0.276375
1035.000000	0.276297
1036.000000	0.276217
1037.000000	0.275753
1038.000000	0.275533
1039.000000	0.275548
1040.000000	0.275952
1041.000000	0.276080
1042.000000	0.275891
1043.000000	0.276192
1044.000000	0.276320
1045.000000	0.276261
1046.000000	0.276404
1047.000000	0.276774
1048.000000	0.277402
1049.000000	0.277643
1050.000000	0.278165
1051.000000	0.278089
1052.000000	0.276909
1053.000000	0.276689
1054.000000	0.276866
1055.000000	0.277113
1056.000000	0.277956
1057.000000	0.278735
1058.000000	0.278538
1059.000000	0.278491
1060.000000	0.278670
1061.000000	0.278567
1062.000000	0.278713
1063.000000	0.279411
1064.000000	0.279774
1065.000000	0.279897
1066.000000	0.280190
1067.000000	0.280560
1068.000000	0.280714
1069.000000	0.280680
1070.000000	0.280886
1071.000000	0.281388
1072.000000	0.281556
1073.000000	0.281878
1074.000000	0.281729
1075.000000	0.281439
1076.000000	0.281321
1077.000000	0.281459
1078.000000	0.281953
1079.000000	0.282230
1080.000000	0.282706
1081.000000	0.282818
1082.000000	0.282717
1083.000000	0.282802
1084.000000	0.282839
1085.000000	0.282963
1086.000000	0.283168
1087.000000	0.283423
1088.000000	0.283620
1089.000000	0.283869
1090.000000	0.284359
1091.000000	0.284408
1092.000000	0.284796
1093.000000	0.285335
1094.000000	0.285340
1095.000000	0.284883
1096.000000	0.285209
1097.000000	0.285573
1098.000000	0.285873
1099.000000	0.286658
1100.000000	0.287176
1101.000000	0.287362
1102.000000	0.287484
1103.000000	0.287751
1104.000000	0.287906
1105.000000	0.287465
1106.000000	0.287497
1107.000000	0.287731
1108.000000	0.288028
1109.000000	0.288531
1110.000000	0.289289
1111.000000	0.289632
1112.000000	0.289982
1113.000000	0.290121
1114.000000	0.289881
1115.000000	0.289941
1116.000000	0.289959
1117.000000	0.290190
1118.000000	0.290780
1119.000000	0.290916
1120.000000	0.290944
1121.000000	0.290981
1122.000000	0.290727
1123.000000	0.290871
1124.000000	0.291103
1125.000000	0.291305
1126.000000	0.291546
1127.000000	0.291685
1128.000000	0.291774
1129.000000	0.291799
1130.000000	0.291973
1131.000000	0.292136
1132.000000	0.292366
1133.000000	0.292834
1134.000000	0.293095
1135.000000	0.293231
1136.000000	0.293386
1137.000000	0.293334
1138.000000	0.293537
1139.000000	0.294170
1140.000000	0.294438
1141.000000	0.294587
1142.000000	0.294749
1143.000000	0.294474
1144.000000	0.294553
1145.000000	0.294805
1146.000000	0.294861
1147.000000	0.295022
1148.000000	0.295158
1149.000000	0.295310
1150.000000	0.295555
1151.000000	0.295657
1152.000000	0.295581
1153.000000	0.295681
1154.000000	0.295746
1155.000000	0.295815
1156.000000	0.296091
1157.000000	0.296150
1158.000000	0.295925
1159.000000	0.295875
1160.000000	0.295851
1161.000000	0.295774
1162.000000	0.295769
1163.000000	0.295954
1164.000000	0.295726
1165.000000	0.295563
1166.000000	0.295551
1167.000000	0.295540
1168.000000	0.295502
1169.000000	0.295575
1170.000000	0.295666
1171.000000	0.295784
1172.000000	0.295870
1173.000000	0.295982
1174.000000	0.296094
1175.000000	0.296158
1176.000000	0.296130
1177.000000	0.296165
1178.000000	0.296182
1179.000000	0.296035
1180.000000	0.295981
1181.000000	0.296133
1182.000000	0.296167
1183.000000	0.296356
1184.000000	0.296448
1185.000000	0.296578
1186.000000	0.296790
1187.000000	0.296806
1188.000000	0.296701
1189.000000	0.296668
1190.000000	0.296584
1191.000000	0.296548
1192.000000	0.296656
1193.000000	0.296836
1194.000000	0.296927
1195.000000	0.297030
1196.000000	0.297273
1197.000000	0.297294
1198.000000	0.297060
1199.000000	0.297031
1200.000000	0.296964
1201.000000	0.297019
1202.000000	0.297128
1203.000000	0.297175
1204.000000	0.297070
1205.000000	0.296882
1206.000000	0.296798
1207.000000	0.296825
1208.000000	0.296801
1209.000000	0.296853
1210.000000	0.296947
1211.000000	0.297064
1212.000000	0.297103
1213.000000	0.297258
1214.000000	0.297307
1215.000000	0.297186
1216.000000	0.297181
1217.000000	0.297157
1218.000000	0.297132
1219.000000	0.297139
1220.000000	0.297227
1221.000000	0.297231
1222.000000	0.297307
1223.000000	0.297347
1224.000000	0.297337
1225.000000	0.297394
1226.000000	0.297449
1227.000000	0.297435
1228.000000	0.297496
1229.000000	0.297482
1230.000000	0.297385
1231.000000	0.297264
1232.000000	0.297244
1233.000000	0.297245
1234.000000	0.297197
1235.000000	0.297169
1236.000000	0.297079
1237.000000	0.297036
1238.000000	0.296925
1239.000000	0.296874
1240.000000	0.296879
1241.000000	0.296891
1242.000000	0.296879
1243.000000	0.296959
1244.000000	0.296970
1245.000000	0.297067
1246.000000	0.297196
1247.000000	0.297288
1248.000000	0.297452
1249.000000	0.297596
1250.000000	0.297719
1251.000000	0.297868
1252.000000	0.297935
1253.000000	0.297993
1254.000000	0.297940
1255.000000	0.297743
1256.000000	0.297709
1257.000000	0.297730
1258.000000	0.297750
1259.000000	0.297775
1260.000000	0.297776
1261.000000	0.297631
1262.000000	0.297569
1263.000000	0.297524
1264.000000	0.297655
1265.000000	0.297763
1266.000000	0.297741
1267.000000	0.297740
1268.000000	0.297745
1269.000000	0.297580
1270.000000	0.297542
1271.000000	0.297623
1272.000000	0.297665
1273.000000	0.297658
1274.000000	0.297647
1275.000000	0.297730
1276.000000	0.297834
1277.000000	0.297894
1278.000000	0.298010
1279.000000	0.298049
1280.000000	0.297845
1281.000000	0.297819
1282.000000	0.297972
1283.000000	0.298057
1284.000000	0.298093
1285.000000	0.298108
1286.000000	0.298086
1287.000000	0.297990
1288.000000	0.297987
1289.000000	0.297959
1290.000000	0.297844
1291.000000	0.297865
1292.000000	0.298011
1293.000000	0.298164
1294.000000	0.298140
1295.000000	0.298044
1296.000000	0.297960
1297.000000	0.297893
1298.000000	0.298039
1299.000000	0.298221
1300.000000	0.298378
1301.000000	0.298448
1302.000000	0.298395
1303.000000	0.298318
1304.000000	0.298315
1305.000000	0.298329
1306.000000	0.298306
1307.000000	0.298448
1308.000000	0.298471
1309.000000	0.298358
1310.000000	0.298269
1311.000000	0.298178
1312.000000	0.298048
1313.000000	0.297944
1314.000000	0.297954
1315.000000	0.298045
1316.000000	0.298137
1317.000000	0.298260
1318.000000	0.298414
1319.000000	0.298420
1320.000000	0.298266
1321.000000	0.298009
1322.000000	0.297901
1323.000000	0.297914
1324.000000	0.297915
1325.000000	0.297952
1326.000000	0.297935
1327.000000	0.297776
1328.000000	0.297728
1329.000000	0.297690
1330.000000	0.297720
1331.000000	0.297674
1332.000000	0.297695
1333.000000	0.297733
1334.000000	0.297815
1335.000000	0.297848
1336.000000	0.297890
1337.000000	0.297911
1338.000000	0.297839
1339.000000	0.297712
1340.000000	0.297804
1341.000000	0.297647
1342.000000	0.297257
1343.000000	0.297249
1344.000000	0.297131
1345.000000	0.296998
1346.000000	0.297241
1347.000000	0.297144
1348.000000	0.296989
1349.000000	0.296917
1350.000000	0.296775
1351.000000	0.296739
1352.000000	0.296846
1353.000000	0.296879
1354.000000	0.296920
1355.000000	0.297016
1356.000000	0.297020
1357.000000	0.296918
1358.000000	0.296859
1359.000000	0.296805
1360.000000	0.296818
1361.000000	0.296980
1362.000000	0.296999
1363.000000	0.296927
1364.000000	0.297007
1365.000000	0.297112
1366.000000	0.297157
1367.000000	0.297259
1368.000000	0.297346
1369.000000	0.297407
1370.000000	0.297284
1371.000000	0.297293
1372.000000	0.297244
1373.000000	0.296963
1374.000000	0.296880
1375.000000	0.296912
1376.000000	0.296888
1377.000000	0.297020
1378.000000	0.297135
1379.000000	0.296943
1380.000000	0.296746
1381.000000	0.296440
1382.000000	0.296221
1383.000000	0.296258
1384.000000	0.296113
1385.000000	0.296077
1386.000000	0.296064
1387.000000	0.295818
1388.000000	0.295765
1389.000000	0.295738
1390.000000	0.295513
1391.000000	0.295360
1392.000000	0.295181
1393.000000	0.294949
1394.000000	0.294749
1395.000000	0.294542
1396.000000	0.294271
1397.000000	0.294009
1398.000000	0.293682
1399.000000	0.293349
1400.000000	0.292998
1401.000000	0.292661
1402.000000	0.292321
1403.000000	0.292088
1404.000000	0.291943
1405.000000	0.291705
1406.000000	0.291487
1407.000000	0.291249
1408.000000	0.290892
1409.000000	0.290712
1410.000000	0.290683
1411.000000	0.290582
1412.000000	0.290491
1413.000000	0.290356
1414.000000	0.290194
1415.000000	0.290133
1416.000000	0.290063
1417.000000	0.290166
1418.000000	0.290206
1419.000000	0.290121
1420.000000	0.290083
1421.000000	0.290037
1422.000000	0.290017
1423.000000	0.290189
1424.000000	0.290344
1425.000000	0.290498
1426.000000	0.290558
1427.000000	0.290587
1428.000000	0.290517
1429.000000	0.290398
1430.000000	0.290404
1431.000000	0.290469
1432.000000	0.290489
1433.000000	0.290631
1434.000000	0.290669
1435.000000	0.290640
1436.000000	0.290704
1437.000000	0.290852
1438.000000	0.290885
1439.000000	0.290936
1440.000000	0.290985
1441.000000	0.290939
1442.000000	0.291027
1443.000000	0.291124
1444.000000	0.291292
1445.000000	0.291494
1446.000000	0.291717
1447.000000	0.291888
1448.000000	0.292090
1449.000000	0.292365
1450.000000	0.292520
1451.000000	0.292669
1452.000000	0.292821
1453.000000	0.292838
1454.000000	0.292840
1455.000000	0.292964
1456.000000	0.293064
1457.000000	0.293181
1458.000000	0.293376
1459.000000	0.293501
1460.000000	0.293671
1461.000000	0.293757
1462.000000	0.293692
1463.000000	0.293714
1464.000000	0.293702
1465.000000	0.293610
1466.000000	0.293617
1467.000000	0.293685
1468.000000	0.293669
1469.000000	0.293752
1470.000000	0.293818
1471.000000	0.293655
1472.000000	0.293540
1473.000000	0.293679
1474.000000	0.293743
1475.000000	0.293996
1476.000000	0.294257
1477.000000	0.294232
1478.000000	0.294358
1479.000000	0.294458
1480.000000	0.294365
1481.000000	0.294420
1482.000000	0.294680
1483.000000	0.294826
1484.000000	0.294952
1485.000000	0.295075
1486.000000	0.295182
1487.000000	0.295234
1488.000000	0.295297
1489.000000	0.295349
1490.000000	0.295150
1491.000000	0.295156
1492.000000	0.295227
1493.000000	0.295305
1494.000000	0.295503
1495.000000	0.295545
1496.000000	0.295436
1497.000000	0.295376
1498.000000	0.295304
1499.000000	0.295245
1500.000000	0.295194
1501.000000	0.295334
1502.000000	0.295450
1503.000000	0.295591
1504.000000	0.295760
1505.000000	0.295730
1506.000000	0.295683
1507.000000	0.295693
1508.000000	0.295759
1509.000000	0.295821
1510.000000	0.295814
1511.000000	0.295834
1512.000000	0.295947
1513.000000	0.296031
1514.000000	0.296110
1515.000000	0.296230
1516.000000	0.296155
1517.000000	0.295974
1518.000000	0.295972
1519.000000	0.295870
1520.000000	0.295722
1521.000000	0.295671
1522.000000	0.295771
1523.000000	0.295798
1524.000000	0.295736
1525.000000	0.295815
1526.000000	0.295632
1527.000000	0.295438
1528.000000	0.295554
1529.000000	0.295643
1530.000000	0.295629
1531.000000	0.295695
1532.000000	0.295754
1533.000000	0.295711
1534.000000	0.295719
1535.000000	0.295794
1536.000000	0.295763
1537.000000	0.295817
1538.000000	0.295877
1539.000000	0.295819
1540.000000	0.295832
1541.000000	0.295852
1542.000000	0.295863
1543.000000	0.295977
1544.000000	0.296125
1545.000000	0.296244
1546.000000	0.296364
1547.000000	0.296481
1548.000000	0.296558
1549.000000	0.296628
1550.000000	0.296579
1551.000000	0.296510
1552.000000	0.296556
1553.000000	0.296439
1554.000000	0.296352
1555.000000	0.296379
1556.000000	0.296162
1557.000000	0.295956
1558.000000	0.295892
1559.000000	0.295849
1560.000000	0.295774
1561.000000	0.295828
1562.000000	0.295824
1563.000000	0.295786
1564.000000	0.295785
1565.000000	0.295862
1566.000000	0.295798
1567.000000	0.295776
1568.000000	0.295717
1569.000000	0.295611
1570.000000	0.295530
1571.000000	0.295464
1572.000000	0.295337
1573.000000	0.295199
1574.000000	0.295135
1575.000000	0.295016
1576.000000	0.294971
1577.000000	0.295077
1578.000000	0.295000
1579.000000	0.294891
1580.000000	0.294828
1581.000000	0.294809
1582.000000	0.294709
1583.000000	0.294549
1584.000000	0.294452
1585.000000	0.294373
1586.000000	0.294345
1587.000000	0.294437
1588.000000	0.294473
1589.000000	0.294506
1590.000000	0.294483
1591.000000	0.294431
1592.000000	0.294467
1593.000000	0.294564
1594.000000	0.294581
1595.000000	0.294690
1596.000000	0.294719
1597.000000	0.294612
1598.000000	0.294630
1599.000000	0.294756
1600.000000	0.294776
1601.000000	0.294869
1602.000000	0.294911
1603.000000	0.294927
1604.000000	0.294953
1605.000000	0.295019
1606.000000	0.294990
1607.000000	0.294908
1608.000000	0.294903
1609.000000	0.294961
1610.000000	0.294962
1611.000000	0.295067
1612.000000	0.295029
1613.000000	0.294940
1614.000000	0.294841
1615.000000	0.294709
1616.000000	0.294672
1617.000000	0.294614
1618.000000	0.294594
1619.000000	0.294664
1620.000000	0.294627
1621.000000	0.294509
1622.000000	0.294587
1623.000000	0.294697
1624.000000	0.294808
1625.000000	0.294941
1626.000000	0.294970
1627.000000	0.294946
1628.000000	0.294994
1629.000000	0.295073
1630.000000	0.295057
1631.000000	0.294877
1632.000000	0.294800
1633.000000	0.294764
1634.000000	0.294695
1635.000000	0.294725
1636.000000	0.294692
1637.000000	0.294551
1638.000000	0.294480
1639.000000	0.294510
1640.000000	0.294502
1641.000000	0.294556
1642.000000	0.294544
1643.000000	0.294521
1644.000000	0.294571
1645.000000	0.294627
1646.000000	0.294641
1647.000000	0.294749
1648.000000	0.294754
1649.000000	0.294732
1650.000000	0.294782
1651.000000	0.294905
1652.000000	0.294989
1653.000000	0.295020
1654.000000	0.295070
1655.000000	0.295064
1656.000000	0.294991
1657.000000	0.295013
1658.000000	0.294926
1659.000000	0.294826
1660.000000	0.294773
1661.000000	0.294549
1662.000000	0.294508
1663.000000	0.294533
1664.000000	0.294557
1665.000000	0.294729
1666.000000	0.294807
1667.000000	0.294736
1668.000000	0.294725
1669.000000	0.294667
1670.000000	0.294614
1671.000000	0.294717
1672.000000	0.294750
1673.000000	0.294716
1674.000000	0.294675
1675.000000	0.294613
1676.000000	0.294593
1677.000000	0.294547
1678.000000	0.294494
1679.000000	0.294517
1680.000000	0.294551
1681.000000	0.294560
1682.000000	0.294575
1683.000000	0.294590
1684.000000	0.294434
1685.000000	0.294408
1686.000000	0.294413
1687.000000	0.294313
1688.000000	0.294343
1689.000000	0.294368
1690.000000	0.294349
1691.000000	0.294468
1692.000000	0.294350
1693.000000	0.294177
1694.000000	0.294078
1695.000000	0.293974
1696.000000	0.293986
1697.000000	0.293945
1698.000000	0.294008
1699.000000	0.293936
1700.000000	0.293709
1701.000000	0.293696
1702.000000	0.293458
1703.000000	0.293325
1704.000000	0.293546
1705.000000	0.293581
1706.000000	0.293515
1707.000000	0.293564
1708.000000	0.293665
1709.000000	0.293604
1710.000000	0.293567
1711.000000	0.293611
1712.000000	0.293627
1713.000000	0.293591
1714.000000	0.293664
1715.000000	0.293709
1716.000000	0.293679
1717.000000	0.293636
1718.000000	0.293551
1719.000000	0.293559
1720.000000	0.293651
1721.000000	0.293618
1722.000000	0.293640
1723.000000	0.293651
1724.000000	0.293522
1725.000000	0.293507
1726.000000	0.293533
1727.000000	0.293540
1728.000000	0.293458
1729.000000	0.293397
1730.000000	0.293500
1731.000000	0.293560
1732.000000	0.293650
1733.000000	0.293697
1734.000000	0.293591
1735.000000	0.293602
1736.000000	0.293580
1737.000000	0.293538
1738.000000	0.293555
1739.000000	0.293585
1740.000000	0.293572
1741.000000	0.293519
1742.000000	0.293552
1743.000000	0.293484
1744.000000	0.293191
1745.000000	0.293259
1746.000000	0.293458
1747.000000	0.293811
1748.000000	0.293956
1749.000000	0.293889
1750.000000	0.293863
1751.000000	0.293917
1752.000000	0.294001
1753.000000	0.293923
1754.000000	0.293968
1755.000000	0.294036
1756.000000	0.294068
1757.000000	0.294250
1758.000000	0.294293
1759.000000	0.294126
1760.000000	0.294080
1761.000000	0.293995
1762.000000	0.293937
1763.000000	0.294026
1764.000000	0.293987
1765.000000	0.293787
1766.000000	0.293734
1767.000000	0.293593
1768.000000	0.293542
1769.000000	0.293790
1770.000000	0.293829
1771.000000	0.293683
1772.000000	0.293712
1773.000000	0.293711
1774.000000	0.293696
1775.000000	0.293862
1776.000000	0.293918
1777.000000	0.293847
1778.000000	0.293734
1779.000000	0.293602
1780.000000	0.293471
1781.000000	0.293154
1782.000000	0.293071
1783.000000	0.293210
1784.000000	0.293185
1785.000000	0.293093
1786.000000	0.292990
1787.000000	0.292886
1788.000000	0.292781
1789.000000	0.292655
1790.000000	0.292427
1791.000000	0.292217
1792.000000	0.292006
1793.000000	0.291955
1794.000000	0.292107
1795.000000	0.292169
1796.000000	0.292286
1797.000000	0.292386
1798.000000	0.292460
1799.000000	0.292431
1800.000000	0.292362
1801.000000	0.292415
1802.000000	0.292206
1803.000000	0.292632
1804.000000	0.292440
1805.000000	0.291806
1806.000000	0.291698
1807.000000	0.291355
1808.000000	0.291568
1809.000000	0.292699
1810.000000	0.293317
1811.000000	0.293743
1812.000000	0.294256
1813.000000	0.294496
1814.000000	0.294554
1815.000000	0.294449
1816.000000	0.294168
1817.000000	0.293691
1818.000000	0.292826
1819.000000	0.291972
1820.000000	0.291609
1821.000000	0.292303
1822.000000	0.292518
1823.000000	0.293251
1824.000000	0.293337
1825.000000	0.292527
1826.000000	0.292590
1827.000000	0.292778
1828.000000	0.293049
1829.000000	0.293874
1830.000000	0.295134
1831.000000	0.295318
1832.000000	0.295066
1833.000000	0.294888
1834.000000	0.293608
1835.000000	0.293350
1836.000000	0.293956
1837.000000	0.293919
1838.000000	0.293888
1839.000000	0.293666
1840.000000	0.293468
1841.000000	0.292614
1842.000000	0.291858
1843.000000	0.290889
1844.000000	0.290554
1845.000000	0.290120
1846.000000	0.289854
1847.000000	0.289886
1848.000000	0.289832
1849.000000	0.290273
1850.000000	0.290708
1851.000000	0.291076
1852.000000	0.291948
1853.000000	0.292447
1854.000000	0.292395
1855.000000	0.292445
1856.000000	0.292508
1857.000000	0.292373
1858.000000	0.292410
1859.000000	0.292100
1860.000000	0.291140
1861.000000	0.290550
1862.000000	0.290253
1863.000000	0.289701
1864.000000	0.289672
1865.000000	0.290815
1866.000000	0.290882
1867.000000	0.290467
1868.000000	0.290329
1869.000000	0.289437
1870.000000	0.288556
1871.000000	0.287630
1872.000000	0.286625
1873.000000	0.285963
1874.000000	0.285024
1875.000000	0.284938
1876.000000	0.285370
1877.000000	0.285480
1878.000000	0.285900
1879.000000	0.286387
1880.000000	0.285936
1881.000000	0.285892
1882.000000	0.285754
1883.000000	0.285177
1884.000000	0.284915
1885.000000	0.284733
1886.000000	0.284286
1887.000000	0.283785
1888.000000	0.283243
1889.000000	0.282276
1890.000000	0.280893
1891.000000	0.279004
1892.000000	0.277346
1893.000000	0.275905
1894.000000	0.274869
1895.000000	0.274014
1896.000000	0.273797
1897.000000	0.273464
1898.000000	0.272983
1899.000000	0.272389
1900.000000	0.271492
1901.000000	0.270510
1902.000000	0.269693
1903.000000	0.269733
1904.000000	0.269971
1905.000000	0.269348
1906.000000	0.268929
1907.000000	0.268562
1908.000000	0.267833
1909.000000	0.267228
1910.000000	0.267587
1911.000000	0.267622
1912.000000	0.267771
1913.000000	0.268274
1914.000000	0.268669
1915.000000	0.268964
1916.000000	0.269461
1917.000000	0.269962
1918.000000	0.270484
1919.000000	0.271019
1920.000000	0.271723
1921.000000	0.272107
1922.000000	0.272618
1923.000000	0.273573
1924.000000	0.274452
1925.000000	0.275289
1926.000000	0.275377
1927.000000	0.275316
1928.000000	0.275209
1929.000000	0.275009
1930.000000	0.274253
1931.000000	0.274368
1932.000000	0.274552
1933.000000	0.274273
1934.000000	0.275100
1935.000000	0.275516
1936.000000	0.275503
1937.000000	0.276568
1938.000000	0.277266
1939.000000	0.277510
1940.000000	0.277672
1941.000000	0.277975
1942.000000	0.277094
1943.000000	0.276521
1944.000000	0.276421
1945.000000	0.276172
1946.000000	0.276930
1947.000000	0.276925
1948.000000	0.276449
1949.000000	0.276746
1950.000000	0.276439
1951.000000	0.276089
1952.000000	0.275674
1953.000000	0.276223
1954.000000	0.276393
1955.000000	0.276078
1956.000000	0.276585
1957.000000	0.276885
1958.000000	0.276474
1959.000000	0.276571
1960.000000	0.276479
1961.000000	0.276311
1962.000000	0.276508
1963.000000	0.277234
1964.000000	0.277591
1965.000000	0.277713
1966.000000	0.278064
1967.000000	0.277623
1968.000000	0.277313
1969.000000	0.278000
1970.000000	0.278286
1971.000000	0.278582
1972.000000	0.279144
1973.000000	0.279034
1974.000000	0.278140
1975.000000	0.277948
1976.000000	0.277792
1977.000000	0.277654
1978.000000	0.278125
1979.000000	0.278359
1980.000000	0.278386
1981.000000	0.278592
1982.000000	0.278392
1983.000000	0.278638
1984.000000	0.278618
1985.000000	0.278391
1986.000000	0.278234
1987.000000	0.278164
1988.000000	0.277898
1989.000000	0.278157
1990.000000	0.279044
1991.000000	0.279521
1992.000000	0.280284
1993.000000	0.280576
1994.000000	0.280175
1995.000000	0.280002
1996.000000	0.279813
1997.000000	0.279653
1998.000000	0.279579
1999.000000	0.279708
2000.000000	0.280173
2001.000000	0.279932
2002.000000	0.279934
2003.000000	0.279833
2004.000000	0.279443
2005.000000	0.279492
2006.000000	0.279989
2007.000000	0.280553
2008.000000	0.280974
2009.000000	0.281611
2010.000000	0.282023
2011.000000	0.282061
2012.000000	0.282134
2013.000000	0.282156
2014.000000	0.281776
2015.000000	0.281919
2016.000000	0.281980
2017.000000	0.281974
2018.000000	0.282479
2019.000000	0.282933
2020.000000	0.283256
2021.000000	0.283289
2022.000000	0.283179
2023.000000	0.283095
2024.000000	0.282519
2025.000000	0.282324
2026.000000	0.282267
2027.000000	0.282281
2028.000000	0.282129
2029.000000	0.282401
2030.000000	0.283231
2031.000000	0.283827
2032.000000	0.283839
2033.000000	0.284129
2034.000000	0.283811
2035.000000	0.282336
2036.000000	0.281779
2037.000000	0.281460
2038.000000	0.281399
2039.000000	0.281606
2040.000000	0.282782
2041.000000	0.283344
2042.000000	0.283474
2043.000000	0.283345
2044.000000	0.282903
2045.000000	0.282330
2046.000000	0.282154
2047.000000	0.282140
2048.000000	0.282269
2049.000000	0.282389
2050.000000	0.282559
2051.000000	0.282377
2052.000000	0.281599
2053.000000	0.281353
2054.000000	0.281235
2055.000000	0.281723
2056.000000	0.282390
2057.000000	0.282910
2058.000000	0.283442
2059.000000	0.283283
2060.000000	0.283427
2061.000000	0.283574
2062.000000	0.283971
2063.000000	0.284508
2064.000000	0.284947
2065.000000	0.286000
2066.000000	0.286194
2067.000000	0.286170
2068.000000	0.286320
2069.000000	0.285866
2070.000000	0.285601
2071.000000	0.285731
2072.000000	0.285637
2073.000000	0.285487
2074.000000	0.285316
2075.000000	0.284882
2076.000000	0.283934
2077.000000	0.283512
2078.000000	0.282963
2079.000000	0.282753
2080.000000	0.283140
2081.000000	0.283285
2082.000000	0.283457
2083.000000	0.283850
2084.000000	0.284108
2085.000000	0.283966
2086.000000	0.283782
2087.000000	0.283579
2088.000000	0.283376
2089.000000	0.283029
2090.000000	0.282772
2091.000000	0.282524
2092.000000	0.282580
2093.000000	0.282969
2094.000000	0.283137
2095.000000	0.283341
2096.000000	0.283627
2097.000000	0.283999
2098.000000	0.283671
2099.000000	0.283877
2100.000000	0.284568
2101.000000	0.284637
2102.000000	0.284849
2103.000000	0.284585
2104.000000	0.284456
2105.000000	0.284605
2106.000000	0.284939
2107.000000	0.285177
2108.000000	0.285912
2109.000000	0.285887
2110.000000	0.284888
2111.000000	0.284420
2112.000000	0.283618
2113.000000	0.283241
2114.000000	0.283129
2115.000000	0.283278
2116.000000	0.283254
2117.000000	0.282777
2118.000000	0.282488
2119.000000	0.282641
2120.000000	0.282961
2121.000000	0.283799
2122.000000	0.284279
2123.000000	0.285151
2124.000000	0.285054
2125.000000	0.284435
2126.000000	0.283684
2127.000000	0.281772
2128.000000	0.281017
2129.000000	0.280564
2130.000000	0.280166
2131.000000	0.280411
2132.000000	0.281358
2133.000000	0.282922
2134.000000	0.284206
2135.000000	0.284983
2136.000000	0.285228
2137.000000	0.285535
2138.000000	0.285228
2139.000000	0.285205
2140.000000	0.285899
2141.000000	0.285457
2142.000000	0.283523
2143.000000	0.282653
2144.000000	0.281667
2145.000000	0.281419
2146.000000	0.281979
2147.000000	0.283589
2148.000000	0.284463
2149.000000	0.285011
2150.000000	0.285595
2151.000000	0.285754
2152.000000	0.286119
2153.000000	0.286264
2154.000000	0.285984
2155.000000	0.285100
2156.000000	0.284720
2157.000000	0.284282
2158.000000	0.284037
2159.000000	0.284467
2160.000000	0.284457
2161.000000	0.283776
2162.000000	0.283653
2163.000000	0.283555
2164.000000	0.283665
2165.000000	0.284448
2166.000000	0.284595
2167.000000	0.285358
2168.000000	0.285420
2169.000000	0.284908
2170.000000	0.285147
2171.000000	0.285145
2172.000000	0.285006
2173.000000	0.284826
2174.000000	0.284919
2175.000000	0.284581
2176.000000	0.283947
2177.000000	0.282990
2178.000000	0.280920
2179.000000	0.280499
2180.000000	0.280451
2181.000000	0.281073
2182.000000	0.282904
2183.000000	0.284544
2184.000000	0.284817
2185.000000	0.283461
2186.000000	0.281601
2187.000000	0.279884
2188.000000	0.277996
2189.000000	0.277127
2190.000000	0.276770
2191.000000	0.277272
2192.000000	0.277896
2193.000000	0.280162
2194.000000	0.280313
2195.000000	0.279263
2196.000000	0.279185
2197.000000	0.277484
2198.000000	0.278293
2199.000000	0.282777
2200.000000	0.284518
2201.000000	0.287262
2202.000000	0.287373
2203.000000	0.284299
2204.000000	0.280313
2205.000000	0.274684
2206.000000	0.271622
2207.000000	0.272542
2208.000000	0.273548
2209.000000	0.275364
2210.000000	0.277371
2211.000000	0.278399
2212.000000	0.278547
2213.000000	0.278285
2214.000000	0.278697
2215.000000	0.277606
2216.000000	0.273621
2217.000000	0.273197
2218.000000	0.273608
2219.000000	0.274334
2220.000000	0.278080
2221.000000	0.279105
2222.000000	0.279245
2223.000000	0.279140
2224.000000	0.278305
2225.000000	0.276101
2226.000000	0.274818
2227.000000	0.273101
2228.000000	0.273373
2229.000000	0.273478
2230.000000	0.275270
2231.000000	0.277557
2232.000000	0.277088
2233.000000	0.279493
2234.000000	0.280617
2235.000000	0.280985
2236.000000	0.280849
2237.000000	0.280442
2238.000000	0.279181
2239.000000	0.275763
2240.000000	0.274841
2241.000000	0.276080
2242.000000	0.275624
2243.000000	0.275071
2244.000000	0.274396
2245.000000	0.271302
2246.000000	0.270980
2247.000000	0.272653
2248.000000	0.273601
2249.000000	0.276185
2250.000000	0.277602
2251.000000	0.276352
2252.000000	0.278252
2253.000000	0.278674
2254.000000	0.278704
2255.000000	0.279293
2256.000000	0.278936
2257.000000	0.279807
2258.000000	0.277305
2259.000000	0.276814
2260.000000	0.277700
2261.000000	0.276545
2262.000000	0.275564
2263.000000	0.274328
2264.000000	0.269745
2265.000000	0.269676
2266.000000	0.272324
2267.000000	0.273723
2268.000000	0.278118
2269.000000	0.279253
2270.000000	0.276630
2271.000000	0.276600
2272.000000	0.277985
2273.000000	0.277524
2274.000000	0.277228
2275.000000	0.276986
2276.000000	0.275018
2277.000000	0.273421
2278.000000	0.273956
2279.000000	0.273441
2280.000000	0.273784
2281.000000	0.272104
2282.000000	0.268510
2283.000000	0.267692
2284.000000	0.266455
2285.000000	0.265522
2286.000000	0.268435
2287.000000	0.269040
2288.000000	0.268860
2289.000000	0.269136
2290.000000	0.267570
2291.000000	0.267748
2292.000000	0.267588
2293.000000	0.267309
2294.000000	0.267228
2295.000000	0.266520
2296.000000	0.266325
2297.000000	0.267336
2298.000000	0.266830
2299.000000	0.265407
2300.000000	0.265340
2301.000000	0.264185
2302.000000	0.265192
2303.000000	0.269299
2304.000000	0.270913
2305.000000	0.272909
2306.000000	0.273404
2307.000000	0.272532
2308.000000	0.269575
2309.000000	0.268893
2310.000000	0.268250
2311.000000	0.267681
2312.000000	0.270615
2313.000000	0.271758
2314.000000	0.271125
2315.000000	0.271375
2316.000000	0.270628
2317.000000	0.270087
2318.000000	0.270947
2319.000000	0.272970
2320.000000	0.274848
2321.000000	0.276509
2322.000000	0.277758
2323.000000	0.276257
2324.000000	0.275115
2325.000000	0.276175
2326.000000	0.277322
2327.000000	0.278562
2328.000000	0.281402
2329.000000	0.282461
2330.000000	0.281935
2331.000000	0.283055
2332.000000	0.283225
2333.000000	0.284540
2334.000000	0.285719
2335.000000	0.284481
2336.000000	0.280297
2337.000000	0.277883
2338.000000	0.273299
2339.000000	0.271307
2340.000000	0.272279
2341.000000	0.272769
2342.000000	0.274118
2343.000000	0.274473
2344.000000	0.274190
2345.000000	0.275219
2346.000000	0.276309
2347.000000	0.277580
2348.000000	0.280814
2349.000000	0.281293
2350.000000	0.281403
2351.000000	0.278762
2352.000000	0.274799
2353.000000	0.275630
2354.000000	0.276858
2355.000000	0.278305
2356.000000	0.281702
2357.000000	0.283341
2358.000000	0.281663
2359.000000	0.279721
2360.000000	0.277362
2361.000000	0.275445
2362.000000	0.273944
2363.000000	0.272274
2364.000000	0.270664
2365.000000	0.267893
2366.000000	0.267673
2367.000000	0.269189
2368.000000	0.270274
2369.000000	0.270446
2370.000000	0.268930
2371.000000	0.267115
2372.000000	0.266909
2373.000000	0.267140
2374.000000	0.264694
2375.000000	0.262294
2376.000000	0.259920
2377.000000	0.257310
2378.000000	0.256521
2379.000000	0.258820
2380.000000	0.258451
2381.000000	0.255992
2382.000000	0.254528
2383.000000	0.252202
2384.000000	0.253607
2385.000000	0.258266
2386.000000	0.262925
2387.000000	0.264533
2388.000000	0.261652
2389.000000	0.256815
2390.000000	0.255314
2391.000000	0.255833
2392.000000	0.254213
2393.000000	0.255318
2394.000000	0.257954
2395.000000	0.259762
2396.000000	0.261306
2397.000000	0.260075
2398.000000	0.257788
2399.000000	0.248846
2400.000000	0.242366
2401.000000	0.246431
2402.000000	0.246787
2403.000000	0.250142
2404.000000	0.253955
2405.000000	0.248502
2406.000000	0.243004
2407.000000	0.243299
2408.000000	0.247424
2409.000000	0.252590
2410.000000	0.263451
2411.000000	0.266610
2412.000000	0.260397
2413.000000	0.255497
2414.000000	0.249932
2415.000000	0.252121
2416.000000	0.258648
2417.000000	0.268930
2418.000000	0.278272
2419.000000	0.271015
2420.000000	0.265741
2421.000000	0.261927
2422.000000	0.253205
2423.000000	0.258845
2424.000000	0.262674
2425.000000	0.268823
2426.000000	0.281843
2427.000000	0.281249
2428.000000	0.277754
2429.000000	0.270708
2430.000000	0.257229
2431.000000	0.252467
2432.000000	0.257489
2433.000000	0.263171
2434.000000	0.269209
2435.000000	0.265448
2436.000000	0.252679
2437.000000	0.249935
2438.000000	0.247941
2439.000000	0.244935
2440.000000	0.256369
2441.000000	0.264323
2442.000000	0.265616
2443.000000	0.269930
2444.000000	0.264542
2445.000000	0.249885
2446.000000	0.234602
2447.000000	0.232512
2448.000000	0.233446
2449.000000	0.233617
2450.000000	0.239329
2451.000000	0.239992
2452.000000	0.243178
2453.000000	0.255071
2454.000000	0.262400
2455.000000	0.255503
2456.000000	0.242379
2457.000000	0.227624
2458.000000	0.217709
2459.000000	0.218935
2460.000000	0.219791
2461.000000	0.217193
2462.000000	0.219575
2463.000000	0.225530
2464.000000	0.237048
2465.000000	0.251972
2466.000000	0.274908
2467.000000	0.283806
2468.000000	0.283171
2469.000000	0.288407
2470.000000	0.270065
2471.000000	0.268320
2472.000000	0.274941
2473.000000	0.272704
2474.000000	0.291171
2475.000000	0.298095
2476.000000	0.305511
2477.000000	0.303625
2478.000000	0.276999
2479.000000	0.255071
2480.000000	0.235596
2481.000000	0.224821
2482.000000	0.209706
2483.000000	0.197621
2484.000000	0.189552
2485.000000	0.187376
2486.000000	0.230921
2487.000000	0.240754
2488.000000	0.224485
2489.000000	0.196821
2490.000000	0.149664
2491.000000	0.170205
2492.000000	0.177801
2493.000000	0.207800
2494.000000	0.227864
2495.000000	0.246962
2496.000000	0.234983
2497.000000	0.183094
2498.000000	0.164453
2499.000000	0.144603
2500.000000	0.132742
