# Wavelength	NAu-1-80_HEX-10_FV7-10_00002.asd.rts.txt
350.000000	0.110299
351.000000	0.083289
352.000000	0.078604
353.000000	0.089274
354.000000	0.101776
355.000000	0.094376
356.000000	0.093828
357.000000	0.103271
358.000000	0.108730
359.000000	0.116699
360.000000	0.112980
361.000000	0.086697
362.000000	0.087744
363.000000	0.097313
364.000000	0.098906
365.000000	0.096295
366.000000	0.092481
367.000000	0.090693
368.000000	0.095232
369.000000	0.097752
370.000000	0.096157
371.000000	0.091617
372.000000	0.094987
373.000000	0.097996
374.000000	0.095747
375.000000	0.095974
376.000000	0.096222
377.000000	0.096094
378.000000	0.097225
379.000000	0.098063
380.000000	0.099037
381.000000	0.101109
382.000000	0.100836
383.000000	0.101209
384.000000	0.103477
385.000000	0.101455
386.000000	0.100876
387.000000	0.103323
388.000000	0.106159
389.000000	0.108004
390.000000	0.109067
391.000000	0.110050
392.000000	0.109639
393.000000	0.110538
394.000000	0.114161
395.000000	0.116706
396.000000	0.117869
397.000000	0.118297
398.000000	0.119862
399.000000	0.121606
400.000000	0.123568
401.000000	0.125976
402.000000	0.127435
403.000000	0.128701
404.000000	0.130563
405.000000	0.131909
406.000000	0.133840
407.000000	0.136207
408.000000	0.136344
409.000000	0.137280
410.000000	0.139046
411.000000	0.140039
412.000000	0.142271
413.000000	0.144277
414.000000	0.144541
415.000000	0.145713
416.000000	0.146706
417.000000	0.146891
418.000000	0.147148
419.000000	0.147572
420.000000	0.148052
421.000000	0.148247
422.000000	0.148958
423.000000	0.149596
424.000000	0.149340
425.000000	0.149099
426.000000	0.148967
427.000000	0.148891
428.000000	0.148823
429.000000	0.148595
430.000000	0.148274
431.000000	0.148239
432.000000	0.148294
433.000000	0.148323
434.000000	0.148301
435.000000	0.148453
436.000000	0.148471
437.000000	0.148073
438.000000	0.147630
439.000000	0.146898
440.000000	0.146032
441.000000	0.145933
442.000000	0.145380
443.000000	0.144516
444.000000	0.144537
445.000000	0.144647
446.000000	0.144771
447.000000	0.144944
448.000000	0.145407
449.000000	0.146355
450.000000	0.147810
451.000000	0.149261
452.000000	0.151639
453.000000	0.154859
454.000000	0.157809
455.000000	0.160900
456.000000	0.164103
457.000000	0.167186
458.000000	0.170622
459.000000	0.173990
460.000000	0.176905
461.000000	0.179562
462.000000	0.182146
463.000000	0.184536
464.000000	0.186406
465.000000	0.188139
466.000000	0.189704
467.000000	0.190919
468.000000	0.192169
469.000000	0.193433
470.000000	0.194692
471.000000	0.195804
472.000000	0.196689
473.000000	0.197410
474.000000	0.198275
475.000000	0.199092
476.000000	0.199912
477.000000	0.200789
478.000000	0.201417
479.000000	0.202058
480.000000	0.202894
481.000000	0.203482
482.000000	0.204121
483.000000	0.204927
484.000000	0.205765
485.000000	0.206375
486.000000	0.206917
487.000000	0.207901
488.000000	0.208698
489.000000	0.209299
490.000000	0.210067
491.000000	0.210971
492.000000	0.211845
493.000000	0.212442
494.000000	0.213216
495.000000	0.214053
496.000000	0.214816
497.000000	0.215650
498.000000	0.216538
499.000000	0.217477
500.000000	0.218309
501.000000	0.219087
502.000000	0.219980
503.000000	0.221121
504.000000	0.222103
505.000000	0.223012
506.000000	0.223994
507.000000	0.224925
508.000000	0.225852
509.000000	0.226806
510.000000	0.227919
511.000000	0.229038
512.000000	0.230142
513.000000	0.231252
514.000000	0.232274
515.000000	0.233316
516.000000	0.234467
517.000000	0.235552
518.000000	0.236760
519.000000	0.238113
520.000000	0.239303
521.000000	0.240509
522.000000	0.241801
523.000000	0.243048
524.000000	0.244397
525.000000	0.245806
526.000000	0.247173
527.000000	0.248565
528.000000	0.250011
529.000000	0.251553
530.000000	0.253050
531.000000	0.254602
532.000000	0.256181
533.000000	0.257732
534.000000	0.259265
535.000000	0.260816
536.000000	0.262506
537.000000	0.264117
538.000000	0.265723
539.000000	0.267479
540.000000	0.269163
541.000000	0.270778
542.000000	0.272410
543.000000	0.274129
544.000000	0.275802
545.000000	0.277336
546.000000	0.278964
547.000000	0.280652
548.000000	0.282379
549.000000	0.284014
550.000000	0.285668
551.000000	0.287342
552.000000	0.288957
553.000000	0.290599
554.000000	0.292174
555.000000	0.293668
556.000000	0.295370
557.000000	0.296908
558.000000	0.298346
559.000000	0.299937
560.000000	0.301463
561.000000	0.302943
562.000000	0.304336
563.000000	0.305684
564.000000	0.307042
565.000000	0.308332
566.000000	0.309577
567.000000	0.310781
568.000000	0.311925
569.000000	0.313031
570.000000	0.314079
571.000000	0.315078
572.000000	0.316093
573.000000	0.317053
574.000000	0.317958
575.000000	0.318891
576.000000	0.319767
577.000000	0.320516
578.000000	0.321196
579.000000	0.321938
580.000000	0.322603
581.000000	0.323165
582.000000	0.323800
583.000000	0.324360
584.000000	0.324826
585.000000	0.325246
586.000000	0.325654
587.000000	0.326023
588.000000	0.326330
589.000000	0.326662
590.000000	0.326982
591.000000	0.327258
592.000000	0.327482
593.000000	0.327708
594.000000	0.327953
595.000000	0.328214
596.000000	0.328329
597.000000	0.328411
598.000000	0.328557
599.000000	0.328606
600.000000	0.328643
601.000000	0.328673
602.000000	0.328735
603.000000	0.328761
604.000000	0.328734
605.000000	0.328680
606.000000	0.328722
607.000000	0.328799
608.000000	0.328713
609.000000	0.328684
610.000000	0.328723
611.000000	0.328779
612.000000	0.328789
613.000000	0.328770
614.000000	0.328776
615.000000	0.328773
616.000000	0.328784
617.000000	0.328756
618.000000	0.328666
619.000000	0.328682
620.000000	0.328721
621.000000	0.328682
622.000000	0.328669
623.000000	0.328595
624.000000	0.328429
625.000000	0.328476
626.000000	0.328532
627.000000	0.328531
628.000000	0.328646
629.000000	0.328778
630.000000	0.328786
631.000000	0.328811
632.000000	0.328856
633.000000	0.328944
634.000000	0.329061
635.000000	0.329128
636.000000	0.329175
637.000000	0.329218
638.000000	0.329299
639.000000	0.329448
640.000000	0.329678
641.000000	0.329800
642.000000	0.329933
643.000000	0.330080
644.000000	0.330217
645.000000	0.330406
646.000000	0.330584
647.000000	0.330698
648.000000	0.330906
649.000000	0.331138
650.000000	0.331345
651.000000	0.331569
652.000000	0.331766
653.000000	0.331985
654.000000	0.332221
655.000000	0.332448
656.000000	0.332758
657.000000	0.333139
658.000000	0.333402
659.000000	0.333649
660.000000	0.333928
661.000000	0.334241
662.000000	0.334533
663.000000	0.334863
664.000000	0.335240
665.000000	0.335649
666.000000	0.336053
667.000000	0.336393
668.000000	0.336791
669.000000	0.337160
670.000000	0.337479
671.000000	0.337873
672.000000	0.338283
673.000000	0.338706
674.000000	0.339201
675.000000	0.339643
676.000000	0.340098
677.000000	0.340679
678.000000	0.341248
679.000000	0.341757
680.000000	0.342217
681.000000	0.342710
682.000000	0.343237
683.000000	0.343728
684.000000	0.344301
685.000000	0.344847
686.000000	0.345415
687.000000	0.346038
688.000000	0.346654
689.000000	0.347262
690.000000	0.347900
691.000000	0.348531
692.000000	0.349110
693.000000	0.349724
694.000000	0.350400
695.000000	0.351143
696.000000	0.351881
697.000000	0.352523
698.000000	0.353249
699.000000	0.354018
700.000000	0.354768
701.000000	0.355412
702.000000	0.356117
703.000000	0.356882
704.000000	0.357547
705.000000	0.358258
706.000000	0.358993
707.000000	0.359773
708.000000	0.360559
709.000000	0.361323
710.000000	0.362071
711.000000	0.362779
712.000000	0.363543
713.000000	0.364388
714.000000	0.365155
715.000000	0.365919
716.000000	0.366701
717.000000	0.367470
718.000000	0.368191
719.000000	0.368896
720.000000	0.369647
721.000000	0.370476
722.000000	0.371273
723.000000	0.372048
724.000000	0.372746
725.000000	0.373464
726.000000	0.374251
727.000000	0.374936
728.000000	0.375647
729.000000	0.376381
730.000000	0.377049
731.000000	0.377675
732.000000	0.378309
733.000000	0.378978
734.000000	0.379527
735.000000	0.380148
736.000000	0.380901
737.000000	0.381486
738.000000	0.381991
739.000000	0.382556
740.000000	0.383072
741.000000	0.383637
742.000000	0.384160
743.000000	0.384615
744.000000	0.385161
745.000000	0.385643
746.000000	0.386088
747.000000	0.386464
748.000000	0.386920
749.000000	0.387341
750.000000	0.387628
751.000000	0.387958
752.000000	0.388303
753.000000	0.388639
754.000000	0.388908
755.000000	0.389178
756.000000	0.389458
757.000000	0.389686
758.000000	0.389904
759.000000	0.390111
760.000000	0.390244
761.000000	0.390490
762.000000	0.390646
763.000000	0.390704
764.000000	0.390860
765.000000	0.390929
766.000000	0.390961
767.000000	0.391019
768.000000	0.391059
769.000000	0.391041
770.000000	0.390986
771.000000	0.390985
772.000000	0.390982
773.000000	0.390865
774.000000	0.390677
775.000000	0.390476
776.000000	0.390313
777.000000	0.390175
778.000000	0.389976
779.000000	0.389798
780.000000	0.389645
781.000000	0.389416
782.000000	0.389213
783.000000	0.389101
784.000000	0.388890
785.000000	0.388582
786.000000	0.388218
787.000000	0.387845
788.000000	0.387560
789.000000	0.387256
790.000000	0.386888
791.000000	0.386500
792.000000	0.386124
793.000000	0.385718
794.000000	0.385269
795.000000	0.384859
796.000000	0.384473
797.000000	0.384092
798.000000	0.383714
799.000000	0.383338
800.000000	0.382965
801.000000	0.382596
802.000000	0.382239
803.000000	0.381721
804.000000	0.381068
805.000000	0.380521
806.000000	0.379935
807.000000	0.379391
808.000000	0.378872
809.000000	0.378314
810.000000	0.377797
811.000000	0.377351
812.000000	0.376853
813.000000	0.376329
814.000000	0.375799
815.000000	0.375314
816.000000	0.374793
817.000000	0.374271
818.000000	0.373697
819.000000	0.373116
820.000000	0.372593
821.000000	0.372087
822.000000	0.371594
823.000000	0.371073
824.000000	0.370482
825.000000	0.369924
826.000000	0.369301
827.000000	0.368649
828.000000	0.368063
829.000000	0.367566
830.000000	0.367039
831.000000	0.366526
832.000000	0.365972
833.000000	0.365530
834.000000	0.365064
835.000000	0.364506
836.000000	0.363976
837.000000	0.363331
838.000000	0.362657
839.000000	0.362160
840.000000	0.361660
841.000000	0.361208
842.000000	0.360815
843.000000	0.360417
844.000000	0.359997
845.000000	0.359502
846.000000	0.358932
847.000000	0.358355
848.000000	0.357823
849.000000	0.357389
850.000000	0.356905
851.000000	0.356390
852.000000	0.355918
853.000000	0.355499
854.000000	0.354986
855.000000	0.354527
856.000000	0.354109
857.000000	0.353608
858.000000	0.353157
859.000000	0.352727
860.000000	0.352278
861.000000	0.351892
862.000000	0.351555
863.000000	0.351136
864.000000	0.350730
865.000000	0.350217
866.000000	0.349621
867.000000	0.349173
868.000000	0.348843
869.000000	0.348535
870.000000	0.348250
871.000000	0.347896
872.000000	0.347526
873.000000	0.347099
874.000000	0.346590
875.000000	0.346175
876.000000	0.345831
877.000000	0.345381
878.000000	0.344940
879.000000	0.344625
880.000000	0.344331
881.000000	0.344114
882.000000	0.343828
883.000000	0.343500
884.000000	0.343162
885.000000	0.342920
886.000000	0.342615
887.000000	0.342248
888.000000	0.342068
889.000000	0.341806
890.000000	0.341377
891.000000	0.341020
892.000000	0.340686
893.000000	0.340408
894.000000	0.340276
895.000000	0.340017
896.000000	0.339812
897.000000	0.339625
898.000000	0.339368
899.000000	0.339092
900.000000	0.338892
901.000000	0.338742
902.000000	0.338601
903.000000	0.338467
904.000000	0.338373
905.000000	0.338226
906.000000	0.337992
907.000000	0.337720
908.000000	0.337543
909.000000	0.337478
910.000000	0.337410
911.000000	0.337327
912.000000	0.337245
913.000000	0.337063
914.000000	0.336893
915.000000	0.336796
916.000000	0.336618
917.000000	0.336509
918.000000	0.336446
919.000000	0.336372
920.000000	0.336331
921.000000	0.336296
922.000000	0.336216
923.000000	0.336009
924.000000	0.335728
925.000000	0.335648
926.000000	0.335794
927.000000	0.335587
928.000000	0.335440
929.000000	0.335415
930.000000	0.335446
931.000000	0.335413
932.000000	0.335352
933.000000	0.335288
934.000000	0.335114
935.000000	0.335071
936.000000	0.335131
937.000000	0.335134
938.000000	0.335260
939.000000	0.335323
940.000000	0.335229
941.000000	0.335153
942.000000	0.335267
943.000000	0.335479
944.000000	0.335570
945.000000	0.335649
946.000000	0.335511
947.000000	0.335476
948.000000	0.335772
949.000000	0.335719
950.000000	0.335590
951.000000	0.335479
952.000000	0.335416
953.000000	0.335548
954.000000	0.335798
955.000000	0.335928
956.000000	0.335706
957.000000	0.335675
958.000000	0.335780
959.000000	0.335869
960.000000	0.335982
961.000000	0.336068
962.000000	0.336114
963.000000	0.336216
964.000000	0.336231
965.000000	0.336338
966.000000	0.336560
967.000000	0.336890
968.000000	0.337006
969.000000	0.336863
970.000000	0.336760
971.000000	0.337057
972.000000	0.337369
973.000000	0.337451
974.000000	0.337540
975.000000	0.337717
976.000000	0.337999
977.000000	0.338334
978.000000	0.338593
979.000000	0.338785
980.000000	0.338742
981.000000	0.338814
982.000000	0.339112
983.000000	0.339452
984.000000	0.339809
985.000000	0.340174
986.000000	0.340374
987.000000	0.340488
988.000000	0.340528
989.000000	0.340708
990.000000	0.341180
991.000000	0.341543
992.000000	0.341495
993.000000	0.341902
994.000000	0.342336
995.000000	0.342692
996.000000	0.342738
997.000000	0.343043
998.000000	0.343451
999.000000	0.343898
1000.000000	0.344301
1001.000000	0.344495
1002.000000	0.343959
1003.000000	0.343196
1004.000000	0.343697
1005.000000	0.345788
1006.000000	0.346055
1007.000000	0.346162
1008.000000	0.346556
1009.000000	0.346283
1010.000000	0.345471
1011.000000	0.346364
1012.000000	0.348258
1013.000000	0.348566
1014.000000	0.348549
1015.000000	0.348802
1016.000000	0.348560
1017.000000	0.349120
1018.000000	0.350218
1019.000000	0.350765
1020.000000	0.351356
1021.000000	0.351634
1022.000000	0.351754
1023.000000	0.352033
1024.000000	0.352195
1025.000000	0.352544
1026.000000	0.352578
1027.000000	0.352336
1028.000000	0.352475
1029.000000	0.353329
1030.000000	0.354426
1031.000000	0.354861
1032.000000	0.355309
1033.000000	0.355644
1034.000000	0.356158
1035.000000	0.356588
1036.000000	0.357351
1037.000000	0.358856
1038.000000	0.359293
1039.000000	0.359208
1040.000000	0.359478
1041.000000	0.359840
1042.000000	0.360098
1043.000000	0.361003
1044.000000	0.361860
1045.000000	0.361905
1046.000000	0.362403
1047.000000	0.363101
1048.000000	0.363831
1049.000000	0.364427
1050.000000	0.365316
1051.000000	0.365962
1052.000000	0.366312
1053.000000	0.366915
1054.000000	0.367979
1055.000000	0.368620
1056.000000	0.369153
1057.000000	0.369579
1058.000000	0.369823
1059.000000	0.370199
1060.000000	0.370817
1061.000000	0.371625
1062.000000	0.372609
1063.000000	0.373487
1064.000000	0.374250
1065.000000	0.375005
1066.000000	0.375628
1067.000000	0.375904
1068.000000	0.376361
1069.000000	0.376697
1070.000000	0.377216
1071.000000	0.377979
1072.000000	0.378674
1073.000000	0.379465
1074.000000	0.380427
1075.000000	0.381015
1076.000000	0.381554
1077.000000	0.382422
1078.000000	0.383439
1079.000000	0.384068
1080.000000	0.384605
1081.000000	0.385354
1082.000000	0.386024
1083.000000	0.386647
1084.000000	0.387664
1085.000000	0.388529
1086.000000	0.389108
1087.000000	0.389676
1088.000000	0.390034
1089.000000	0.390665
1090.000000	0.391198
1091.000000	0.391871
1092.000000	0.392918
1093.000000	0.393965
1094.000000	0.394661
1095.000000	0.394997
1096.000000	0.395538
1097.000000	0.395805
1098.000000	0.396610
1099.000000	0.397718
1100.000000	0.398673
1101.000000	0.399838
1102.000000	0.400790
1103.000000	0.401494
1104.000000	0.402290
1105.000000	0.403084
1106.000000	0.403879
1107.000000	0.404626
1108.000000	0.405294
1109.000000	0.405837
1110.000000	0.406728
1111.000000	0.407379
1112.000000	0.407800
1113.000000	0.408625
1114.000000	0.409656
1115.000000	0.410556
1116.000000	0.411790
1117.000000	0.412542
1118.000000	0.412838
1119.000000	0.413396
1120.000000	0.413931
1121.000000	0.414424
1122.000000	0.414985
1123.000000	0.415925
1124.000000	0.416711
1125.000000	0.417487
1126.000000	0.418443
1127.000000	0.419226
1128.000000	0.419889
1129.000000	0.420299
1130.000000	0.421045
1131.000000	0.421975
1132.000000	0.422624
1133.000000	0.423386
1134.000000	0.424004
1135.000000	0.424180
1136.000000	0.424765
1137.000000	0.425643
1138.000000	0.426183
1139.000000	0.426779
1140.000000	0.427485
1141.000000	0.427848
1142.000000	0.428508
1143.000000	0.429446
1144.000000	0.430368
1145.000000	0.431060
1146.000000	0.431812
1147.000000	0.432489
1148.000000	0.432942
1149.000000	0.433530
1150.000000	0.434234
1151.000000	0.434795
1152.000000	0.435192
1153.000000	0.435742
1154.000000	0.436210
1155.000000	0.436705
1156.000000	0.437280
1157.000000	0.437864
1158.000000	0.438391
1159.000000	0.438934
1160.000000	0.439537
1161.000000	0.440070
1162.000000	0.440702
1163.000000	0.441273
1164.000000	0.441808
1165.000000	0.442256
1166.000000	0.442858
1167.000000	0.443448
1168.000000	0.444012
1169.000000	0.444694
1170.000000	0.445329
1171.000000	0.445956
1172.000000	0.446608
1173.000000	0.447246
1174.000000	0.447850
1175.000000	0.448444
1176.000000	0.448919
1177.000000	0.449425
1178.000000	0.449915
1179.000000	0.450278
1180.000000	0.450644
1181.000000	0.451096
1182.000000	0.451592
1183.000000	0.452254
1184.000000	0.452937
1185.000000	0.453520
1186.000000	0.454158
1187.000000	0.454658
1188.000000	0.454977
1189.000000	0.455372
1190.000000	0.455817
1191.000000	0.456305
1192.000000	0.457030
1193.000000	0.457696
1194.000000	0.458189
1195.000000	0.458677
1196.000000	0.458891
1197.000000	0.459377
1198.000000	0.460155
1199.000000	0.460738
1200.000000	0.461406
1201.000000	0.461913
1202.000000	0.462200
1203.000000	0.462352
1204.000000	0.462699
1205.000000	0.463254
1206.000000	0.463659
1207.000000	0.464341
1208.000000	0.464740
1209.000000	0.464997
1210.000000	0.465338
1211.000000	0.465694
1212.000000	0.465962
1213.000000	0.466256
1214.000000	0.466571
1215.000000	0.466779
1216.000000	0.467034
1217.000000	0.467265
1218.000000	0.467547
1219.000000	0.467887
1220.000000	0.468287
1221.000000	0.468752
1222.000000	0.469063
1223.000000	0.469351
1224.000000	0.469530
1225.000000	0.469605
1226.000000	0.469925
1227.000000	0.470088
1228.000000	0.470384
1229.000000	0.470677
1230.000000	0.470968
1231.000000	0.471192
1232.000000	0.471640
1233.000000	0.472059
1234.000000	0.472451
1235.000000	0.472726
1236.000000	0.472782
1237.000000	0.473042
1238.000000	0.473121
1239.000000	0.473375
1240.000000	0.473835
1241.000000	0.474290
1242.000000	0.474674
1243.000000	0.475008
1244.000000	0.475079
1245.000000	0.475360
1246.000000	0.475647
1247.000000	0.475938
1248.000000	0.476445
1249.000000	0.476814
1250.000000	0.477001
1251.000000	0.477314
1252.000000	0.477611
1253.000000	0.477963
1254.000000	0.478227
1255.000000	0.478502
1256.000000	0.478715
1257.000000	0.478877
1258.000000	0.479084
1259.000000	0.479122
1260.000000	0.479373
1261.000000	0.479718
1262.000000	0.479899
1263.000000	0.480153
1264.000000	0.480211
1265.000000	0.480390
1266.000000	0.480471
1267.000000	0.480460
1268.000000	0.480743
1269.000000	0.480891
1270.000000	0.481009
1271.000000	0.481193
1272.000000	0.481409
1273.000000	0.481613
1274.000000	0.481642
1275.000000	0.481726
1276.000000	0.481883
1277.000000	0.482145
1278.000000	0.482366
1279.000000	0.482456
1280.000000	0.482411
1281.000000	0.482411
1282.000000	0.482350
1283.000000	0.482444
1284.000000	0.482615
1285.000000	0.482749
1286.000000	0.482823
1287.000000	0.482926
1288.000000	0.483013
1289.000000	0.483156
1290.000000	0.483020
1291.000000	0.482740
1292.000000	0.482962
1293.000000	0.483179
1294.000000	0.483300
1295.000000	0.483646
1296.000000	0.483616
1297.000000	0.483376
1298.000000	0.483480
1299.000000	0.483640
1300.000000	0.483810
1301.000000	0.483943
1302.000000	0.483869
1303.000000	0.483738
1304.000000	0.483626
1305.000000	0.483585
1306.000000	0.483443
1307.000000	0.483290
1308.000000	0.483288
1309.000000	0.483346
1310.000000	0.483271
1311.000000	0.483281
1312.000000	0.483229
1313.000000	0.482904
1314.000000	0.482704
1315.000000	0.482636
1316.000000	0.482575
1317.000000	0.482607
1318.000000	0.482523
1319.000000	0.482263
1320.000000	0.482021
1321.000000	0.481750
1322.000000	0.481502
1323.000000	0.481413
1324.000000	0.481457
1325.000000	0.481333
1326.000000	0.481284
1327.000000	0.481298
1328.000000	0.481070
1329.000000	0.480858
1330.000000	0.480708
1331.000000	0.480493
1332.000000	0.480266
1333.000000	0.480106
1334.000000	0.480110
1335.000000	0.479976
1336.000000	0.479666
1337.000000	0.479497
1338.000000	0.479287
1339.000000	0.479021
1340.000000	0.478963
1341.000000	0.479046
1342.000000	0.478748
1343.000000	0.478566
1344.000000	0.478446
1345.000000	0.478054
1346.000000	0.478077
1347.000000	0.478016
1348.000000	0.477719
1349.000000	0.477355
1350.000000	0.476970
1351.000000	0.476501
1352.000000	0.475952
1353.000000	0.475618
1354.000000	0.475611
1355.000000	0.475484
1356.000000	0.475401
1357.000000	0.475239
1358.000000	0.474918
1359.000000	0.474553
1360.000000	0.474214
1361.000000	0.473957
1362.000000	0.473730
1363.000000	0.473470
1364.000000	0.473209
1365.000000	0.472940
1366.000000	0.472657
1367.000000	0.472308
1368.000000	0.472072
1369.000000	0.471884
1370.000000	0.471443
1371.000000	0.470804
1372.000000	0.470010
1373.000000	0.469296
1374.000000	0.468624
1375.000000	0.467902
1376.000000	0.467314
1377.000000	0.466434
1378.000000	0.465307
1379.000000	0.464113
1380.000000	0.462620
1381.000000	0.460920
1382.000000	0.459311
1383.000000	0.457632
1384.000000	0.455651
1385.000000	0.453724
1386.000000	0.451801
1387.000000	0.449638
1388.000000	0.447422
1389.000000	0.444973
1390.000000	0.442331
1391.000000	0.439751
1392.000000	0.437268
1393.000000	0.434759
1394.000000	0.432418
1395.000000	0.429959
1396.000000	0.427452
1397.000000	0.424874
1398.000000	0.422236
1399.000000	0.419584
1400.000000	0.416758
1401.000000	0.414060
1402.000000	0.411436
1403.000000	0.408874
1404.000000	0.406443
1405.000000	0.403888
1406.000000	0.401316
1407.000000	0.398816
1408.000000	0.396311
1409.000000	0.394086
1410.000000	0.392037
1411.000000	0.389878
1412.000000	0.387911
1413.000000	0.386284
1414.000000	0.384825
1415.000000	0.383832
1416.000000	0.383159
1417.000000	0.382589
1418.000000	0.382090
1419.000000	0.381790
1420.000000	0.381526
1421.000000	0.381284
1422.000000	0.381176
1423.000000	0.381124
1424.000000	0.380755
1425.000000	0.380292
1426.000000	0.379614
1427.000000	0.378730
1428.000000	0.377910
1429.000000	0.377145
1430.000000	0.376451
1431.000000	0.375850
1432.000000	0.375508
1433.000000	0.375306
1434.000000	0.375461
1435.000000	0.375969
1436.000000	0.376843
1437.000000	0.377993
1438.000000	0.379390
1439.000000	0.381223
1440.000000	0.383196
1441.000000	0.385536
1442.000000	0.387945
1443.000000	0.390504
1444.000000	0.393083
1445.000000	0.395573
1446.000000	0.397866
1447.000000	0.399999
1448.000000	0.401850
1449.000000	0.403552
1450.000000	0.404978
1451.000000	0.406087
1452.000000	0.407079
1453.000000	0.407764
1454.000000	0.408238
1455.000000	0.408715
1456.000000	0.409132
1457.000000	0.409571
1458.000000	0.409975
1459.000000	0.410251
1460.000000	0.410468
1461.000000	0.410682
1462.000000	0.410915
1463.000000	0.411133
1464.000000	0.411450
1465.000000	0.411786
1466.000000	0.412111
1467.000000	0.412584
1468.000000	0.413087
1469.000000	0.413691
1470.000000	0.414268
1471.000000	0.415024
1472.000000	0.415813
1473.000000	0.416569
1474.000000	0.417399
1475.000000	0.418205
1476.000000	0.418996
1477.000000	0.419832
1478.000000	0.420692
1479.000000	0.421548
1480.000000	0.422289
1481.000000	0.422974
1482.000000	0.423651
1483.000000	0.424421
1484.000000	0.425154
1485.000000	0.425920
1486.000000	0.426823
1487.000000	0.427586
1488.000000	0.428200
1489.000000	0.428952
1490.000000	0.429612
1491.000000	0.430308
1492.000000	0.430990
1493.000000	0.431752
1494.000000	0.432394
1495.000000	0.433116
1496.000000	0.434086
1497.000000	0.434785
1498.000000	0.435365
1499.000000	0.436014
1500.000000	0.436650
1501.000000	0.437195
1502.000000	0.437794
1503.000000	0.438431
1504.000000	0.438894
1505.000000	0.439291
1506.000000	0.439917
1507.000000	0.440569
1508.000000	0.441204
1509.000000	0.441857
1510.000000	0.442357
1511.000000	0.442739
1512.000000	0.443188
1513.000000	0.443678
1514.000000	0.444066
1515.000000	0.444493
1516.000000	0.444986
1517.000000	0.445207
1518.000000	0.445582
1519.000000	0.446045
1520.000000	0.446358
1521.000000	0.446644
1522.000000	0.446934
1523.000000	0.447320
1524.000000	0.447688
1525.000000	0.448103
1526.000000	0.448566
1527.000000	0.448905
1528.000000	0.449205
1529.000000	0.449583
1530.000000	0.449797
1531.000000	0.450049
1532.000000	0.450574
1533.000000	0.450918
1534.000000	0.451253
1535.000000	0.451741
1536.000000	0.451865
1537.000000	0.452176
1538.000000	0.452734
1539.000000	0.453016
1540.000000	0.453296
1541.000000	0.453692
1542.000000	0.453962
1543.000000	0.454244
1544.000000	0.454632
1545.000000	0.454934
1546.000000	0.455205
1547.000000	0.455599
1548.000000	0.455990
1549.000000	0.456229
1550.000000	0.456430
1551.000000	0.456696
1552.000000	0.456895
1553.000000	0.457161
1554.000000	0.457418
1555.000000	0.457455
1556.000000	0.457621
1557.000000	0.457782
1558.000000	0.457940
1559.000000	0.458077
1560.000000	0.458213
1561.000000	0.458342
1562.000000	0.458455
1563.000000	0.458639
1564.000000	0.458860
1565.000000	0.459087
1566.000000	0.459151
1567.000000	0.459333
1568.000000	0.459418
1569.000000	0.459436
1570.000000	0.459592
1571.000000	0.459788
1572.000000	0.459990
1573.000000	0.460322
1574.000000	0.460447
1575.000000	0.460524
1576.000000	0.460575
1577.000000	0.460414
1578.000000	0.460402
1579.000000	0.460557
1580.000000	0.460678
1581.000000	0.460991
1582.000000	0.461095
1583.000000	0.461026
1584.000000	0.461039
1585.000000	0.461075
1586.000000	0.461233
1587.000000	0.461585
1588.000000	0.461729
1589.000000	0.461825
1590.000000	0.461935
1591.000000	0.461976
1592.000000	0.462105
1593.000000	0.462398
1594.000000	0.462510
1595.000000	0.462589
1596.000000	0.462681
1597.000000	0.462744
1598.000000	0.462838
1599.000000	0.463052
1600.000000	0.463082
1601.000000	0.463066
1602.000000	0.463156
1603.000000	0.463323
1604.000000	0.463371
1605.000000	0.463536
1606.000000	0.463545
1607.000000	0.463376
1608.000000	0.463336
1609.000000	0.463435
1610.000000	0.463458
1611.000000	0.463514
1612.000000	0.463522
1613.000000	0.463599
1614.000000	0.463645
1615.000000	0.463774
1616.000000	0.463938
1617.000000	0.464052
1618.000000	0.464172
1619.000000	0.464233
1620.000000	0.464379
1621.000000	0.464677
1622.000000	0.464915
1623.000000	0.465096
1624.000000	0.465294
1625.000000	0.465273
1626.000000	0.465240
1627.000000	0.465272
1628.000000	0.465305
1629.000000	0.465223
1630.000000	0.465243
1631.000000	0.465220
1632.000000	0.465250
1633.000000	0.465380
1634.000000	0.465451
1635.000000	0.465606
1636.000000	0.465683
1637.000000	0.465671
1638.000000	0.465672
1639.000000	0.465812
1640.000000	0.465809
1641.000000	0.465751
1642.000000	0.465881
1643.000000	0.466167
1644.000000	0.466207
1645.000000	0.466244
1646.000000	0.466224
1647.000000	0.466002
1648.000000	0.465963
1649.000000	0.466166
1650.000000	0.466410
1651.000000	0.466797
1652.000000	0.467048
1653.000000	0.467332
1654.000000	0.467475
1655.000000	0.467305
1656.000000	0.467258
1657.000000	0.467333
1658.000000	0.467345
1659.000000	0.467525
1660.000000	0.467633
1661.000000	0.467518
1662.000000	0.467638
1663.000000	0.467782
1664.000000	0.467964
1665.000000	0.468327
1666.000000	0.468560
1667.000000	0.468577
1668.000000	0.468775
1669.000000	0.469009
1670.000000	0.469040
1671.000000	0.469212
1672.000000	0.469391
1673.000000	0.469384
1674.000000	0.469445
1675.000000	0.469692
1676.000000	0.469780
1677.000000	0.469774
1678.000000	0.469816
1679.000000	0.469653
1680.000000	0.469520
1681.000000	0.469422
1682.000000	0.469334
1683.000000	0.469516
1684.000000	0.469488
1685.000000	0.469391
1686.000000	0.469348
1687.000000	0.469247
1688.000000	0.469344
1689.000000	0.469471
1690.000000	0.469290
1691.000000	0.469333
1692.000000	0.469250
1693.000000	0.469108
1694.000000	0.469277
1695.000000	0.469414
1696.000000	0.469557
1697.000000	0.469498
1698.000000	0.469231
1699.000000	0.469249
1700.000000	0.469363
1701.000000	0.469510
1702.000000	0.469762
1703.000000	0.469699
1704.000000	0.469348
1705.000000	0.469214
1706.000000	0.469106
1707.000000	0.469040
1708.000000	0.469142
1709.000000	0.469058
1710.000000	0.468989
1711.000000	0.468977
1712.000000	0.468995
1713.000000	0.468965
1714.000000	0.468963
1715.000000	0.469032
1716.000000	0.469142
1717.000000	0.469214
1718.000000	0.469385
1719.000000	0.469346
1720.000000	0.469148
1721.000000	0.469106
1722.000000	0.469066
1723.000000	0.469015
1724.000000	0.469096
1725.000000	0.469166
1726.000000	0.469032
1727.000000	0.469021
1728.000000	0.469069
1729.000000	0.468915
1730.000000	0.468859
1731.000000	0.468791
1732.000000	0.468650
1733.000000	0.468668
1734.000000	0.468579
1735.000000	0.468516
1736.000000	0.468470
1737.000000	0.468348
1738.000000	0.468171
1739.000000	0.468144
1740.000000	0.468211
1741.000000	0.467950
1742.000000	0.467565
1743.000000	0.467583
1744.000000	0.467504
1745.000000	0.467457
1746.000000	0.467834
1747.000000	0.467363
1748.000000	0.466986
1749.000000	0.466583
1750.000000	0.466245
1751.000000	0.466262
1752.000000	0.466215
1753.000000	0.465914
1754.000000	0.465733
1755.000000	0.465411
1756.000000	0.465184
1757.000000	0.465138
1758.000000	0.465061
1759.000000	0.465006
1760.000000	0.464863
1761.000000	0.464608
1762.000000	0.464378
1763.000000	0.464062
1764.000000	0.463887
1765.000000	0.463726
1766.000000	0.463669
1767.000000	0.463648
1768.000000	0.463538
1769.000000	0.463559
1770.000000	0.463667
1771.000000	0.463784
1772.000000	0.463772
1773.000000	0.463763
1774.000000	0.463604
1775.000000	0.463279
1776.000000	0.463076
1777.000000	0.462785
1778.000000	0.462631
1779.000000	0.462508
1780.000000	0.462520
1781.000000	0.462662
1782.000000	0.462650
1783.000000	0.462714
1784.000000	0.462786
1785.000000	0.462610
1786.000000	0.462602
1787.000000	0.462883
1788.000000	0.463034
1789.000000	0.462970
1790.000000	0.462717
1791.000000	0.462536
1792.000000	0.462495
1793.000000	0.462375
1794.000000	0.462286
1795.000000	0.462261
1796.000000	0.462168
1797.000000	0.462130
1798.000000	0.462122
1799.000000	0.462197
1800.000000	0.462443
1801.000000	0.462249
1802.000000	0.462356
1803.000000	0.462157
1804.000000	0.462549
1805.000000	0.464282
1806.000000	0.464796
1807.000000	0.464709
1808.000000	0.464898
1809.000000	0.464672
1810.000000	0.464803
1811.000000	0.464779
1812.000000	0.465141
1813.000000	0.464774
1814.000000	0.463675
1815.000000	0.463319
1816.000000	0.462716
1817.000000	0.462384
1818.000000	0.462132
1819.000000	0.463552
1820.000000	0.463436
1821.000000	0.463519
1822.000000	0.463396
1823.000000	0.462597
1824.000000	0.462198
1825.000000	0.461789
1826.000000	0.461623
1827.000000	0.461634
1828.000000	0.461376
1829.000000	0.461166
1830.000000	0.461778
1831.000000	0.461878
1832.000000	0.462065
1833.000000	0.462007
1834.000000	0.461481
1835.000000	0.461446
1836.000000	0.461286
1837.000000	0.461422
1838.000000	0.461942
1839.000000	0.462286
1840.000000	0.462566
1841.000000	0.462498
1842.000000	0.461932
1843.000000	0.460175
1844.000000	0.459859
1845.000000	0.459890
1846.000000	0.459651
1847.000000	0.459759
1848.000000	0.459794
1849.000000	0.459552
1850.000000	0.458669
1851.000000	0.458199
1852.000000	0.458340
1853.000000	0.457891
1854.000000	0.456609
1855.000000	0.455580
1856.000000	0.454642
1857.000000	0.453155
1858.000000	0.451312
1859.000000	0.449776
1860.000000	0.448304
1861.000000	0.446725
1862.000000	0.445436
1863.000000	0.445145
1864.000000	0.443864
1865.000000	0.442134
1866.000000	0.440386
1867.000000	0.438368
1868.000000	0.435712
1869.000000	0.433123
1870.000000	0.431242
1871.000000	0.428933
1872.000000	0.426305
1873.000000	0.423517
1874.000000	0.420670
1875.000000	0.417399
1876.000000	0.413602
1877.000000	0.409113
1878.000000	0.404705
1879.000000	0.399993
1880.000000	0.394710
1881.000000	0.389394
1882.000000	0.384000
1883.000000	0.379077
1884.000000	0.374010
1885.000000	0.369012
1886.000000	0.363561
1887.000000	0.358286
1888.000000	0.351747
1889.000000	0.344296
1890.000000	0.337399
1891.000000	0.330198
1892.000000	0.321988
1893.000000	0.314698
1894.000000	0.307796
1895.000000	0.300704
1896.000000	0.293511
1897.000000	0.287436
1898.000000	0.281000
1899.000000	0.274828
1900.000000	0.269070
1901.000000	0.262855
1902.000000	0.257864
1903.000000	0.253580
1904.000000	0.249586
1905.000000	0.246958
1906.000000	0.244505
1907.000000	0.242657
1908.000000	0.240569
1909.000000	0.239490
1910.000000	0.238975
1911.000000	0.238617
1912.000000	0.238805
1913.000000	0.239225
1914.000000	0.239764
1915.000000	0.239910
1916.000000	0.240540
1917.000000	0.241248
1918.000000	0.242220
1919.000000	0.242992
1920.000000	0.244364
1921.000000	0.245502
1922.000000	0.246364
1923.000000	0.247280
1924.000000	0.248182
1925.000000	0.249014
1926.000000	0.249893
1927.000000	0.251106
1928.000000	0.252346
1929.000000	0.253652
1930.000000	0.255088
1931.000000	0.256900
1932.000000	0.258399
1933.000000	0.258884
1934.000000	0.259506
1935.000000	0.259757
1936.000000	0.259634
1937.000000	0.260682
1938.000000	0.262130
1939.000000	0.263409
1940.000000	0.264954
1941.000000	0.266420
1942.000000	0.267549
1943.000000	0.268344
1944.000000	0.268620
1945.000000	0.269080
1946.000000	0.269766
1947.000000	0.270045
1948.000000	0.269933
1949.000000	0.270206
1950.000000	0.270577
1951.000000	0.270944
1952.000000	0.271346
1953.000000	0.272273
1954.000000	0.273176
1955.000000	0.274067
1956.000000	0.274471
1957.000000	0.274396
1958.000000	0.274529
1959.000000	0.274709
1960.000000	0.275253
1961.000000	0.276044
1962.000000	0.276492
1963.000000	0.276914
1964.000000	0.276980
1965.000000	0.277110
1966.000000	0.277602
1967.000000	0.278127
1968.000000	0.279425
1969.000000	0.281167
1970.000000	0.282649
1971.000000	0.283982
1972.000000	0.284856
1973.000000	0.285474
1974.000000	0.285032
1975.000000	0.285728
1976.000000	0.286998
1977.000000	0.288138
1978.000000	0.289232
1979.000000	0.291068
1980.000000	0.292519
1981.000000	0.293789
1982.000000	0.295056
1983.000000	0.295790
1984.000000	0.296570
1985.000000	0.296867
1986.000000	0.297707
1987.000000	0.298926
1988.000000	0.300063
1989.000000	0.301005
1990.000000	0.302288
1991.000000	0.303619
1992.000000	0.304747
1993.000000	0.306088
1994.000000	0.307478
1995.000000	0.308420
1996.000000	0.309404
1997.000000	0.310528
1998.000000	0.312001
1999.000000	0.312971
2000.000000	0.313620
2001.000000	0.314651
2002.000000	0.315638
2003.000000	0.316522
2004.000000	0.317668
2005.000000	0.318796
2006.000000	0.320179
2007.000000	0.321460
2008.000000	0.322709
2009.000000	0.324088
2010.000000	0.325628
2011.000000	0.327011
2012.000000	0.328316
2013.000000	0.329962
2014.000000	0.330884
2015.000000	0.331507
2016.000000	0.332253
2017.000000	0.332771
2018.000000	0.333642
2019.000000	0.334991
2020.000000	0.336361
2021.000000	0.337650
2022.000000	0.339344
2023.000000	0.340557
2024.000000	0.341227
2025.000000	0.342159
2026.000000	0.342886
2027.000000	0.343859
2028.000000	0.344564
2029.000000	0.345946
2030.000000	0.346943
2031.000000	0.346975
2032.000000	0.347614
2033.000000	0.348731
2034.000000	0.349938
2035.000000	0.352130
2036.000000	0.353343
2037.000000	0.354375
2038.000000	0.355331
2039.000000	0.355995
2040.000000	0.356600
2041.000000	0.357328
2042.000000	0.358136
2043.000000	0.358915
2044.000000	0.359920
2045.000000	0.361083
2046.000000	0.361737
2047.000000	0.362386
2048.000000	0.362594
2049.000000	0.363346
2050.000000	0.363594
2051.000000	0.364427
2052.000000	0.365830
2053.000000	0.366808
2054.000000	0.368287
2055.000000	0.369569
2056.000000	0.370164
2057.000000	0.369844
2058.000000	0.369851
2059.000000	0.370622
2060.000000	0.371043
2061.000000	0.372022
2062.000000	0.372541
2063.000000	0.372276
2064.000000	0.372536
2065.000000	0.373286
2066.000000	0.373871
2067.000000	0.374779
2068.000000	0.376354
2069.000000	0.377319
2070.000000	0.378438
2071.000000	0.379301
2072.000000	0.379911
2073.000000	0.380206
2074.000000	0.380423
2075.000000	0.381046
2076.000000	0.381801
2077.000000	0.382282
2078.000000	0.383326
2079.000000	0.383672
2080.000000	0.383335
2081.000000	0.383358
2082.000000	0.383161
2083.000000	0.383152
2084.000000	0.383684
2085.000000	0.384044
2086.000000	0.385200
2087.000000	0.386075
2088.000000	0.386125
2089.000000	0.387066
2090.000000	0.387800
2091.000000	0.388616
2092.000000	0.388959
2093.000000	0.389060
2094.000000	0.389534
2095.000000	0.389802
2096.000000	0.390269
2097.000000	0.391306
2098.000000	0.391925
2099.000000	0.391767
2100.000000	0.392442
2101.000000	0.393214
2102.000000	0.394006
2103.000000	0.394813
2104.000000	0.394725
2105.000000	0.395005
2106.000000	0.394751
2107.000000	0.395265
2108.000000	0.396527
2109.000000	0.397140
2110.000000	0.397902
2111.000000	0.397886
2112.000000	0.396590
2113.000000	0.395955
2114.000000	0.395532
2115.000000	0.395359
2116.000000	0.397138
2117.000000	0.398458
2118.000000	0.399460
2119.000000	0.400468
2120.000000	0.400969
2121.000000	0.400536
2122.000000	0.400816
2123.000000	0.401236
2124.000000	0.401384
2125.000000	0.401841
2126.000000	0.401682
2127.000000	0.401013
2128.000000	0.400694
2129.000000	0.400361
2130.000000	0.399103
2131.000000	0.398794
2132.000000	0.398808
2133.000000	0.398900
2134.000000	0.400434
2135.000000	0.401548
2136.000000	0.401840
2137.000000	0.401832
2138.000000	0.400862
2139.000000	0.400743
2140.000000	0.400760
2141.000000	0.400600
2142.000000	0.400996
2143.000000	0.400856
2144.000000	0.400062
2145.000000	0.399862
2146.000000	0.400759
2147.000000	0.400475
2148.000000	0.399140
2149.000000	0.399236
2150.000000	0.398351
2151.000000	0.397738
2152.000000	0.398276
2153.000000	0.397257
2154.000000	0.396859
2155.000000	0.396436
2156.000000	0.396102
2157.000000	0.396310
2158.000000	0.395968
2159.000000	0.395396
2160.000000	0.394666
2161.000000	0.393177
2162.000000	0.392477
2163.000000	0.391718
2164.000000	0.391384
2165.000000	0.391926
2166.000000	0.391793
2167.000000	0.392157
2168.000000	0.392636
2169.000000	0.392242
2170.000000	0.392958
2171.000000	0.393451
2172.000000	0.393946
2173.000000	0.394257
2174.000000	0.395003
2175.000000	0.394711
2176.000000	0.393374
2177.000000	0.392986
2178.000000	0.392758
2179.000000	0.392615
2180.000000	0.392647
2181.000000	0.393088
2182.000000	0.393019
2183.000000	0.392994
2184.000000	0.392783
2185.000000	0.392344
2186.000000	0.391510
2187.000000	0.390592
2188.000000	0.390301
2189.000000	0.390601
2190.000000	0.391046
2191.000000	0.391044
2192.000000	0.390486
2193.000000	0.389487
2194.000000	0.388168
2195.000000	0.385561
2196.000000	0.384589
2197.000000	0.383722
2198.000000	0.383539
2199.000000	0.386032
2200.000000	0.386170
2201.000000	0.385449
2202.000000	0.384702
2203.000000	0.382861
2204.000000	0.379779
2205.000000	0.376462
2206.000000	0.374443
2207.000000	0.370591
2208.000000	0.368315
2209.000000	0.370748
2210.000000	0.371952
2211.000000	0.374856
2212.000000	0.379209
2213.000000	0.380854
2214.000000	0.380401
2215.000000	0.380376
2216.000000	0.378887
2217.000000	0.378851
2218.000000	0.378619
2219.000000	0.379493
2220.000000	0.382469
2221.000000	0.383433
2222.000000	0.383491
2223.000000	0.384024
2224.000000	0.384305
2225.000000	0.384271
2226.000000	0.383343
2227.000000	0.382862
2228.000000	0.381226
2229.000000	0.378455
2230.000000	0.377177
2231.000000	0.378428
2232.000000	0.379219
2233.000000	0.379752
2234.000000	0.381129
2235.000000	0.380386
2236.000000	0.379086
2237.000000	0.376174
2238.000000	0.375519
2239.000000	0.374073
2240.000000	0.374312
2241.000000	0.377324
2242.000000	0.378522
2243.000000	0.380079
2244.000000	0.380637
2245.000000	0.379937
2246.000000	0.379425
2247.000000	0.377717
2248.000000	0.376996
2249.000000	0.376083
2250.000000	0.377414
2251.000000	0.378424
2252.000000	0.378131
2253.000000	0.379409
2254.000000	0.378807
2255.000000	0.376333
2256.000000	0.376680
2257.000000	0.377326
2258.000000	0.375419
2259.000000	0.373723
2260.000000	0.372013
2261.000000	0.369749
2262.000000	0.366397
2263.000000	0.363250
2264.000000	0.359749
2265.000000	0.357299
2266.000000	0.354436
2267.000000	0.352365
2268.000000	0.352573
2269.000000	0.350547
2270.000000	0.348045
2271.000000	0.344891
2272.000000	0.340242
2273.000000	0.336000
2274.000000	0.331124
2275.000000	0.326172
2276.000000	0.320722
2277.000000	0.316164
2278.000000	0.311965
2279.000000	0.307918
2280.000000	0.306182
2281.000000	0.305608
2282.000000	0.305787
2283.000000	0.307010
2284.000000	0.307314
2285.000000	0.306904
2286.000000	0.304973
2287.000000	0.304159
2288.000000	0.304476
2289.000000	0.305343
2290.000000	0.306139
2291.000000	0.304153
2292.000000	0.302036
2293.000000	0.301556
2294.000000	0.301969
2295.000000	0.303970
2296.000000	0.306770
2297.000000	0.309871
2298.000000	0.314098
2299.000000	0.321320
2300.000000	0.325717
2301.000000	0.330127
2302.000000	0.333259
2303.000000	0.333714
2304.000000	0.335180
2305.000000	0.337353
2306.000000	0.337988
2307.000000	0.336648
2308.000000	0.337990
2309.000000	0.339747
2310.000000	0.340794
2311.000000	0.344829
2312.000000	0.346583
2313.000000	0.344373
2314.000000	0.343839
2315.000000	0.340905
2316.000000	0.337489
2317.000000	0.337655
2318.000000	0.336941
2319.000000	0.338900
2320.000000	0.343062
2321.000000	0.344660
2322.000000	0.345076
2323.000000	0.343665
2324.000000	0.339107
2325.000000	0.334942
2326.000000	0.333661
2327.000000	0.334774
2328.000000	0.337307
2329.000000	0.338922
2330.000000	0.338605
2331.000000	0.335990
2332.000000	0.333967
2333.000000	0.332946
2334.000000	0.332340
2335.000000	0.333028
2336.000000	0.335028
2337.000000	0.335380
2338.000000	0.336637
2339.000000	0.335779
2340.000000	0.332626
2341.000000	0.330882
2342.000000	0.328898
2343.000000	0.326394
2344.000000	0.323938
2345.000000	0.321708
2346.000000	0.318495
2347.000000	0.316622
2348.000000	0.316178
2349.000000	0.315006
2350.000000	0.313158
2351.000000	0.310354
2352.000000	0.306464
2353.000000	0.303137
2354.000000	0.301000
2355.000000	0.301450
2356.000000	0.303958
2357.000000	0.307691
2358.000000	0.308411
2359.000000	0.307065
2360.000000	0.304410
2361.000000	0.298901
2362.000000	0.298570
2363.000000	0.298202
2364.000000	0.294670
2365.000000	0.296683
2366.000000	0.300292
2367.000000	0.300414
2368.000000	0.301179
2369.000000	0.302029
2370.000000	0.293750
2371.000000	0.287835
2372.000000	0.286893
2373.000000	0.282297
2374.000000	0.282621
2375.000000	0.282974
2376.000000	0.279995
2377.000000	0.282783
2378.000000	0.288740
2379.000000	0.292908
2380.000000	0.297817
2381.000000	0.295098
2382.000000	0.282387
2383.000000	0.272641
2384.000000	0.268112
2385.000000	0.267324
2386.000000	0.266961
2387.000000	0.266605
2388.000000	0.267254
2389.000000	0.264080
2390.000000	0.262007
2391.000000	0.262506
2392.000000	0.263158
2393.000000	0.261989
2394.000000	0.264518
2395.000000	0.265612
2396.000000	0.256829
2397.000000	0.256773
2398.000000	0.253911
2399.000000	0.254520
2400.000000	0.264733
2401.000000	0.266419
2402.000000	0.272677
2403.000000	0.273145
2404.000000	0.270030
2405.000000	0.266739
2406.000000	0.258608
2407.000000	0.255396
2408.000000	0.246201
2409.000000	0.240381
2410.000000	0.243113
2411.000000	0.244109
2412.000000	0.249395
2413.000000	0.255187
2414.000000	0.254588
2415.000000	0.249676
2416.000000	0.242836
2417.000000	0.237386
2418.000000	0.238015
2419.000000	0.237067
2420.000000	0.236263
2421.000000	0.240022
2422.000000	0.242588
2423.000000	0.244711
2424.000000	0.240867
2425.000000	0.238838
2426.000000	0.240022
2427.000000	0.237889
2428.000000	0.236642
2429.000000	0.233686
2430.000000	0.230484
2431.000000	0.219322
2432.000000	0.218368
2433.000000	0.227670
2434.000000	0.218727
2435.000000	0.217638
2436.000000	0.224627
2437.000000	0.221027
2438.000000	0.225430
2439.000000	0.237204
2440.000000	0.248364
2441.000000	0.253354
2442.000000	0.260370
2443.000000	0.275272
2444.000000	0.267679
2445.000000	0.263942
2446.000000	0.263998
2447.000000	0.241799
2448.000000	0.231909
2449.000000	0.229469
2450.000000	0.220780
2451.000000	0.215470
2452.000000	0.219865
2453.000000	0.218992
2454.000000	0.224176
2455.000000	0.236736
2456.000000	0.226326
2457.000000	0.215755
2458.000000	0.200417
2459.000000	0.187841
2460.000000	0.190874
2461.000000	0.189826
2462.000000	0.186242
2463.000000	0.183303
2464.000000	0.175037
2465.000000	0.165571
2466.000000	0.168385
2467.000000	0.168912
2468.000000	0.182956
2469.000000	0.188412
2470.000000	0.172066
2471.000000	0.163686
2472.000000	0.142406
2473.000000	0.137727
2474.000000	0.154588
2475.000000	0.148321
2476.000000	0.145835
2477.000000	0.151613
2478.000000	0.148102
2479.000000	0.176200
2480.000000	0.203693
2481.000000	0.224044
2482.000000	0.251606
2483.000000	0.234881
2484.000000	0.206521
2485.000000	0.177835
2486.000000	0.135902
2487.000000	0.135209
2488.000000	0.124681
2489.000000	0.129147
2490.000000	0.171839
2491.000000	0.193749
2492.000000	0.194740
2493.000000	0.166385
2494.000000	0.137067
2495.000000	0.073884
2496.000000	0.059552
2497.000000	0.045293
2498.000000	0.057484
2499.000000	0.142960
2500.000000	0.185301
