# Wavelength	Nau-2_10_FV7_90_00001.asd.rts.txt
350.000000	0.179200
351.000000	0.180215
352.000000	0.187648
353.000000	0.188524
354.000000	0.183293
355.000000	0.189817
356.000000	0.190960
357.000000	0.184126
358.000000	0.173298
359.000000	0.174976
360.000000	0.181849
361.000000	0.182690
362.000000	0.185695
363.000000	0.183292
364.000000	0.175206
365.000000	0.184147
366.000000	0.188555
367.000000	0.183717
368.000000	0.178743
369.000000	0.175014
370.000000	0.175541
371.000000	0.181536
372.000000	0.182205
373.000000	0.178851
374.000000	0.176922
375.000000	0.189766
376.000000	0.193801
377.000000	0.186269
378.000000	0.183218
379.000000	0.185471
380.000000	0.189322
381.000000	0.190455
382.000000	0.192207
383.000000	0.192412
384.000000	0.190463
385.000000	0.190330
386.000000	0.191805
387.000000	0.193675
388.000000	0.193177
389.000000	0.193070
390.000000	0.192431
391.000000	0.189534
392.000000	0.191768
393.000000	0.194278
394.000000	0.193351
395.000000	0.194147
396.000000	0.195279
397.000000	0.195690
398.000000	0.194651
399.000000	0.194493
400.000000	0.195297
401.000000	0.196050
402.000000	0.196110
403.000000	0.196329
404.000000	0.197386
405.000000	0.197439
406.000000	0.197998
407.000000	0.199343
408.000000	0.199457
409.000000	0.199118
410.000000	0.198830
411.000000	0.198990
412.000000	0.199456
413.000000	0.199713
414.000000	0.199476
415.000000	0.200099
416.000000	0.200959
417.000000	0.201548
418.000000	0.201896
419.000000	0.201828
420.000000	0.201716
421.000000	0.202481
422.000000	0.202438
423.000000	0.202252
424.000000	0.203160
425.000000	0.203581
426.000000	0.203842
427.000000	0.204294
428.000000	0.204651
429.000000	0.204939
430.000000	0.205320
431.000000	0.206257
432.000000	0.206177
433.000000	0.205767
434.000000	0.206759
435.000000	0.207127
436.000000	0.206776
437.000000	0.206207
438.000000	0.206916
439.000000	0.207407
440.000000	0.207082
441.000000	0.206929
442.000000	0.207066
443.000000	0.207415
444.000000	0.207846
445.000000	0.208117
446.000000	0.208210
447.000000	0.208119
448.000000	0.208623
449.000000	0.209098
450.000000	0.209172
451.000000	0.209501
452.000000	0.209896
453.000000	0.210197
454.000000	0.210414
455.000000	0.210993
456.000000	0.211671
457.000000	0.211779
458.000000	0.212134
459.000000	0.212410
460.000000	0.212369
461.000000	0.212751
462.000000	0.213207
463.000000	0.213463
464.000000	0.213863
465.000000	0.214356
466.000000	0.214784
467.000000	0.215010
468.000000	0.215132
469.000000	0.215114
470.000000	0.215071
471.000000	0.215222
472.000000	0.215342
473.000000	0.215403
474.000000	0.215992
475.000000	0.216119
476.000000	0.215865
477.000000	0.216190
478.000000	0.216457
479.000000	0.216773
480.000000	0.217184
481.000000	0.217446
482.000000	0.217540
483.000000	0.217427
484.000000	0.217878
485.000000	0.218279
486.000000	0.218479
487.000000	0.218711
488.000000	0.218833
489.000000	0.218965
490.000000	0.219385
491.000000	0.219617
492.000000	0.219781
493.000000	0.220025
494.000000	0.220378
495.000000	0.220760
496.000000	0.221091
497.000000	0.221498
498.000000	0.221816
499.000000	0.222093
500.000000	0.222486
501.000000	0.222882
502.000000	0.223129
503.000000	0.223018
504.000000	0.223328
505.000000	0.223804
506.000000	0.224080
507.000000	0.224276
508.000000	0.224451
509.000000	0.224627
510.000000	0.224876
511.000000	0.225159
512.000000	0.225487
513.000000	0.225860
514.000000	0.226144
515.000000	0.226409
516.000000	0.226715
517.000000	0.226946
518.000000	0.227202
519.000000	0.227480
520.000000	0.227690
521.000000	0.227944
522.000000	0.228263
523.000000	0.228504
524.000000	0.228852
525.000000	0.229237
526.000000	0.229503
527.000000	0.229868
528.000000	0.230238
529.000000	0.230538
530.000000	0.230957
531.000000	0.231400
532.000000	0.231745
533.000000	0.232129
534.000000	0.232628
535.000000	0.233182
536.000000	0.233606
537.000000	0.234100
538.000000	0.234644
539.000000	0.235121
540.000000	0.235527
541.000000	0.235914
542.000000	0.236353
543.000000	0.236785
544.000000	0.237228
545.000000	0.237632
546.000000	0.238019
547.000000	0.238398
548.000000	0.238832
549.000000	0.239339
550.000000	0.239784
551.000000	0.240205
552.000000	0.240638
553.000000	0.241068
554.000000	0.241566
555.000000	0.242157
556.000000	0.242673
557.000000	0.243177
558.000000	0.243792
559.000000	0.244412
560.000000	0.244929
561.000000	0.245409
562.000000	0.245875
563.000000	0.246332
564.000000	0.246767
565.000000	0.247103
566.000000	0.247590
567.000000	0.248088
568.000000	0.248485
569.000000	0.248858
570.000000	0.249221
571.000000	0.249559
572.000000	0.249849
573.000000	0.250139
574.000000	0.250425
575.000000	0.250736
576.000000	0.251114
577.000000	0.251447
578.000000	0.251721
579.000000	0.252078
580.000000	0.252368
581.000000	0.252572
582.000000	0.252911
583.000000	0.253185
584.000000	0.253427
585.000000	0.253793
586.000000	0.254011
587.000000	0.254170
588.000000	0.254413
589.000000	0.254611
590.000000	0.254776
591.000000	0.254949
592.000000	0.255209
593.000000	0.255407
594.000000	0.255510
595.000000	0.255602
596.000000	0.255756
597.000000	0.256002
598.000000	0.256242
599.000000	0.256342
600.000000	0.256449
601.000000	0.256618
602.000000	0.256736
603.000000	0.256834
604.000000	0.256938
605.000000	0.257044
606.000000	0.257090
607.000000	0.257114
608.000000	0.257219
609.000000	0.257250
610.000000	0.257277
611.000000	0.257389
612.000000	0.257408
613.000000	0.257378
614.000000	0.257390
615.000000	0.257499
616.000000	0.257555
617.000000	0.257518
618.000000	0.257555
619.000000	0.257564
620.000000	0.257563
621.000000	0.257648
622.000000	0.257722
623.000000	0.257789
624.000000	0.257859
625.000000	0.257888
626.000000	0.257961
627.000000	0.258095
628.000000	0.258177
629.000000	0.258348
630.000000	0.258471
631.000000	0.258519
632.000000	0.258627
633.000000	0.258745
634.000000	0.258789
635.000000	0.258858
636.000000	0.258984
637.000000	0.259144
638.000000	0.259260
639.000000	0.259363
640.000000	0.259493
641.000000	0.259557
642.000000	0.259571
643.000000	0.259607
644.000000	0.259746
645.000000	0.259932
646.000000	0.260120
647.000000	0.260248
648.000000	0.260301
649.000000	0.260432
650.000000	0.260637
651.000000	0.260764
652.000000	0.260899
653.000000	0.261068
654.000000	0.261206
655.000000	0.261412
656.000000	0.261625
657.000000	0.261740
658.000000	0.261867
659.000000	0.262024
660.000000	0.262216
661.000000	0.262496
662.000000	0.262718
663.000000	0.262924
664.000000	0.263172
665.000000	0.263414
666.000000	0.263622
667.000000	0.263777
668.000000	0.264060
669.000000	0.264359
670.000000	0.264608
671.000000	0.264849
672.000000	0.265163
673.000000	0.265513
674.000000	0.265776
675.000000	0.266070
676.000000	0.266365
677.000000	0.266616
678.000000	0.266896
679.000000	0.267190
680.000000	0.267491
681.000000	0.267814
682.000000	0.268134
683.000000	0.268408
684.000000	0.268768
685.000000	0.269085
686.000000	0.269405
687.000000	0.269767
688.000000	0.270058
689.000000	0.270374
690.000000	0.270808
691.000000	0.271222
692.000000	0.271561
693.000000	0.271888
694.000000	0.272246
695.000000	0.272604
696.000000	0.272979
697.000000	0.273402
698.000000	0.273780
699.000000	0.274162
700.000000	0.274588
701.000000	0.274969
702.000000	0.275361
703.000000	0.275743
704.000000	0.276032
705.000000	0.276377
706.000000	0.276726
707.000000	0.277034
708.000000	0.277396
709.000000	0.277773
710.000000	0.278141
711.000000	0.278543
712.000000	0.278945
713.000000	0.279340
714.000000	0.279697
715.000000	0.279992
716.000000	0.280291
717.000000	0.280664
718.000000	0.280920
719.000000	0.281147
720.000000	0.281463
721.000000	0.281844
722.000000	0.282214
723.000000	0.282574
724.000000	0.282852
725.000000	0.283107
726.000000	0.283404
727.000000	0.283665
728.000000	0.283945
729.000000	0.284266
730.000000	0.284582
731.000000	0.284885
732.000000	0.285134
733.000000	0.285377
734.000000	0.285669
735.000000	0.285895
736.000000	0.286163
737.000000	0.286422
738.000000	0.286636
739.000000	0.286940
740.000000	0.287253
741.000000	0.287508
742.000000	0.287814
743.000000	0.288149
744.000000	0.288430
745.000000	0.288692
746.000000	0.288985
747.000000	0.289266
748.000000	0.289553
749.000000	0.289802
750.000000	0.289960
751.000000	0.290095
752.000000	0.290270
753.000000	0.290504
754.000000	0.290749
755.000000	0.290936
756.000000	0.291084
757.000000	0.291213
758.000000	0.291485
759.000000	0.291754
760.000000	0.291895
761.000000	0.292142
762.000000	0.292322
763.000000	0.292455
764.000000	0.292738
765.000000	0.292885
766.000000	0.292980
767.000000	0.293134
768.000000	0.293221
769.000000	0.293388
770.000000	0.293645
771.000000	0.293782
772.000000	0.293854
773.000000	0.293838
774.000000	0.293832
775.000000	0.293929
776.000000	0.294078
777.000000	0.294202
778.000000	0.294299
779.000000	0.294359
780.000000	0.294383
781.000000	0.294363
782.000000	0.294384
783.000000	0.294500
784.000000	0.294581
785.000000	0.294743
786.000000	0.294885
787.000000	0.294955
788.000000	0.295029
789.000000	0.295136
790.000000	0.295186
791.000000	0.295084
792.000000	0.295004
793.000000	0.294987
794.000000	0.295034
795.000000	0.295096
796.000000	0.295109
797.000000	0.295065
798.000000	0.295023
799.000000	0.295078
800.000000	0.295154
801.000000	0.295157
802.000000	0.295252
803.000000	0.295311
804.000000	0.295291
805.000000	0.295215
806.000000	0.295136
807.000000	0.295144
808.000000	0.295197
809.000000	0.295298
810.000000	0.295317
811.000000	0.295190
812.000000	0.295145
813.000000	0.295144
814.000000	0.295145
815.000000	0.295114
816.000000	0.295029
817.000000	0.294915
818.000000	0.294745
819.000000	0.294652
820.000000	0.294675
821.000000	0.294755
822.000000	0.294859
823.000000	0.294964
824.000000	0.294972
825.000000	0.294904
826.000000	0.294856
827.000000	0.294776
828.000000	0.294686
829.000000	0.294628
830.000000	0.294631
831.000000	0.294663
832.000000	0.294516
833.000000	0.294448
834.000000	0.294455
835.000000	0.294514
836.000000	0.294542
837.000000	0.294504
838.000000	0.294470
839.000000	0.294549
840.000000	0.294602
841.000000	0.294596
842.000000	0.294503
843.000000	0.294443
844.000000	0.294310
845.000000	0.294075
846.000000	0.293873
847.000000	0.293752
848.000000	0.293626
849.000000	0.293448
850.000000	0.293374
851.000000	0.293348
852.000000	0.293358
853.000000	0.293360
854.000000	0.293410
855.000000	0.293487
856.000000	0.293385
857.000000	0.293238
858.000000	0.293138
859.000000	0.293026
860.000000	0.292833
861.000000	0.292696
862.000000	0.292628
863.000000	0.292525
864.000000	0.292514
865.000000	0.292382
866.000000	0.292107
867.000000	0.291983
868.000000	0.291912
869.000000	0.291826
870.000000	0.291767
871.000000	0.291709
872.000000	0.291561
873.000000	0.291306
874.000000	0.291307
875.000000	0.291099
876.000000	0.290761
877.000000	0.290531
878.000000	0.290501
879.000000	0.290451
880.000000	0.290178
881.000000	0.290051
882.000000	0.289977
883.000000	0.289919
884.000000	0.289800
885.000000	0.289710
886.000000	0.289549
887.000000	0.289337
888.000000	0.289274
889.000000	0.289117
890.000000	0.288795
891.000000	0.288524
892.000000	0.288289
893.000000	0.288034
894.000000	0.287833
895.000000	0.287592
896.000000	0.287447
897.000000	0.287282
898.000000	0.286968
899.000000	0.286857
900.000000	0.286732
901.000000	0.286518
902.000000	0.286519
903.000000	0.286331
904.000000	0.286089
905.000000	0.285934
906.000000	0.285820
907.000000	0.285730
908.000000	0.285614
909.000000	0.285226
910.000000	0.284879
911.000000	0.284658
912.000000	0.284554
913.000000	0.284405
914.000000	0.284052
915.000000	0.283643
916.000000	0.283401
917.000000	0.283344
918.000000	0.283318
919.000000	0.283193
920.000000	0.283076
921.000000	0.282924
922.000000	0.282707
923.000000	0.282392
924.000000	0.282071
925.000000	0.281701
926.000000	0.281347
927.000000	0.281179
928.000000	0.280923
929.000000	0.280604
930.000000	0.280344
931.000000	0.280144
932.000000	0.279883
933.000000	0.279590
934.000000	0.279362
935.000000	0.279071
936.000000	0.278877
937.000000	0.278768
938.000000	0.278441
939.000000	0.278122
940.000000	0.277775
941.000000	0.277383
942.000000	0.277081
943.000000	0.276950
944.000000	0.276864
945.000000	0.276767
946.000000	0.276356
947.000000	0.275986
948.000000	0.275971
949.000000	0.275629
950.000000	0.275248
951.000000	0.274955
952.000000	0.274789
953.000000	0.274541
954.000000	0.274275
955.000000	0.273996
956.000000	0.273682
957.000000	0.273367
958.000000	0.273152
959.000000	0.273193
960.000000	0.272991
961.000000	0.272664
962.000000	0.272346
963.000000	0.272187
964.000000	0.272108
965.000000	0.271917
966.000000	0.271453
967.000000	0.271163
968.000000	0.271113
969.000000	0.270969
970.000000	0.270427
971.000000	0.270046
972.000000	0.269915
973.000000	0.269862
974.000000	0.269635
975.000000	0.269208
976.000000	0.268907
977.000000	0.268918
978.000000	0.268863
979.000000	0.268531
980.000000	0.268091
981.000000	0.268200
982.000000	0.268120
983.000000	0.267973
984.000000	0.267855
985.000000	0.267625
986.000000	0.267259
987.000000	0.267012
988.000000	0.266924
989.000000	0.266843
990.000000	0.266669
991.000000	0.266554
992.000000	0.266653
993.000000	0.266449
994.000000	0.265967
995.000000	0.265636
996.000000	0.265687
997.000000	0.265380
998.000000	0.265027
999.000000	0.264956
1000.000000	0.265071
1001.000000	0.266220
1002.000000	0.264773
1003.000000	0.264061
1004.000000	0.263937
1005.000000	0.264032
1006.000000	0.264138
1007.000000	0.264988
1008.000000	0.265587
1009.000000	0.265324
1010.000000	0.264481
1011.000000	0.264132
1012.000000	0.264366
1013.000000	0.264372
1014.000000	0.264421
1015.000000	0.264622
1016.000000	0.264494
1017.000000	0.264363
1018.000000	0.264305
1019.000000	0.264264
1020.000000	0.264278
1021.000000	0.263911
1022.000000	0.263355
1023.000000	0.263522
1024.000000	0.263833
1025.000000	0.263661
1026.000000	0.264158
1027.000000	0.265024
1028.000000	0.265501
1029.000000	0.266082
1030.000000	0.265517
1031.000000	0.264616
1032.000000	0.264118
1033.000000	0.262941
1034.000000	0.262609
1035.000000	0.263462
1036.000000	0.263772
1037.000000	0.264035
1038.000000	0.264292
1039.000000	0.264976
1040.000000	0.264805
1041.000000	0.264488
1042.000000	0.264246
1043.000000	0.264352
1044.000000	0.264868
1045.000000	0.264863
1046.000000	0.264855
1047.000000	0.265120
1048.000000	0.265026
1049.000000	0.265163
1050.000000	0.266025
1051.000000	0.266208
1052.000000	0.265714
1053.000000	0.265716
1054.000000	0.266113
1055.000000	0.266307
1056.000000	0.266652
1057.000000	0.266774
1058.000000	0.266720
1059.000000	0.266313
1060.000000	0.266677
1061.000000	0.267376
1062.000000	0.267392
1063.000000	0.267881
1064.000000	0.268174
1065.000000	0.268033
1066.000000	0.268007
1067.000000	0.268114
1068.000000	0.268183
1069.000000	0.267942
1070.000000	0.268019
1071.000000	0.268460
1072.000000	0.268809
1073.000000	0.269298
1074.000000	0.269697
1075.000000	0.269779
1076.000000	0.270105
1077.000000	0.270062
1078.000000	0.269737
1079.000000	0.269838
1080.000000	0.270142
1081.000000	0.270300
1082.000000	0.270753
1083.000000	0.270990
1084.000000	0.271018
1085.000000	0.271234
1086.000000	0.271480
1087.000000	0.271761
1088.000000	0.272003
1089.000000	0.272256
1090.000000	0.272584
1091.000000	0.272777
1092.000000	0.272928
1093.000000	0.273539
1094.000000	0.273728
1095.000000	0.273634
1096.000000	0.273959
1097.000000	0.274402
1098.000000	0.274669
1099.000000	0.275138
1100.000000	0.275394
1101.000000	0.275049
1102.000000	0.275284
1103.000000	0.275969
1104.000000	0.276343
1105.000000	0.276898
1106.000000	0.277206
1107.000000	0.277116
1108.000000	0.277099
1109.000000	0.276966
1110.000000	0.276951
1111.000000	0.277212
1112.000000	0.277652
1113.000000	0.277979
1114.000000	0.278625
1115.000000	0.278888
1116.000000	0.278835
1117.000000	0.278969
1118.000000	0.279052
1119.000000	0.279166
1120.000000	0.279367
1121.000000	0.279491
1122.000000	0.279564
1123.000000	0.279928
1124.000000	0.280406
1125.000000	0.280595
1126.000000	0.280573
1127.000000	0.280661
1128.000000	0.280696
1129.000000	0.280554
1130.000000	0.280507
1131.000000	0.280617
1132.000000	0.280608
1133.000000	0.280364
1134.000000	0.280524
1135.000000	0.280934
1136.000000	0.281156
1137.000000	0.281511
1138.000000	0.281681
1139.000000	0.281768
1140.000000	0.281902
1141.000000	0.281967
1142.000000	0.282038
1143.000000	0.281992
1144.000000	0.282088
1145.000000	0.281989
1146.000000	0.282018
1147.000000	0.282167
1148.000000	0.282334
1149.000000	0.282515
1150.000000	0.282926
1151.000000	0.283081
1152.000000	0.283001
1153.000000	0.283105
1154.000000	0.283116
1155.000000	0.283221
1156.000000	0.283560
1157.000000	0.283684
1158.000000	0.283623
1159.000000	0.283686
1160.000000	0.283655
1161.000000	0.283713
1162.000000	0.283974
1163.000000	0.284305
1164.000000	0.284521
1165.000000	0.284495
1166.000000	0.284447
1167.000000	0.284186
1168.000000	0.284098
1169.000000	0.283984
1170.000000	0.283982
1171.000000	0.284170
1172.000000	0.284212
1173.000000	0.284145
1174.000000	0.284221
1175.000000	0.284327
1176.000000	0.284365
1177.000000	0.284549
1178.000000	0.284625
1179.000000	0.284599
1180.000000	0.284523
1181.000000	0.284422
1182.000000	0.284436
1183.000000	0.284414
1184.000000	0.284333
1185.000000	0.284306
1186.000000	0.284290
1187.000000	0.284316
1188.000000	0.284361
1189.000000	0.284423
1190.000000	0.284618
1191.000000	0.284696
1192.000000	0.284805
1193.000000	0.284977
1194.000000	0.285053
1195.000000	0.285091
1196.000000	0.285086
1197.000000	0.285085
1198.000000	0.285017
1199.000000	0.285034
1200.000000	0.285169
1201.000000	0.285127
1202.000000	0.285138
1203.000000	0.285136
1204.000000	0.285029
1205.000000	0.285096
1206.000000	0.285038
1207.000000	0.285045
1208.000000	0.284983
1209.000000	0.284870
1210.000000	0.284834
1211.000000	0.284833
1212.000000	0.284831
1213.000000	0.284954
1214.000000	0.284974
1215.000000	0.284868
1216.000000	0.284886
1217.000000	0.284881
1218.000000	0.284873
1219.000000	0.284987
1220.000000	0.285122
1221.000000	0.285007
1222.000000	0.284939
1223.000000	0.284822
1224.000000	0.284660
1225.000000	0.284644
1226.000000	0.284790
1227.000000	0.285034
1228.000000	0.285177
1229.000000	0.285217
1230.000000	0.285160
1231.000000	0.285100
1232.000000	0.285021
1233.000000	0.285115
1234.000000	0.285322
1235.000000	0.285335
1236.000000	0.285205
1237.000000	0.285173
1238.000000	0.284981
1239.000000	0.284933
1240.000000	0.285003
1241.000000	0.285117
1242.000000	0.285166
1243.000000	0.285248
1244.000000	0.285205
1245.000000	0.285156
1246.000000	0.285120
1247.000000	0.285092
1248.000000	0.285098
1249.000000	0.285153
1250.000000	0.285327
1251.000000	0.285380
1252.000000	0.285337
1253.000000	0.285278
1254.000000	0.285200
1255.000000	0.284925
1256.000000	0.284847
1257.000000	0.284949
1258.000000	0.284971
1259.000000	0.284978
1260.000000	0.284967
1261.000000	0.284799
1262.000000	0.284751
1263.000000	0.284770
1264.000000	0.284729
1265.000000	0.284805
1266.000000	0.284897
1267.000000	0.285106
1268.000000	0.285264
1269.000000	0.285231
1270.000000	0.285312
1271.000000	0.285211
1272.000000	0.285097
1273.000000	0.285146
1274.000000	0.285128
1275.000000	0.285155
1276.000000	0.285216
1277.000000	0.285355
1278.000000	0.285507
1279.000000	0.285564
1280.000000	0.285556
1281.000000	0.285532
1282.000000	0.285527
1283.000000	0.285564
1284.000000	0.285523
1285.000000	0.285501
1286.000000	0.285456
1287.000000	0.285398
1288.000000	0.285343
1289.000000	0.285420
1290.000000	0.285575
1291.000000	0.285608
1292.000000	0.285627
1293.000000	0.285580
1294.000000	0.285405
1295.000000	0.285314
1296.000000	0.285377
1297.000000	0.285486
1298.000000	0.285520
1299.000000	0.285590
1300.000000	0.285674
1301.000000	0.285701
1302.000000	0.285678
1303.000000	0.285768
1304.000000	0.285751
1305.000000	0.285681
1306.000000	0.285686
1307.000000	0.285866
1308.000000	0.285865
1309.000000	0.285752
1310.000000	0.285677
1311.000000	0.285534
1312.000000	0.285385
1313.000000	0.285356
1314.000000	0.285358
1315.000000	0.285316
1316.000000	0.285291
1317.000000	0.285269
1318.000000	0.285279
1319.000000	0.285209
1320.000000	0.285075
1321.000000	0.285077
1322.000000	0.285064
1323.000000	0.285039
1324.000000	0.285197
1325.000000	0.285221
1326.000000	0.285254
1327.000000	0.285299
1328.000000	0.285191
1329.000000	0.285115
1330.000000	0.284936
1331.000000	0.284919
1332.000000	0.285120
1333.000000	0.285176
1334.000000	0.285357
1335.000000	0.285431
1336.000000	0.285273
1337.000000	0.285256
1338.000000	0.285291
1339.000000	0.285198
1340.000000	0.285073
1341.000000	0.284979
1342.000000	0.284813
1343.000000	0.284711
1344.000000	0.284786
1345.000000	0.284923
1346.000000	0.285049
1347.000000	0.285002
1348.000000	0.284981
1349.000000	0.284980
1350.000000	0.285048
1351.000000	0.285123
1352.000000	0.284998
1353.000000	0.284821
1354.000000	0.284797
1355.000000	0.284834
1356.000000	0.285031
1357.000000	0.285060
1358.000000	0.284891
1359.000000	0.284805
1360.000000	0.284707
1361.000000	0.284632
1362.000000	0.284518
1363.000000	0.284294
1364.000000	0.284239
1365.000000	0.284243
1366.000000	0.284210
1367.000000	0.284265
1368.000000	0.284329
1369.000000	0.284316
1370.000000	0.284172
1371.000000	0.284041
1372.000000	0.283972
1373.000000	0.283904
1374.000000	0.283897
1375.000000	0.283847
1376.000000	0.283784
1377.000000	0.283713
1378.000000	0.283577
1379.000000	0.283550
1380.000000	0.283575
1381.000000	0.283652
1382.000000	0.283718
1383.000000	0.283441
1384.000000	0.283148
1385.000000	0.282933
1386.000000	0.282630
1387.000000	0.282692
1388.000000	0.282832
1389.000000	0.282689
1390.000000	0.282636
1391.000000	0.282532
1392.000000	0.282343
1393.000000	0.282165
1394.000000	0.282023
1395.000000	0.281912
1396.000000	0.281818
1397.000000	0.281659
1398.000000	0.281442
1399.000000	0.281281
1400.000000	0.281034
1401.000000	0.280846
1402.000000	0.280760
1403.000000	0.280725
1404.000000	0.280686
1405.000000	0.280766
1406.000000	0.280891
1407.000000	0.280868
1408.000000	0.280833
1409.000000	0.280806
1410.000000	0.280687
1411.000000	0.280726
1412.000000	0.280692
1413.000000	0.280614
1414.000000	0.280698
1415.000000	0.280671
1416.000000	0.280583
1417.000000	0.280576
1418.000000	0.280455
1419.000000	0.280437
1420.000000	0.280507
1421.000000	0.280619
1422.000000	0.280756
1423.000000	0.280920
1424.000000	0.280940
1425.000000	0.280913
1426.000000	0.280910
1427.000000	0.280946
1428.000000	0.280973
1429.000000	0.281019
1430.000000	0.281147
1431.000000	0.281241
1432.000000	0.281278
1433.000000	0.281366
1434.000000	0.281433
1435.000000	0.281485
1436.000000	0.281526
1437.000000	0.281658
1438.000000	0.281653
1439.000000	0.281510
1440.000000	0.281490
1441.000000	0.281442
1442.000000	0.281475
1443.000000	0.281526
1444.000000	0.281684
1445.000000	0.281817
1446.000000	0.282034
1447.000000	0.282159
1448.000000	0.282239
1449.000000	0.282335
1450.000000	0.282360
1451.000000	0.282384
1452.000000	0.282440
1453.000000	0.282450
1454.000000	0.282448
1455.000000	0.282528
1456.000000	0.282555
1457.000000	0.282603
1458.000000	0.282638
1459.000000	0.282623
1460.000000	0.282689
1461.000000	0.282709
1462.000000	0.282691
1463.000000	0.282636
1464.000000	0.282607
1465.000000	0.282565
1466.000000	0.282455
1467.000000	0.282468
1468.000000	0.282455
1469.000000	0.282499
1470.000000	0.282535
1471.000000	0.282483
1472.000000	0.282452
1473.000000	0.282466
1474.000000	0.282387
1475.000000	0.282408
1476.000000	0.282512
1477.000000	0.282546
1478.000000	0.282651
1479.000000	0.282695
1480.000000	0.282554
1481.000000	0.282492
1482.000000	0.282437
1483.000000	0.282506
1484.000000	0.282714
1485.000000	0.282783
1486.000000	0.282833
1487.000000	0.282852
1488.000000	0.282806
1489.000000	0.282817
1490.000000	0.282707
1491.000000	0.282723
1492.000000	0.282740
1493.000000	0.282770
1494.000000	0.282846
1495.000000	0.282955
1496.000000	0.283071
1497.000000	0.283137
1498.000000	0.283271
1499.000000	0.283303
1500.000000	0.283254
1501.000000	0.283286
1502.000000	0.283266
1503.000000	0.283308
1504.000000	0.283390
1505.000000	0.283343
1506.000000	0.283349
1507.000000	0.283351
1508.000000	0.283271
1509.000000	0.283241
1510.000000	0.283191
1511.000000	0.283151
1512.000000	0.283123
1513.000000	0.283096
1514.000000	0.283121
1515.000000	0.283075
1516.000000	0.283094
1517.000000	0.283078
1518.000000	0.282984
1519.000000	0.282917
1520.000000	0.282875
1521.000000	0.282821
1522.000000	0.282856
1523.000000	0.282982
1524.000000	0.282949
1525.000000	0.282928
1526.000000	0.282975
1527.000000	0.282935
1528.000000	0.283032
1529.000000	0.283118
1530.000000	0.283048
1531.000000	0.283155
1532.000000	0.283230
1533.000000	0.283227
1534.000000	0.283335
1535.000000	0.283323
1536.000000	0.283211
1537.000000	0.283274
1538.000000	0.283336
1539.000000	0.283332
1540.000000	0.283289
1541.000000	0.283275
1542.000000	0.283326
1543.000000	0.283302
1544.000000	0.283408
1545.000000	0.283582
1546.000000	0.283582
1547.000000	0.283673
1548.000000	0.283734
1549.000000	0.283663
1550.000000	0.283731
1551.000000	0.283845
1552.000000	0.283863
1553.000000	0.283902
1554.000000	0.283892
1555.000000	0.283807
1556.000000	0.283798
1557.000000	0.283709
1558.000000	0.283626
1559.000000	0.283439
1560.000000	0.283350
1561.000000	0.283331
1562.000000	0.283248
1563.000000	0.283224
1564.000000	0.283161
1565.000000	0.283020
1566.000000	0.282923
1567.000000	0.282920
1568.000000	0.282875
1569.000000	0.282896
1570.000000	0.282860
1571.000000	0.282809
1572.000000	0.282796
1573.000000	0.282752
1574.000000	0.282746
1575.000000	0.282815
1576.000000	0.282836
1577.000000	0.282856
1578.000000	0.282830
1579.000000	0.282755
1580.000000	0.282783
1581.000000	0.282976
1582.000000	0.282989
1583.000000	0.282981
1584.000000	0.282909
1585.000000	0.282669
1586.000000	0.282638
1587.000000	0.282794
1588.000000	0.282814
1589.000000	0.282850
1590.000000	0.282849
1591.000000	0.282742
1592.000000	0.282730
1593.000000	0.282834
1594.000000	0.282856
1595.000000	0.282879
1596.000000	0.282968
1597.000000	0.283125
1598.000000	0.283161
1599.000000	0.283262
1600.000000	0.283228
1601.000000	0.283062
1602.000000	0.282981
1603.000000	0.282896
1604.000000	0.282841
1605.000000	0.282917
1606.000000	0.282904
1607.000000	0.282899
1608.000000	0.282872
1609.000000	0.282782
1610.000000	0.282753
1611.000000	0.282794
1612.000000	0.282857
1613.000000	0.283122
1614.000000	0.283103
1615.000000	0.282961
1616.000000	0.283001
1617.000000	0.282975
1618.000000	0.282939
1619.000000	0.282989
1620.000000	0.283007
1621.000000	0.282931
1622.000000	0.282952
1623.000000	0.283139
1624.000000	0.283073
1625.000000	0.282664
1626.000000	0.282497
1627.000000	0.282302
1628.000000	0.282285
1629.000000	0.282514
1630.000000	0.282583
1631.000000	0.282578
1632.000000	0.282592
1633.000000	0.282581
1634.000000	0.282584
1635.000000	0.282674
1636.000000	0.282649
1637.000000	0.282518
1638.000000	0.282533
1639.000000	0.282652
1640.000000	0.282668
1641.000000	0.282805
1642.000000	0.282858
1643.000000	0.282830
1644.000000	0.282791
1645.000000	0.282765
1646.000000	0.282649
1647.000000	0.282435
1648.000000	0.282292
1649.000000	0.282187
1650.000000	0.282199
1651.000000	0.282393
1652.000000	0.282464
1653.000000	0.282482
1654.000000	0.282600
1655.000000	0.282670
1656.000000	0.282583
1657.000000	0.282615
1658.000000	0.282500
1659.000000	0.282199
1660.000000	0.282138
1661.000000	0.282113
1662.000000	0.282098
1663.000000	0.282150
1664.000000	0.282115
1665.000000	0.282024
1666.000000	0.282061
1667.000000	0.282019
1668.000000	0.282078
1669.000000	0.282261
1670.000000	0.282232
1671.000000	0.282233
1672.000000	0.282305
1673.000000	0.282284
1674.000000	0.282397
1675.000000	0.282486
1676.000000	0.282505
1677.000000	0.282349
1678.000000	0.282075
1679.000000	0.282040
1680.000000	0.281973
1681.000000	0.281928
1682.000000	0.282031
1683.000000	0.281963
1684.000000	0.281761
1685.000000	0.281775
1686.000000	0.281744
1687.000000	0.281611
1688.000000	0.281657
1689.000000	0.281694
1690.000000	0.281714
1691.000000	0.281832
1692.000000	0.281766
1693.000000	0.281655
1694.000000	0.281540
1695.000000	0.281504
1696.000000	0.281502
1697.000000	0.281427
1698.000000	0.281390
1699.000000	0.281355
1700.000000	0.281276
1701.000000	0.281272
1702.000000	0.281026
1703.000000	0.281000
1704.000000	0.281331
1705.000000	0.281424
1706.000000	0.281558
1707.000000	0.281666
1708.000000	0.281546
1709.000000	0.281472
1710.000000	0.281651
1711.000000	0.281637
1712.000000	0.281436
1713.000000	0.281335
1714.000000	0.281268
1715.000000	0.281193
1716.000000	0.281208
1717.000000	0.281125
1718.000000	0.280817
1719.000000	0.280746
1720.000000	0.280883
1721.000000	0.280876
1722.000000	0.280999
1723.000000	0.280975
1724.000000	0.280745
1725.000000	0.280671
1726.000000	0.280544
1727.000000	0.280485
1728.000000	0.280410
1729.000000	0.280376
1730.000000	0.280534
1731.000000	0.280613
1732.000000	0.280800
1733.000000	0.280798
1734.000000	0.280515
1735.000000	0.280419
1736.000000	0.280239
1737.000000	0.280130
1738.000000	0.280120
1739.000000	0.280179
1740.000000	0.280252
1741.000000	0.280286
1742.000000	0.280468
1743.000000	0.280476
1744.000000	0.280274
1745.000000	0.280285
1746.000000	0.280350
1747.000000	0.280380
1748.000000	0.280403
1749.000000	0.280414
1750.000000	0.280369
1751.000000	0.280559
1752.000000	0.280605
1753.000000	0.280187
1754.000000	0.280097
1755.000000	0.280116
1756.000000	0.280048
1757.000000	0.280185
1758.000000	0.280222
1759.000000	0.279997
1760.000000	0.279943
1761.000000	0.280063
1762.000000	0.280000
1763.000000	0.279917
1764.000000	0.279791
1765.000000	0.279368
1766.000000	0.279286
1767.000000	0.279334
1768.000000	0.279317
1769.000000	0.279570
1770.000000	0.279678
1771.000000	0.279601
1772.000000	0.279631
1773.000000	0.279674
1774.000000	0.279679
1775.000000	0.279734
1776.000000	0.279763
1777.000000	0.279750
1778.000000	0.279664
1779.000000	0.279528
1780.000000	0.279430
1781.000000	0.279133
1782.000000	0.279229
1783.000000	0.279688
1784.000000	0.279641
1785.000000	0.279671
1786.000000	0.279692
1787.000000	0.279570
1788.000000	0.279696
1789.000000	0.279854
1790.000000	0.279804
1791.000000	0.279724
1792.000000	0.279750
1793.000000	0.279760
1794.000000	0.279722
1795.000000	0.279718
1796.000000	0.279765
1797.000000	0.279796
1798.000000	0.279734
1799.000000	0.279765
1800.000000	0.279955
1801.000000	0.279408
1802.000000	0.279751
1803.000000	0.280295
1804.000000	0.280533
1805.000000	0.280580
1806.000000	0.280519
1807.000000	0.280289
1808.000000	0.280067
1809.000000	0.279753
1810.000000	0.279177
1811.000000	0.278914
1812.000000	0.278744
1813.000000	0.278784
1814.000000	0.279026
1815.000000	0.279210
1816.000000	0.279684
1817.000000	0.279674
1818.000000	0.279343
1819.000000	0.279604
1820.000000	0.278780
1821.000000	0.278226
1822.000000	0.278082
1823.000000	0.277731
1824.000000	0.277846
1825.000000	0.278737
1826.000000	0.279288
1827.000000	0.279579
1828.000000	0.280522
1829.000000	0.280728
1830.000000	0.280368
1831.000000	0.280143
1832.000000	0.279089
1833.000000	0.278889
1834.000000	0.279410
1835.000000	0.279516
1836.000000	0.279667
1837.000000	0.279708
1838.000000	0.279566
1839.000000	0.279001
1840.000000	0.278057
1841.000000	0.278425
1842.000000	0.278702
1843.000000	0.279269
1844.000000	0.279427
1845.000000	0.279773
1846.000000	0.279888
1847.000000	0.279386
1848.000000	0.279197
1849.000000	0.279252
1850.000000	0.279084
1851.000000	0.279016
1852.000000	0.278736
1853.000000	0.278788
1854.000000	0.279295
1855.000000	0.279180
1856.000000	0.278794
1857.000000	0.278192
1858.000000	0.277977
1859.000000	0.277435
1860.000000	0.277529
1861.000000	0.278391
1862.000000	0.278642
1863.000000	0.278740
1864.000000	0.278888
1865.000000	0.279151
1866.000000	0.279030
1867.000000	0.278636
1868.000000	0.278516
1869.000000	0.277566
1870.000000	0.276515
1871.000000	0.276258
1872.000000	0.275791
1873.000000	0.275724
1874.000000	0.275899
1875.000000	0.276423
1876.000000	0.277228
1877.000000	0.277794
1878.000000	0.277708
1879.000000	0.278034
1880.000000	0.277455
1881.000000	0.276565
1882.000000	0.276648
1883.000000	0.276509
1884.000000	0.276057
1885.000000	0.275178
1886.000000	0.274481
1887.000000	0.273252
1888.000000	0.272642
1889.000000	0.272424
1890.000000	0.272489
1891.000000	0.272943
1892.000000	0.272773
1893.000000	0.272548
1894.000000	0.272388
1895.000000	0.272035
1896.000000	0.271805
1897.000000	0.271099
1898.000000	0.270279
1899.000000	0.269908
1900.000000	0.269004
1901.000000	0.268511
1902.000000	0.268507
1903.000000	0.268173
1904.000000	0.267578
1905.000000	0.267333
1906.000000	0.267174
1907.000000	0.266998
1908.000000	0.266900
1909.000000	0.267182
1910.000000	0.267358
1911.000000	0.267615
1912.000000	0.267779
1913.000000	0.267840
1914.000000	0.267811
1915.000000	0.267373
1916.000000	0.267376
1917.000000	0.267679
1918.000000	0.268523
1919.000000	0.269393
1920.000000	0.270373
1921.000000	0.271078
1922.000000	0.270908
1923.000000	0.270836
1924.000000	0.271196
1925.000000	0.271232
1926.000000	0.271406
1927.000000	0.271787
1928.000000	0.271986
1929.000000	0.271978
1930.000000	0.272201
1931.000000	0.272159
1932.000000	0.271862
1933.000000	0.271551
1934.000000	0.271220
1935.000000	0.271542
1936.000000	0.272158
1937.000000	0.272738
1938.000000	0.272889
1939.000000	0.273017
1940.000000	0.272770
1941.000000	0.273082
1942.000000	0.273347
1943.000000	0.273097
1944.000000	0.273509
1945.000000	0.273636
1946.000000	0.273078
1947.000000	0.273473
1948.000000	0.273162
1949.000000	0.272323
1950.000000	0.272506
1951.000000	0.272431
1952.000000	0.272371
1953.000000	0.272531
1954.000000	0.272727
1955.000000	0.272558
1956.000000	0.272161
1957.000000	0.271265
1958.000000	0.271326
1959.000000	0.271817
1960.000000	0.272219
1961.000000	0.272929
1962.000000	0.273025
1963.000000	0.272680
1964.000000	0.272029
1965.000000	0.271328
1966.000000	0.270984
1967.000000	0.271327
1968.000000	0.271442
1969.000000	0.271570
1970.000000	0.271990
1971.000000	0.272210
1972.000000	0.272204
1973.000000	0.272240
1974.000000	0.272632
1975.000000	0.272601
1976.000000	0.272430
1977.000000	0.272066
1978.000000	0.271513
1979.000000	0.271237
1980.000000	0.270812
1981.000000	0.271434
1982.000000	0.271907
1983.000000	0.272069
1984.000000	0.272191
1985.000000	0.271982
1986.000000	0.271831
1987.000000	0.271673
1988.000000	0.271840
1989.000000	0.271997
1990.000000	0.272782
1991.000000	0.273304
1992.000000	0.273422
1993.000000	0.273205
1994.000000	0.273209
1995.000000	0.273068
1996.000000	0.273295
1997.000000	0.273499
1998.000000	0.273887
1999.000000	0.274099
2000.000000	0.274535
2001.000000	0.274406
2002.000000	0.273896
2003.000000	0.274206
2004.000000	0.273936
2005.000000	0.273625
2006.000000	0.274348
2007.000000	0.274700
2008.000000	0.274742
2009.000000	0.274782
2010.000000	0.274717
2011.000000	0.273915
2012.000000	0.273537
2013.000000	0.273200
2014.000000	0.273136
2015.000000	0.272996
2016.000000	0.272890
2017.000000	0.273279
2018.000000	0.273211
2019.000000	0.272922
2020.000000	0.273414
2021.000000	0.273533
2022.000000	0.273266
2023.000000	0.273406
2024.000000	0.273760
2025.000000	0.273806
2026.000000	0.273578
2027.000000	0.273915
2028.000000	0.273657
2029.000000	0.273847
2030.000000	0.274134
2031.000000	0.273883
2032.000000	0.274158
2033.000000	0.274362
2034.000000	0.274438
2035.000000	0.274710
2036.000000	0.274721
2037.000000	0.274712
2038.000000	0.274558
2039.000000	0.274078
2040.000000	0.274149
2041.000000	0.274302
2042.000000	0.274009
2043.000000	0.274463
2044.000000	0.274529
2045.000000	0.273764
2046.000000	0.273250
2047.000000	0.272818
2048.000000	0.271876
2049.000000	0.271815
2050.000000	0.272106
2051.000000	0.272175
2052.000000	0.272461
2053.000000	0.272598
2054.000000	0.272850
2055.000000	0.273096
2056.000000	0.273367
2057.000000	0.273411
2058.000000	0.273186
2059.000000	0.273177
2060.000000	0.273396
2061.000000	0.273907
2062.000000	0.274138
2063.000000	0.274710
2064.000000	0.274577
2065.000000	0.274215
2066.000000	0.273906
2067.000000	0.273282
2068.000000	0.273146
2069.000000	0.273736
2070.000000	0.274130
2071.000000	0.274083
2072.000000	0.273890
2073.000000	0.273347
2074.000000	0.272621
2075.000000	0.272364
2076.000000	0.272630
2077.000000	0.272576
2078.000000	0.272332
2079.000000	0.272306
2080.000000	0.272468
2081.000000	0.272674
2082.000000	0.273104
2083.000000	0.273702
2084.000000	0.273409
2085.000000	0.272959
2086.000000	0.272745
2087.000000	0.272126
2088.000000	0.272138
2089.000000	0.272421
2090.000000	0.272689
2091.000000	0.273294
2092.000000	0.273484
2093.000000	0.273573
2094.000000	0.273627
2095.000000	0.273203
2096.000000	0.273282
2097.000000	0.273669
2098.000000	0.274079
2099.000000	0.274153
2100.000000	0.273968
2101.000000	0.273421
2102.000000	0.273028
2103.000000	0.273255
2104.000000	0.273152
2105.000000	0.272782
2106.000000	0.272118
2107.000000	0.271886
2108.000000	0.271482
2109.000000	0.271222
2110.000000	0.271122
2111.000000	0.271026
2112.000000	0.270675
2113.000000	0.270559
2114.000000	0.270225
2115.000000	0.270610
2116.000000	0.270008
2117.000000	0.268952
2118.000000	0.269263
2119.000000	0.269281
2120.000000	0.269709
2121.000000	0.271342
2122.000000	0.271674
2123.000000	0.271247
2124.000000	0.271212
2125.000000	0.270713
2126.000000	0.270784
2127.000000	0.271232
2128.000000	0.271767
2129.000000	0.272710
2130.000000	0.273276
2131.000000	0.273304
2132.000000	0.273744
2133.000000	0.273785
2134.000000	0.273940
2135.000000	0.274611
2136.000000	0.274937
2137.000000	0.274975
2138.000000	0.274990
2139.000000	0.274512
2140.000000	0.273298
2141.000000	0.272610
2142.000000	0.271508
2143.000000	0.270983
2144.000000	0.271016
2145.000000	0.271054
2146.000000	0.271571
2147.000000	0.272451
2148.000000	0.272179
2149.000000	0.273480
2150.000000	0.274539
2151.000000	0.274149
2152.000000	0.274188
2153.000000	0.272961
2154.000000	0.272316
2155.000000	0.271039
2156.000000	0.271018
2157.000000	0.272121
2158.000000	0.272592
2159.000000	0.273746
2160.000000	0.274006
2161.000000	0.273325
2162.000000	0.272978
2163.000000	0.272236
2164.000000	0.271711
2165.000000	0.271159
2166.000000	0.270810
2167.000000	0.271211
2168.000000	0.271471
2169.000000	0.271312
2170.000000	0.271014
2171.000000	0.271026
2172.000000	0.270745
2173.000000	0.270345
2174.000000	0.270164
2175.000000	0.270521
2176.000000	0.270927
2177.000000	0.271010
2178.000000	0.271755
2179.000000	0.271996
2180.000000	0.271019
2181.000000	0.271246
2182.000000	0.271935
2183.000000	0.272294
2184.000000	0.272683
2185.000000	0.271531
2186.000000	0.269318
2187.000000	0.267793
2188.000000	0.267083
2189.000000	0.266553
2190.000000	0.267481
2191.000000	0.270099
2192.000000	0.271440
2193.000000	0.273054
2194.000000	0.273643
2195.000000	0.273261
2196.000000	0.273253
2197.000000	0.272511
2198.000000	0.272325
2199.000000	0.272732
2200.000000	0.272338
2201.000000	0.271493
2202.000000	0.271123
2203.000000	0.270747
2204.000000	0.269653
2205.000000	0.269096
2206.000000	0.268456
2207.000000	0.265623
2208.000000	0.265040
2209.000000	0.265442
2210.000000	0.266081
2211.000000	0.270213
2212.000000	0.273735
2213.000000	0.274366
2214.000000	0.273684
2215.000000	0.272186
2216.000000	0.266616
2217.000000	0.264345
2218.000000	0.262770
2219.000000	0.261923
2220.000000	0.263127
2221.000000	0.263844
2222.000000	0.265078
2223.000000	0.265304
2224.000000	0.265924
2225.000000	0.263961
2226.000000	0.262177
2227.000000	0.263041
2228.000000	0.262814
2229.000000	0.263376
2230.000000	0.265461
2231.000000	0.265507
2232.000000	0.267218
2233.000000	0.269469
2234.000000	0.269155
2235.000000	0.270244
2236.000000	0.269658
2237.000000	0.267157
2238.000000	0.266012
2239.000000	0.263580
2240.000000	0.264107
2241.000000	0.267223
2242.000000	0.268660
2243.000000	0.272245
2244.000000	0.273083
2245.000000	0.271559
2246.000000	0.270231
2247.000000	0.266293
2248.000000	0.265085
2249.000000	0.263985
2250.000000	0.265119
2251.000000	0.268960
2252.000000	0.273024
2253.000000	0.274191
2254.000000	0.274481
2255.000000	0.273939
2256.000000	0.273426
2257.000000	0.274831
2258.000000	0.275499
2259.000000	0.275193
2260.000000	0.273993
2261.000000	0.273281
2262.000000	0.272739
2263.000000	0.272109
2264.000000	0.270853
2265.000000	0.270503
2266.000000	0.270564
2267.000000	0.270458
2268.000000	0.271012
2269.000000	0.271565
2270.000000	0.271850
2271.000000	0.271674
2272.000000	0.272241
2273.000000	0.271732
2274.000000	0.269231
2275.000000	0.268803
2276.000000	0.268885
2277.000000	0.268647
2278.000000	0.270681
2279.000000	0.271775
2280.000000	0.270253
2281.000000	0.270180
2282.000000	0.269702
2283.000000	0.267954
2284.000000	0.268040
2285.000000	0.268138
2286.000000	0.267294
2287.000000	0.266633
2288.000000	0.267696
2289.000000	0.268257
2290.000000	0.266989
2291.000000	0.266692
2292.000000	0.266505
2293.000000	0.265213
2294.000000	0.264874
2295.000000	0.267552
2296.000000	0.266234
2297.000000	0.261475
2298.000000	0.259858
2299.000000	0.257263
2300.000000	0.257117
2301.000000	0.261244
2302.000000	0.262189
2303.000000	0.262065
2304.000000	0.261867
2305.000000	0.260226
2306.000000	0.259276
2307.000000	0.258440
2308.000000	0.258449
2309.000000	0.258052
2310.000000	0.258346
2311.000000	0.259687
2312.000000	0.261673
2313.000000	0.262170
2314.000000	0.259705
2315.000000	0.259066
2316.000000	0.258944
2317.000000	0.258681
2318.000000	0.261910
2319.000000	0.262762
2320.000000	0.261497
2321.000000	0.261076
2322.000000	0.259504
2323.000000	0.259933
2324.000000	0.261641
2325.000000	0.262623
2326.000000	0.263098
2327.000000	0.261920
2328.000000	0.260104
2329.000000	0.258118
2330.000000	0.258670
2331.000000	0.260217
2332.000000	0.260567
2333.000000	0.262968
2334.000000	0.263050
2335.000000	0.263871
2336.000000	0.264783
2337.000000	0.265927
2338.000000	0.268082
2339.000000	0.268072
2340.000000	0.266255
2341.000000	0.264812
2342.000000	0.261016
2343.000000	0.258592
2344.000000	0.257796
2345.000000	0.257218
2346.000000	0.256620
2347.000000	0.257435
2348.000000	0.260164
2349.000000	0.260711
2350.000000	0.262150
2351.000000	0.263412
2352.000000	0.260824
2353.000000	0.260946
2354.000000	0.261114
2355.000000	0.260359
2356.000000	0.263842
2357.000000	0.265647
2358.000000	0.265880
2359.000000	0.266074
2360.000000	0.265517
2361.000000	0.265369
2362.000000	0.261734
2363.000000	0.258381
2364.000000	0.256216
2365.000000	0.254009
2366.000000	0.258621
2367.000000	0.262779
2368.000000	0.264411
2369.000000	0.265014
2370.000000	0.261888
2371.000000	0.262045
2372.000000	0.261635
2373.000000	0.260956
2374.000000	0.262357
2375.000000	0.261239
2376.000000	0.262818
2377.000000	0.267332
2378.000000	0.268659
2379.000000	0.270340
2380.000000	0.270150
2381.000000	0.266710
2382.000000	0.263124
2383.000000	0.261444
2384.000000	0.260404
2385.000000	0.255988
2386.000000	0.255469
2387.000000	0.250775
2388.000000	0.244294
2389.000000	0.245145
2390.000000	0.247108
2391.000000	0.251599
2392.000000	0.257196
2393.000000	0.259148
2394.000000	0.259704
2395.000000	0.262321
2396.000000	0.258535
2397.000000	0.255298
2398.000000	0.251420
2399.000000	0.243330
2400.000000	0.243550
2401.000000	0.247085
2402.000000	0.250411
2403.000000	0.250750
2404.000000	0.250026
2405.000000	0.246626
2406.000000	0.239751
2407.000000	0.236930
2408.000000	0.230967
2409.000000	0.223016
2410.000000	0.220472
2411.000000	0.223268
2412.000000	0.224969
2413.000000	0.230944
2414.000000	0.240293
2415.000000	0.242080
2416.000000	0.251347
2417.000000	0.260765
2418.000000	0.263225
2419.000000	0.265017
2420.000000	0.266427
2421.000000	0.265173
2422.000000	0.256591
2423.000000	0.257619
2424.000000	0.252380
2425.000000	0.244488
2426.000000	0.252692
2427.000000	0.255641
2428.000000	0.262746
2429.000000	0.261984
2430.000000	0.249107
2431.000000	0.247209
2432.000000	0.241905
2433.000000	0.243959
2434.000000	0.257306
2435.000000	0.255580
2436.000000	0.253067
2437.000000	0.256734
2438.000000	0.252952
2439.000000	0.258224
2440.000000	0.262890
2441.000000	0.257762
2442.000000	0.254093
2443.000000	0.257970
2444.000000	0.257568
2445.000000	0.255230
2446.000000	0.269313
2447.000000	0.260304
2448.000000	0.240956
2449.000000	0.232619
2450.000000	0.218449
2451.000000	0.218862
2452.000000	0.232867
2453.000000	0.243798
2454.000000	0.251146
2455.000000	0.247189
2456.000000	0.238858
2457.000000	0.233265
2458.000000	0.230717
2459.000000	0.231961
2460.000000	0.238660
2461.000000	0.251641
2462.000000	0.247307
2463.000000	0.249044
2464.000000	0.246417
2465.000000	0.240611
2466.000000	0.262861
2467.000000	0.267821
2468.000000	0.266868
2469.000000	0.248861
2470.000000	0.225096
2471.000000	0.217364
2472.000000	0.218095
2473.000000	0.239340
2474.000000	0.231279
2475.000000	0.218312
2476.000000	0.206423
2477.000000	0.207208
2478.000000	0.229493
2479.000000	0.222336
2480.000000	0.222092
2481.000000	0.196248
2482.000000	0.150783
2483.000000	0.161365
2484.000000	0.188420
2485.000000	0.212678
2486.000000	0.242268
2487.000000	0.277909
2488.000000	0.297212
2489.000000	0.284950
2490.000000	0.296908
2491.000000	0.236854
2492.000000	0.222198
2493.000000	0.288456
2494.000000	0.284227
2495.000000	0.249175
2496.000000	0.215942
2497.000000	0.099101
2498.000000	0.069285
2499.000000	0.137239
2500.000000	0.139868
