# Wavelength	NAu-1-50_HEX-40_FV7-10_00002.asd.rts.txt
350.000000	0.140598
351.000000	0.132659
352.000000	0.127863
353.000000	0.126953
354.000000	0.128453
355.000000	0.123692
356.000000	0.120983
357.000000	0.124286
358.000000	0.133478
359.000000	0.137228
360.000000	0.132417
361.000000	0.121286
362.000000	0.125341
363.000000	0.131850
364.000000	0.131827
365.000000	0.132856
366.000000	0.131500
367.000000	0.128938
368.000000	0.130766
369.000000	0.130852
370.000000	0.127222
371.000000	0.120968
372.000000	0.125686
373.000000	0.129074
374.000000	0.125115
375.000000	0.130162
376.000000	0.133907
377.000000	0.133081
378.000000	0.130649
379.000000	0.133870
380.000000	0.138225
381.000000	0.136936
382.000000	0.137396
383.000000	0.137555
384.000000	0.136441
385.000000	0.138630
386.000000	0.141182
387.000000	0.143095
388.000000	0.145198
389.000000	0.147228
390.000000	0.148777
391.000000	0.149375
392.000000	0.150644
393.000000	0.152520
394.000000	0.154652
395.000000	0.156818
396.000000	0.158326
397.000000	0.159416
398.000000	0.161891
399.000000	0.162391
400.000000	0.162354
401.000000	0.164976
402.000000	0.168226
403.000000	0.170421
404.000000	0.170959
405.000000	0.172472
406.000000	0.173564
407.000000	0.174220
408.000000	0.177162
409.000000	0.179064
410.000000	0.179840
411.000000	0.181164
412.000000	0.182728
413.000000	0.183990
414.000000	0.184563
415.000000	0.185197
416.000000	0.186141
417.000000	0.187305
418.000000	0.187981
419.000000	0.188496
420.000000	0.188910
421.000000	0.189059
422.000000	0.189707
423.000000	0.190319
424.000000	0.190156
425.000000	0.190133
426.000000	0.190353
427.000000	0.190588
428.000000	0.189835
429.000000	0.189753
430.000000	0.190516
431.000000	0.190339
432.000000	0.189889
433.000000	0.189516
434.000000	0.189571
435.000000	0.189571
436.000000	0.189563
437.000000	0.189569
438.000000	0.189065
439.000000	0.188542
440.000000	0.188313
441.000000	0.188075
442.000000	0.187588
443.000000	0.186940
444.000000	0.186605
445.000000	0.186673
446.000000	0.186970
447.000000	0.187179
448.000000	0.187760
449.000000	0.188869
450.000000	0.190479
451.000000	0.192117
452.000000	0.194220
453.000000	0.196776
454.000000	0.199456
455.000000	0.202502
456.000000	0.205698
457.000000	0.208562
458.000000	0.211792
459.000000	0.214940
460.000000	0.217587
461.000000	0.220006
462.000000	0.222224
463.000000	0.224299
464.000000	0.226976
465.000000	0.228792
466.000000	0.229764
467.000000	0.230980
468.000000	0.232225
469.000000	0.233283
470.000000	0.234132
471.000000	0.235070
472.000000	0.235984
473.000000	0.236841
474.000000	0.237889
475.000000	0.238465
476.000000	0.238752
477.000000	0.239550
478.000000	0.240452
479.000000	0.241335
480.000000	0.241856
481.000000	0.242261
482.000000	0.242987
483.000000	0.244050
484.000000	0.244871
485.000000	0.245416
486.000000	0.245953
487.000000	0.246747
488.000000	0.247330
489.000000	0.247855
490.000000	0.248869
491.000000	0.249531
492.000000	0.250073
493.000000	0.250828
494.000000	0.251671
495.000000	0.252577
496.000000	0.253449
497.000000	0.254100
498.000000	0.254911
499.000000	0.255963
500.000000	0.256788
501.000000	0.257590
502.000000	0.258425
503.000000	0.259228
504.000000	0.260219
505.000000	0.261232
506.000000	0.262112
507.000000	0.263106
508.000000	0.264057
509.000000	0.264881
510.000000	0.265810
511.000000	0.266761
512.000000	0.267762
513.000000	0.268870
514.000000	0.269908
515.000000	0.270936
516.000000	0.272013
517.000000	0.273117
518.000000	0.274280
519.000000	0.275443
520.000000	0.276664
521.000000	0.277789
522.000000	0.278833
523.000000	0.280032
524.000000	0.281325
525.000000	0.282650
526.000000	0.283975
527.000000	0.285351
528.000000	0.286715
529.000000	0.288051
530.000000	0.289356
531.000000	0.290760
532.000000	0.292230
533.000000	0.293686
534.000000	0.295134
535.000000	0.296574
536.000000	0.298045
537.000000	0.299543
538.000000	0.301036
539.000000	0.302478
540.000000	0.303957
541.000000	0.305489
542.000000	0.307086
543.000000	0.308612
544.000000	0.310130
545.000000	0.311590
546.000000	0.312982
547.000000	0.314468
548.000000	0.316046
549.000000	0.317489
550.000000	0.318950
551.000000	0.320439
552.000000	0.321872
553.000000	0.323314
554.000000	0.324809
555.000000	0.326354
556.000000	0.327795
557.000000	0.329130
558.000000	0.330515
559.000000	0.331905
560.000000	0.333170
561.000000	0.334441
562.000000	0.335788
563.000000	0.337127
564.000000	0.338400
565.000000	0.339472
566.000000	0.340634
567.000000	0.341757
568.000000	0.342760
569.000000	0.343848
570.000000	0.344845
571.000000	0.345738
572.000000	0.346684
573.000000	0.347527
574.000000	0.348283
575.000000	0.349093
576.000000	0.349904
577.000000	0.350592
578.000000	0.351187
579.000000	0.351939
580.000000	0.352638
581.000000	0.353200
582.000000	0.353738
583.000000	0.354259
584.000000	0.354771
585.000000	0.355279
586.000000	0.355699
587.000000	0.356036
588.000000	0.356332
589.000000	0.356628
590.000000	0.356957
591.000000	0.357309
592.000000	0.357583
593.000000	0.357835
594.000000	0.358076
595.000000	0.358283
596.000000	0.358444
597.000000	0.358602
598.000000	0.358699
599.000000	0.358767
600.000000	0.358926
601.000000	0.359135
602.000000	0.359212
603.000000	0.359250
604.000000	0.359305
605.000000	0.359297
606.000000	0.359372
607.000000	0.359508
608.000000	0.359568
609.000000	0.359566
610.000000	0.359591
611.000000	0.359715
612.000000	0.359784
613.000000	0.359768
614.000000	0.359740
615.000000	0.359807
616.000000	0.359878
617.000000	0.359894
618.000000	0.359947
619.000000	0.359936
620.000000	0.359926
621.000000	0.360083
622.000000	0.359975
623.000000	0.359844
624.000000	0.359931
625.000000	0.360089
626.000000	0.360130
627.000000	0.360054
628.000000	0.360168
629.000000	0.360348
630.000000	0.360419
631.000000	0.360505
632.000000	0.360638
633.000000	0.360770
634.000000	0.360835
635.000000	0.360908
636.000000	0.361019
637.000000	0.361160
638.000000	0.361349
639.000000	0.361463
640.000000	0.361554
641.000000	0.361626
642.000000	0.361763
643.000000	0.361908
644.000000	0.361981
645.000000	0.362147
646.000000	0.362367
647.000000	0.362568
648.000000	0.362794
649.000000	0.363025
650.000000	0.363230
651.000000	0.363426
652.000000	0.363654
653.000000	0.363942
654.000000	0.364199
655.000000	0.364417
656.000000	0.364655
657.000000	0.364903
658.000000	0.365178
659.000000	0.365492
660.000000	0.365813
661.000000	0.366094
662.000000	0.366329
663.000000	0.366607
664.000000	0.366949
665.000000	0.367398
666.000000	0.367838
667.000000	0.368128
668.000000	0.368475
669.000000	0.368869
670.000000	0.369286
671.000000	0.369689
672.000000	0.370069
673.000000	0.370435
674.000000	0.370833
675.000000	0.371237
676.000000	0.371650
677.000000	0.372102
678.000000	0.372571
679.000000	0.373025
680.000000	0.373456
681.000000	0.373847
682.000000	0.374307
683.000000	0.374770
684.000000	0.375268
685.000000	0.375788
686.000000	0.376361
687.000000	0.376947
688.000000	0.377445
689.000000	0.377921
690.000000	0.378474
691.000000	0.379038
692.000000	0.379563
693.000000	0.380112
694.000000	0.380651
695.000000	0.381269
696.000000	0.381936
697.000000	0.382579
698.000000	0.383203
699.000000	0.383848
700.000000	0.384531
701.000000	0.385106
702.000000	0.385741
703.000000	0.386439
704.000000	0.387037
705.000000	0.387669
706.000000	0.388330
707.000000	0.389079
708.000000	0.389835
709.000000	0.390497
710.000000	0.391062
711.000000	0.391770
712.000000	0.392460
713.000000	0.393105
714.000000	0.393803
715.000000	0.394498
716.000000	0.395172
717.000000	0.395790
718.000000	0.396461
719.000000	0.397130
720.000000	0.397757
721.000000	0.398390
722.000000	0.398990
723.000000	0.399619
724.000000	0.400237
725.000000	0.400858
726.000000	0.401562
727.000000	0.402238
728.000000	0.402900
729.000000	0.403490
730.000000	0.403919
731.000000	0.404381
732.000000	0.404879
733.000000	0.405458
734.000000	0.406074
735.000000	0.406599
736.000000	0.407160
737.000000	0.407660
738.000000	0.408178
739.000000	0.408742
740.000000	0.409150
741.000000	0.409588
742.000000	0.409995
743.000000	0.410359
744.000000	0.410830
745.000000	0.411222
746.000000	0.411629
747.000000	0.412082
748.000000	0.412515
749.000000	0.412935
750.000000	0.413305
751.000000	0.413649
752.000000	0.413939
753.000000	0.414186
754.000000	0.414400
755.000000	0.414703
756.000000	0.415041
757.000000	0.415262
758.000000	0.415465
759.000000	0.415686
760.000000	0.415836
761.000000	0.415937
762.000000	0.416053
763.000000	0.416184
764.000000	0.416394
765.000000	0.416448
766.000000	0.416454
767.000000	0.416538
768.000000	0.416623
769.000000	0.416700
770.000000	0.416748
771.000000	0.416700
772.000000	0.416710
773.000000	0.416642
774.000000	0.416454
775.000000	0.416346
776.000000	0.416301
777.000000	0.416239
778.000000	0.416094
779.000000	0.415934
780.000000	0.415788
781.000000	0.415626
782.000000	0.415413
783.000000	0.415284
784.000000	0.415137
785.000000	0.414915
786.000000	0.414626
787.000000	0.414313
788.000000	0.414111
789.000000	0.413890
790.000000	0.413619
791.000000	0.413378
792.000000	0.413110
793.000000	0.412814
794.000000	0.412506
795.000000	0.412176
796.000000	0.411818
797.000000	0.411436
798.000000	0.411059
799.000000	0.410701
800.000000	0.410325
801.000000	0.409903
802.000000	0.409518
803.000000	0.409142
804.000000	0.408785
805.000000	0.408386
806.000000	0.407929
807.000000	0.407547
808.000000	0.407226
809.000000	0.406885
810.000000	0.406442
811.000000	0.405886
812.000000	0.405472
813.000000	0.405054
814.000000	0.404625
815.000000	0.404323
816.000000	0.403931
817.000000	0.403506
818.000000	0.403044
819.000000	0.402616
820.000000	0.402166
821.000000	0.401673
822.000000	0.401375
823.000000	0.401024
824.000000	0.400569
825.000000	0.400182
826.000000	0.399777
827.000000	0.399340
828.000000	0.398909
829.000000	0.398389
830.000000	0.397865
831.000000	0.397381
832.000000	0.396771
833.000000	0.396380
834.000000	0.396042
835.000000	0.395638
836.000000	0.395260
837.000000	0.394843
838.000000	0.394385
839.000000	0.393873
840.000000	0.393379
841.000000	0.392912
842.000000	0.392429
843.000000	0.392035
844.000000	0.391720
845.000000	0.391429
846.000000	0.391155
847.000000	0.390862
848.000000	0.390530
849.000000	0.390180
850.000000	0.389720
851.000000	0.389211
852.000000	0.388746
853.000000	0.388311
854.000000	0.387836
855.000000	0.387455
856.000000	0.387088
857.000000	0.386555
858.000000	0.386164
859.000000	0.385930
860.000000	0.385658
861.000000	0.385263
862.000000	0.384822
863.000000	0.384386
864.000000	0.384044
865.000000	0.383711
866.000000	0.383375
867.000000	0.383092
868.000000	0.382783
869.000000	0.382388
870.000000	0.382000
871.000000	0.381612
872.000000	0.381256
873.000000	0.380901
874.000000	0.380685
875.000000	0.380358
876.000000	0.379947
877.000000	0.379523
878.000000	0.379178
879.000000	0.378980
880.000000	0.378764
881.000000	0.378546
882.000000	0.378322
883.000000	0.378104
884.000000	0.377834
885.000000	0.377641
886.000000	0.377419
887.000000	0.377136
888.000000	0.376828
889.000000	0.376490
890.000000	0.376111
891.000000	0.375916
892.000000	0.375647
893.000000	0.375332
894.000000	0.375121
895.000000	0.374825
896.000000	0.374531
897.000000	0.374323
898.000000	0.374229
899.000000	0.373955
900.000000	0.373732
901.000000	0.373621
902.000000	0.373563
903.000000	0.373446
904.000000	0.373356
905.000000	0.373275
906.000000	0.373165
907.000000	0.373049
908.000000	0.372943
909.000000	0.372648
910.000000	0.372568
911.000000	0.372466
912.000000	0.372130
913.000000	0.371897
914.000000	0.371670
915.000000	0.371515
916.000000	0.371410
917.000000	0.371273
918.000000	0.371214
919.000000	0.371218
920.000000	0.370948
921.000000	0.370832
922.000000	0.370850
923.000000	0.370732
924.000000	0.370617
925.000000	0.370455
926.000000	0.370318
927.000000	0.370390
928.000000	0.370427
929.000000	0.370358
930.000000	0.370206
931.000000	0.370106
932.000000	0.369956
933.000000	0.369809
934.000000	0.369761
935.000000	0.369752
936.000000	0.369735
937.000000	0.369586
938.000000	0.369464
939.000000	0.369478
940.000000	0.369506
941.000000	0.369488
942.000000	0.369418
943.000000	0.369444
944.000000	0.369530
945.000000	0.369823
946.000000	0.369782
947.000000	0.369660
948.000000	0.369763
949.000000	0.369673
950.000000	0.369648
951.000000	0.369672
952.000000	0.369597
953.000000	0.369496
954.000000	0.369441
955.000000	0.369392
956.000000	0.369362
957.000000	0.369390
958.000000	0.369455
959.000000	0.369639
960.000000	0.369722
961.000000	0.369742
962.000000	0.369759
963.000000	0.369903
964.000000	0.369936
965.000000	0.369918
966.000000	0.369847
967.000000	0.369978
968.000000	0.370098
969.000000	0.370026
970.000000	0.369841
971.000000	0.370032
972.000000	0.370320
973.000000	0.370464
974.000000	0.370597
975.000000	0.370544
976.000000	0.370544
977.000000	0.370787
978.000000	0.371135
979.000000	0.371292
980.000000	0.371115
981.000000	0.371163
982.000000	0.371437
983.000000	0.371675
984.000000	0.371864
985.000000	0.372079
986.000000	0.372319
987.000000	0.372394
988.000000	0.372170
989.000000	0.372208
990.000000	0.372508
991.000000	0.372832
992.000000	0.373011
993.000000	0.373426
994.000000	0.373568
995.000000	0.373742
996.000000	0.374289
997.000000	0.374719
998.000000	0.374684
999.000000	0.374465
1000.000000	0.374865
1001.000000	0.375060
1002.000000	0.374658
1003.000000	0.374297
1004.000000	0.373996
1005.000000	0.373071
1006.000000	0.373332
1007.000000	0.374392
1008.000000	0.375139
1009.000000	0.376000
1010.000000	0.376654
1011.000000	0.377343
1012.000000	0.378068
1013.000000	0.378330
1014.000000	0.378413
1015.000000	0.378259
1016.000000	0.378350
1017.000000	0.377909
1018.000000	0.377865
1019.000000	0.378465
1020.000000	0.379376
1021.000000	0.379522
1022.000000	0.380824
1023.000000	0.381481
1024.000000	0.380741
1025.000000	0.380914
1026.000000	0.381991
1027.000000	0.382384
1028.000000	0.383271
1029.000000	0.383874
1030.000000	0.383626
1031.000000	0.383971
1032.000000	0.384112
1033.000000	0.383842
1034.000000	0.384264
1035.000000	0.385450
1036.000000	0.385758
1037.000000	0.385831
1038.000000	0.386262
1039.000000	0.386709
1040.000000	0.386760
1041.000000	0.387354
1042.000000	0.388331
1043.000000	0.389178
1044.000000	0.389870
1045.000000	0.390189
1046.000000	0.390486
1047.000000	0.391356
1048.000000	0.392416
1049.000000	0.392786
1050.000000	0.393410
1051.000000	0.393915
1052.000000	0.393388
1053.000000	0.393492
1054.000000	0.394603
1055.000000	0.395323
1056.000000	0.396064
1057.000000	0.396387
1058.000000	0.396537
1059.000000	0.396644
1060.000000	0.396561
1061.000000	0.397007
1062.000000	0.398098
1063.000000	0.398890
1064.000000	0.399685
1065.000000	0.400563
1066.000000	0.401196
1067.000000	0.401511
1068.000000	0.402038
1069.000000	0.402543
1070.000000	0.402982
1071.000000	0.403524
1072.000000	0.404022
1073.000000	0.404498
1074.000000	0.404901
1075.000000	0.405539
1076.000000	0.406398
1077.000000	0.407007
1078.000000	0.407448
1079.000000	0.408059
1080.000000	0.408572
1081.000000	0.409214
1082.000000	0.410241
1083.000000	0.411082
1084.000000	0.412054
1085.000000	0.412660
1086.000000	0.412839
1087.000000	0.413418
1088.000000	0.413781
1089.000000	0.414311
1090.000000	0.415287
1091.000000	0.416060
1092.000000	0.416149
1093.000000	0.416553
1094.000000	0.417072
1095.000000	0.417235
1096.000000	0.418086
1097.000000	0.419683
1098.000000	0.420603
1099.000000	0.421465
1100.000000	0.422332
1101.000000	0.422911
1102.000000	0.423423
1103.000000	0.423774
1104.000000	0.424379
1105.000000	0.424972
1106.000000	0.425520
1107.000000	0.426113
1108.000000	0.426787
1109.000000	0.427520
1110.000000	0.428182
1111.000000	0.428760
1112.000000	0.429404
1113.000000	0.430183
1114.000000	0.430899
1115.000000	0.431571
1116.000000	0.432481
1117.000000	0.433198
1118.000000	0.433672
1119.000000	0.434101
1120.000000	0.434532
1121.000000	0.434973
1122.000000	0.435291
1123.000000	0.436009
1124.000000	0.436667
1125.000000	0.437378
1126.000000	0.438248
1127.000000	0.438842
1128.000000	0.439318
1129.000000	0.439643
1130.000000	0.440294
1131.000000	0.440956
1132.000000	0.441548
1133.000000	0.442470
1134.000000	0.443142
1135.000000	0.443543
1136.000000	0.443939
1137.000000	0.444320
1138.000000	0.444613
1139.000000	0.444825
1140.000000	0.445211
1141.000000	0.445492
1142.000000	0.445971
1143.000000	0.446596
1144.000000	0.447222
1145.000000	0.447598
1146.000000	0.448149
1147.000000	0.448563
1148.000000	0.448671
1149.000000	0.449061
1150.000000	0.449626
1151.000000	0.450082
1152.000000	0.450458
1153.000000	0.450924
1154.000000	0.451376
1155.000000	0.451738
1156.000000	0.452152
1157.000000	0.452488
1158.000000	0.452536
1159.000000	0.452812
1160.000000	0.453167
1161.000000	0.453517
1162.000000	0.453966
1163.000000	0.454725
1164.000000	0.455273
1165.000000	0.455617
1166.000000	0.456085
1167.000000	0.456496
1168.000000	0.456802
1169.000000	0.457117
1170.000000	0.457473
1171.000000	0.457810
1172.000000	0.458208
1173.000000	0.458711
1174.000000	0.459033
1175.000000	0.459134
1176.000000	0.459340
1177.000000	0.459552
1178.000000	0.459906
1179.000000	0.460484
1180.000000	0.460870
1181.000000	0.461421
1182.000000	0.461775
1183.000000	0.462179
1184.000000	0.462625
1185.000000	0.462970
1186.000000	0.463283
1187.000000	0.463630
1188.000000	0.463853
1189.000000	0.464201
1190.000000	0.464864
1191.000000	0.465214
1192.000000	0.465568
1193.000000	0.466030
1194.000000	0.466128
1195.000000	0.466460
1196.000000	0.466984
1197.000000	0.467343
1198.000000	0.467709
1199.000000	0.468058
1200.000000	0.468335
1201.000000	0.468484
1202.000000	0.468810
1203.000000	0.469264
1204.000000	0.469509
1205.000000	0.469873
1206.000000	0.470207
1207.000000	0.470656
1208.000000	0.470902
1209.000000	0.471283
1210.000000	0.471479
1211.000000	0.471400
1212.000000	0.471488
1213.000000	0.471614
1214.000000	0.471840
1215.000000	0.472138
1216.000000	0.472428
1217.000000	0.472796
1218.000000	0.473033
1219.000000	0.473249
1220.000000	0.473457
1221.000000	0.473627
1222.000000	0.473800
1223.000000	0.474064
1224.000000	0.474355
1225.000000	0.474579
1226.000000	0.474843
1227.000000	0.475134
1228.000000	0.475408
1229.000000	0.475645
1230.000000	0.475952
1231.000000	0.476073
1232.000000	0.476149
1233.000000	0.476466
1234.000000	0.476857
1235.000000	0.477067
1236.000000	0.477200
1237.000000	0.477389
1238.000000	0.477335
1239.000000	0.477375
1240.000000	0.477450
1241.000000	0.477630
1242.000000	0.477834
1243.000000	0.478040
1244.000000	0.478364
1245.000000	0.478655
1246.000000	0.478681
1247.000000	0.478902
1248.000000	0.479187
1249.000000	0.479452
1250.000000	0.479723
1251.000000	0.479955
1252.000000	0.480202
1253.000000	0.480397
1254.000000	0.480636
1255.000000	0.480955
1256.000000	0.481177
1257.000000	0.481404
1258.000000	0.481647
1259.000000	0.481797
1260.000000	0.482028
1261.000000	0.482133
1262.000000	0.482239
1263.000000	0.482406
1264.000000	0.482493
1265.000000	0.482680
1266.000000	0.482837
1267.000000	0.482871
1268.000000	0.483020
1269.000000	0.483002
1270.000000	0.483138
1271.000000	0.483368
1272.000000	0.483533
1273.000000	0.483798
1274.000000	0.483861
1275.000000	0.483871
1276.000000	0.483792
1277.000000	0.483921
1278.000000	0.483927
1279.000000	0.483950
1280.000000	0.483979
1281.000000	0.483943
1282.000000	0.483850
1283.000000	0.484023
1284.000000	0.484311
1285.000000	0.484471
1286.000000	0.484677
1287.000000	0.484692
1288.000000	0.484700
1289.000000	0.484697
1290.000000	0.484703
1291.000000	0.484739
1292.000000	0.484761
1293.000000	0.484689
1294.000000	0.484593
1295.000000	0.484713
1296.000000	0.484722
1297.000000	0.484544
1298.000000	0.484412
1299.000000	0.484283
1300.000000	0.484266
1301.000000	0.484284
1302.000000	0.484172
1303.000000	0.484180
1304.000000	0.484074
1305.000000	0.484028
1306.000000	0.483942
1307.000000	0.483888
1308.000000	0.483885
1309.000000	0.483836
1310.000000	0.483818
1311.000000	0.483948
1312.000000	0.483954
1313.000000	0.483768
1314.000000	0.483517
1315.000000	0.483278
1316.000000	0.483142
1317.000000	0.482929
1318.000000	0.482985
1319.000000	0.482913
1320.000000	0.482546
1321.000000	0.482447
1322.000000	0.482188
1323.000000	0.481975
1324.000000	0.482141
1325.000000	0.481992
1326.000000	0.481837
1327.000000	0.481634
1328.000000	0.481213
1329.000000	0.480833
1330.000000	0.480447
1331.000000	0.480178
1332.000000	0.480092
1333.000000	0.479877
1334.000000	0.479830
1335.000000	0.479670
1336.000000	0.479252
1337.000000	0.478966
1338.000000	0.478678
1339.000000	0.478366
1340.000000	0.477987
1341.000000	0.477751
1342.000000	0.477418
1343.000000	0.477085
1344.000000	0.476918
1345.000000	0.476707
1346.000000	0.476500
1347.000000	0.476062
1348.000000	0.475573
1349.000000	0.475020
1350.000000	0.474609
1351.000000	0.474341
1352.000000	0.474061
1353.000000	0.473701
1354.000000	0.473308
1355.000000	0.472753
1356.000000	0.472323
1357.000000	0.471964
1358.000000	0.471526
1359.000000	0.471244
1360.000000	0.470963
1361.000000	0.470750
1362.000000	0.470416
1363.000000	0.470078
1364.000000	0.469754
1365.000000	0.469391
1366.000000	0.469037
1367.000000	0.468731
1368.000000	0.468210
1369.000000	0.467862
1370.000000	0.467184
1371.000000	0.466389
1372.000000	0.465665
1373.000000	0.464861
1374.000000	0.464041
1375.000000	0.463297
1376.000000	0.462684
1377.000000	0.461947
1378.000000	0.461081
1379.000000	0.459978
1380.000000	0.458724
1381.000000	0.457352
1382.000000	0.455883
1383.000000	0.454453
1384.000000	0.452846
1385.000000	0.451013
1386.000000	0.449235
1387.000000	0.447529
1388.000000	0.445561
1389.000000	0.443572
1390.000000	0.441607
1391.000000	0.439264
1392.000000	0.437062
1393.000000	0.434806
1394.000000	0.432513
1395.000000	0.430210
1396.000000	0.427999
1397.000000	0.425549
1398.000000	0.422925
1399.000000	0.420428
1400.000000	0.417854
1401.000000	0.415202
1402.000000	0.412594
1403.000000	0.409997
1404.000000	0.407549
1405.000000	0.404997
1406.000000	0.402440
1407.000000	0.400017
1408.000000	0.397374
1409.000000	0.394905
1410.000000	0.392771
1411.000000	0.390590
1412.000000	0.388375
1413.000000	0.386367
1414.000000	0.384525
1415.000000	0.382815
1416.000000	0.381333
1417.000000	0.380085
1418.000000	0.378899
1419.000000	0.377890
1420.000000	0.376918
1421.000000	0.375953
1422.000000	0.374948
1423.000000	0.373883
1424.000000	0.372573
1425.000000	0.371291
1426.000000	0.369924
1427.000000	0.368474
1428.000000	0.367150
1429.000000	0.365781
1430.000000	0.364451
1431.000000	0.363315
1432.000000	0.362399
1433.000000	0.361708
1434.000000	0.361223
1435.000000	0.361036
1436.000000	0.361005
1437.000000	0.361167
1438.000000	0.361450
1439.000000	0.361975
1440.000000	0.362651
1441.000000	0.363532
1442.000000	0.364465
1443.000000	0.365495
1444.000000	0.366565
1445.000000	0.367612
1446.000000	0.368566
1447.000000	0.369369
1448.000000	0.370031
1449.000000	0.370499
1450.000000	0.370898
1451.000000	0.371233
1452.000000	0.371436
1453.000000	0.371603
1454.000000	0.371582
1455.000000	0.371509
1456.000000	0.371479
1457.000000	0.371370
1458.000000	0.371277
1459.000000	0.371178
1460.000000	0.371100
1461.000000	0.371081
1462.000000	0.371084
1463.000000	0.371100
1464.000000	0.371156
1465.000000	0.371209
1466.000000	0.371193
1467.000000	0.371162
1468.000000	0.371188
1469.000000	0.371335
1470.000000	0.371539
1471.000000	0.371959
1472.000000	0.372377
1473.000000	0.372975
1474.000000	0.373713
1475.000000	0.374301
1476.000000	0.374893
1477.000000	0.375532
1478.000000	0.376139
1479.000000	0.376843
1480.000000	0.377647
1481.000000	0.378336
1482.000000	0.378952
1483.000000	0.379724
1484.000000	0.380546
1485.000000	0.381379
1486.000000	0.382338
1487.000000	0.383138
1488.000000	0.383837
1489.000000	0.384605
1490.000000	0.385208
1491.000000	0.385962
1492.000000	0.386791
1493.000000	0.387544
1494.000000	0.388191
1495.000000	0.388902
1496.000000	0.389613
1497.000000	0.390334
1498.000000	0.391142
1499.000000	0.391876
1500.000000	0.392563
1501.000000	0.393130
1502.000000	0.393687
1503.000000	0.394334
1504.000000	0.394945
1505.000000	0.395612
1506.000000	0.396271
1507.000000	0.396800
1508.000000	0.397428
1509.000000	0.398025
1510.000000	0.398427
1511.000000	0.398942
1512.000000	0.399472
1513.000000	0.399876
1514.000000	0.400399
1515.000000	0.400885
1516.000000	0.401284
1517.000000	0.401618
1518.000000	0.401992
1519.000000	0.402300
1520.000000	0.402533
1521.000000	0.402807
1522.000000	0.403134
1523.000000	0.403530
1524.000000	0.403919
1525.000000	0.404287
1526.000000	0.404622
1527.000000	0.404919
1528.000000	0.405250
1529.000000	0.405537
1530.000000	0.405745
1531.000000	0.406083
1532.000000	0.406311
1533.000000	0.406536
1534.000000	0.406792
1535.000000	0.406938
1536.000000	0.407231
1537.000000	0.407569
1538.000000	0.407871
1539.000000	0.408103
1540.000000	0.408206
1541.000000	0.408384
1542.000000	0.408588
1543.000000	0.408831
1544.000000	0.409075
1545.000000	0.409401
1546.000000	0.409652
1547.000000	0.409713
1548.000000	0.409793
1549.000000	0.409810
1550.000000	0.409729
1551.000000	0.409764
1552.000000	0.409971
1553.000000	0.410091
1554.000000	0.410241
1555.000000	0.410419
1556.000000	0.410478
1557.000000	0.410494
1558.000000	0.410537
1559.000000	0.410482
1560.000000	0.410548
1561.000000	0.410701
1562.000000	0.410800
1563.000000	0.411008
1564.000000	0.411137
1565.000000	0.411233
1566.000000	0.411222
1567.000000	0.411221
1568.000000	0.411346
1569.000000	0.411542
1570.000000	0.411727
1571.000000	0.412100
1572.000000	0.412216
1573.000000	0.412139
1574.000000	0.412151
1575.000000	0.412074
1576.000000	0.412179
1577.000000	0.412449
1578.000000	0.412553
1579.000000	0.412736
1580.000000	0.412842
1581.000000	0.412867
1582.000000	0.412953
1583.000000	0.413134
1584.000000	0.413157
1585.000000	0.413187
1586.000000	0.413272
1587.000000	0.413308
1588.000000	0.413356
1589.000000	0.413455
1590.000000	0.413548
1591.000000	0.413643
1592.000000	0.413754
1593.000000	0.413963
1594.000000	0.414107
1595.000000	0.414277
1596.000000	0.414430
1597.000000	0.414656
1598.000000	0.414692
1599.000000	0.414670
1600.000000	0.414621
1601.000000	0.414443
1602.000000	0.414444
1603.000000	0.414666
1604.000000	0.414683
1605.000000	0.414706
1606.000000	0.414750
1607.000000	0.414703
1608.000000	0.414734
1609.000000	0.414981
1610.000000	0.415064
1611.000000	0.415084
1612.000000	0.415176
1613.000000	0.415368
1614.000000	0.415524
1615.000000	0.415810
1616.000000	0.416049
1617.000000	0.416185
1618.000000	0.416356
1619.000000	0.416559
1620.000000	0.416659
1621.000000	0.416676
1622.000000	0.416908
1623.000000	0.417150
1624.000000	0.417304
1625.000000	0.417405
1626.000000	0.417467
1627.000000	0.417371
1628.000000	0.417495
1629.000000	0.417730
1630.000000	0.417961
1631.000000	0.418191
1632.000000	0.418316
1633.000000	0.418421
1634.000000	0.418604
1635.000000	0.418789
1636.000000	0.419016
1637.000000	0.419375
1638.000000	0.419624
1639.000000	0.419949
1640.000000	0.420146
1641.000000	0.420345
1642.000000	0.420490
1643.000000	0.420512
1644.000000	0.420700
1645.000000	0.420972
1646.000000	0.421145
1647.000000	0.421452
1648.000000	0.421580
1649.000000	0.421623
1650.000000	0.421852
1651.000000	0.422160
1652.000000	0.422492
1653.000000	0.422855
1654.000000	0.423238
1655.000000	0.423594
1656.000000	0.423786
1657.000000	0.424011
1658.000000	0.424272
1659.000000	0.424641
1660.000000	0.424895
1661.000000	0.424990
1662.000000	0.425284
1663.000000	0.425436
1664.000000	0.425820
1665.000000	0.426583
1666.000000	0.427030
1667.000000	0.427278
1668.000000	0.427518
1669.000000	0.427600
1670.000000	0.427699
1671.000000	0.427859
1672.000000	0.428223
1673.000000	0.428652
1674.000000	0.428997
1675.000000	0.429327
1676.000000	0.429466
1677.000000	0.429546
1678.000000	0.429651
1679.000000	0.429844
1680.000000	0.429921
1681.000000	0.430014
1682.000000	0.430245
1683.000000	0.430546
1684.000000	0.430844
1685.000000	0.431053
1686.000000	0.431189
1687.000000	0.431338
1688.000000	0.431505
1689.000000	0.431750
1690.000000	0.431835
1691.000000	0.431929
1692.000000	0.431977
1693.000000	0.432000
1694.000000	0.432062
1695.000000	0.432267
1696.000000	0.432407
1697.000000	0.432500
1698.000000	0.432728
1699.000000	0.432888
1700.000000	0.432881
1701.000000	0.433158
1702.000000	0.433405
1703.000000	0.433512
1704.000000	0.433819
1705.000000	0.434013
1706.000000	0.434114
1707.000000	0.434149
1708.000000	0.434078
1709.000000	0.433985
1710.000000	0.433851
1711.000000	0.433850
1712.000000	0.434051
1713.000000	0.434115
1714.000000	0.434142
1715.000000	0.434286
1716.000000	0.434502
1717.000000	0.434642
1718.000000	0.434880
1719.000000	0.434929
1720.000000	0.434760
1721.000000	0.434800
1722.000000	0.434939
1723.000000	0.434979
1724.000000	0.435102
1725.000000	0.435222
1726.000000	0.435102
1727.000000	0.435144
1728.000000	0.435245
1729.000000	0.435244
1730.000000	0.435388
1731.000000	0.435480
1732.000000	0.435578
1733.000000	0.435749
1734.000000	0.435705
1735.000000	0.435874
1736.000000	0.436120
1737.000000	0.436319
1738.000000	0.436651
1739.000000	0.436828
1740.000000	0.436866
1741.000000	0.436996
1742.000000	0.437148
1743.000000	0.437315
1744.000000	0.437498
1745.000000	0.437591
1746.000000	0.437607
1747.000000	0.437677
1748.000000	0.437701
1749.000000	0.437755
1750.000000	0.437757
1751.000000	0.437953
1752.000000	0.438137
1753.000000	0.438098
1754.000000	0.438060
1755.000000	0.437842
1756.000000	0.437708
1757.000000	0.437638
1758.000000	0.437545
1759.000000	0.437405
1760.000000	0.437348
1761.000000	0.437246
1762.000000	0.437177
1763.000000	0.437193
1764.000000	0.437263
1765.000000	0.437316
1766.000000	0.437419
1767.000000	0.437555
1768.000000	0.437577
1769.000000	0.437680
1770.000000	0.437782
1771.000000	0.437804
1772.000000	0.437779
1773.000000	0.437645
1774.000000	0.437554
1775.000000	0.437471
1776.000000	0.437469
1777.000000	0.437514
1778.000000	0.437443
1779.000000	0.437281
1780.000000	0.437332
1781.000000	0.437352
1782.000000	0.437438
1783.000000	0.437794
1784.000000	0.437927
1785.000000	0.437922
1786.000000	0.438364
1787.000000	0.438793
1788.000000	0.439031
1789.000000	0.439360
1790.000000	0.439283
1791.000000	0.439213
1792.000000	0.439277
1793.000000	0.439327
1794.000000	0.439285
1795.000000	0.439398
1796.000000	0.439660
1797.000000	0.439792
1798.000000	0.439911
1799.000000	0.440057
1800.000000	0.440223
1801.000000	0.439253
1802.000000	0.439840
1803.000000	0.441098
1804.000000	0.441929
1805.000000	0.444064
1806.000000	0.444968
1807.000000	0.444967
1808.000000	0.444870
1809.000000	0.444553
1810.000000	0.443777
1811.000000	0.443527
1812.000000	0.443050
1813.000000	0.443082
1814.000000	0.443884
1815.000000	0.444209
1816.000000	0.444516
1817.000000	0.444465
1818.000000	0.444047
1819.000000	0.444199
1820.000000	0.444226
1821.000000	0.443946
1822.000000	0.443775
1823.000000	0.443647
1824.000000	0.443093
1825.000000	0.441809
1826.000000	0.441534
1827.000000	0.441169
1828.000000	0.441176
1829.000000	0.442334
1830.000000	0.443147
1831.000000	0.443351
1832.000000	0.443501
1833.000000	0.443165
1834.000000	0.441680
1835.000000	0.441198
1836.000000	0.440634
1837.000000	0.440403
1838.000000	0.440832
1839.000000	0.440830
1840.000000	0.440768
1841.000000	0.440547
1842.000000	0.439995
1843.000000	0.438805
1844.000000	0.438452
1845.000000	0.438317
1846.000000	0.437875
1847.000000	0.437436
1848.000000	0.436566
1849.000000	0.436465
1850.000000	0.436247
1851.000000	0.435828
1852.000000	0.435931
1853.000000	0.435371
1854.000000	0.433669
1855.000000	0.432311
1856.000000	0.430906
1857.000000	0.429707
1858.000000	0.427678
1859.000000	0.426189
1860.000000	0.423679
1861.000000	0.421740
1862.000000	0.420117
1863.000000	0.418886
1864.000000	0.417226
1865.000000	0.415972
1866.000000	0.414198
1867.000000	0.412013
1868.000000	0.409379
1869.000000	0.407253
1870.000000	0.405367
1871.000000	0.402328
1872.000000	0.399019
1873.000000	0.395643
1874.000000	0.391632
1875.000000	0.387800
1876.000000	0.383605
1877.000000	0.379491
1878.000000	0.375769
1879.000000	0.371157
1880.000000	0.366551
1881.000000	0.362271
1882.000000	0.357388
1883.000000	0.351788
1884.000000	0.346191
1885.000000	0.339931
1886.000000	0.333966
1887.000000	0.327748
1888.000000	0.321767
1889.000000	0.315744
1890.000000	0.309945
1891.000000	0.303742
1892.000000	0.296842
1893.000000	0.289870
1894.000000	0.282841
1895.000000	0.276152
1896.000000	0.269663
1897.000000	0.263482
1898.000000	0.257478
1899.000000	0.251769
1900.000000	0.245693
1901.000000	0.240081
1902.000000	0.234668
1903.000000	0.229708
1904.000000	0.225616
1905.000000	0.221381
1906.000000	0.217857
1907.000000	0.215031
1908.000000	0.212568
1909.000000	0.210106
1910.000000	0.208297
1911.000000	0.206029
1912.000000	0.203664
1913.000000	0.201873
1914.000000	0.200468
1915.000000	0.199641
1916.000000	0.199548
1917.000000	0.199071
1918.000000	0.198755
1919.000000	0.198368
1920.000000	0.198222
1921.000000	0.197519
1922.000000	0.197267
1923.000000	0.197265
1924.000000	0.196613
1925.000000	0.196357
1926.000000	0.196275
1927.000000	0.196290
1928.000000	0.196421
1929.000000	0.196876
1930.000000	0.197146
1931.000000	0.197708
1932.000000	0.198321
1933.000000	0.198587
1934.000000	0.199016
1935.000000	0.198809
1936.000000	0.198771
1937.000000	0.199587
1938.000000	0.200017
1939.000000	0.200499
1940.000000	0.201395
1941.000000	0.202044
1942.000000	0.202038
1943.000000	0.202037
1944.000000	0.201876
1945.000000	0.201617
1946.000000	0.201656
1947.000000	0.202183
1948.000000	0.202324
1949.000000	0.202598
1950.000000	0.202557
1951.000000	0.202053
1952.000000	0.200799
1953.000000	0.200376
1954.000000	0.199909
1955.000000	0.199580
1956.000000	0.200116
1957.000000	0.200187
1958.000000	0.200193
1959.000000	0.200383
1960.000000	0.199821
1961.000000	0.199416
1962.000000	0.199452
1963.000000	0.199807
1964.000000	0.199913
1965.000000	0.200547
1966.000000	0.201371
1967.000000	0.201391
1968.000000	0.201648
1969.000000	0.202073
1970.000000	0.202307
1971.000000	0.202596
1972.000000	0.202448
1973.000000	0.202686
1974.000000	0.203115
1975.000000	0.203494
1976.000000	0.204085
1977.000000	0.204928
1978.000000	0.205225
1979.000000	0.205381
1980.000000	0.205430
1981.000000	0.205947
1982.000000	0.206826
1983.000000	0.207638
1984.000000	0.208674
1985.000000	0.210378
1986.000000	0.211489
1987.000000	0.212565
1988.000000	0.213366
1989.000000	0.213884
1990.000000	0.214607
1991.000000	0.214912
1992.000000	0.215368
1993.000000	0.216164
1994.000000	0.216681
1995.000000	0.217798
1996.000000	0.219036
1997.000000	0.220049
1998.000000	0.221042
1999.000000	0.222236
2000.000000	0.223280
2001.000000	0.224636
2002.000000	0.225980
2003.000000	0.227517
2004.000000	0.228965
2005.000000	0.229426
2006.000000	0.230333
2007.000000	0.231489
2008.000000	0.232899
2009.000000	0.234990
2010.000000	0.236534
2011.000000	0.237758
2012.000000	0.238892
2013.000000	0.239720
2014.000000	0.240131
2015.000000	0.240907
2016.000000	0.242876
2017.000000	0.244736
2018.000000	0.246168
2019.000000	0.247516
2020.000000	0.248702
2021.000000	0.250073
2022.000000	0.251396
2023.000000	0.252724
2024.000000	0.254311
2025.000000	0.255701
2026.000000	0.257028
2027.000000	0.257535
2028.000000	0.258451
2029.000000	0.259959
2030.000000	0.261144
2031.000000	0.262943
2032.000000	0.264637
2033.000000	0.265748
2034.000000	0.267144
2035.000000	0.268784
2036.000000	0.269983
2037.000000	0.271331
2038.000000	0.272431
2039.000000	0.273324
2040.000000	0.273812
2041.000000	0.274499
2042.000000	0.275615
2043.000000	0.276408
2044.000000	0.277088
2045.000000	0.278128
2046.000000	0.278891
2047.000000	0.280108
2048.000000	0.282050
2049.000000	0.283283
2050.000000	0.283987
2051.000000	0.284885
2052.000000	0.285060
2053.000000	0.285651
2054.000000	0.286698
2055.000000	0.288123
2056.000000	0.289382
2057.000000	0.291192
2058.000000	0.292822
2059.000000	0.293899
2060.000000	0.294728
2061.000000	0.294949
2062.000000	0.295407
2063.000000	0.295871
2064.000000	0.296181
2065.000000	0.296482
2066.000000	0.297068
2067.000000	0.298062
2068.000000	0.298604
2069.000000	0.300086
2070.000000	0.301654
2071.000000	0.302428
2072.000000	0.303506
2073.000000	0.303861
2074.000000	0.303678
2075.000000	0.304570
2076.000000	0.305983
2077.000000	0.307205
2078.000000	0.309525
2079.000000	0.310718
2080.000000	0.310846
2081.000000	0.311789
2082.000000	0.312998
2083.000000	0.313692
2084.000000	0.314462
2085.000000	0.315546
2086.000000	0.316482
2087.000000	0.317269
2088.000000	0.318770
2089.000000	0.320294
2090.000000	0.321318
2091.000000	0.322122
2092.000000	0.322750
2093.000000	0.322809
2094.000000	0.323424
2095.000000	0.324275
2096.000000	0.324918
2097.000000	0.325598
2098.000000	0.326255
2099.000000	0.326594
2100.000000	0.326893
2101.000000	0.327971
2102.000000	0.328692
2103.000000	0.329779
2104.000000	0.331009
2105.000000	0.331747
2106.000000	0.332153
2107.000000	0.332722
2108.000000	0.332762
2109.000000	0.333540
2110.000000	0.334632
2111.000000	0.335685
2112.000000	0.337185
2113.000000	0.337976
2114.000000	0.338536
2115.000000	0.338978
2116.000000	0.339781
2117.000000	0.340438
2118.000000	0.341028
2119.000000	0.341634
2120.000000	0.342060
2121.000000	0.341842
2122.000000	0.342249
2123.000000	0.343229
2124.000000	0.343595
2125.000000	0.343828
2126.000000	0.344148
2127.000000	0.344168
2128.000000	0.344398
2129.000000	0.344991
2130.000000	0.344952
2131.000000	0.344887
2132.000000	0.344670
2133.000000	0.344156
2134.000000	0.344293
2135.000000	0.345211
2136.000000	0.346534
2137.000000	0.347324
2138.000000	0.348801
2139.000000	0.349174
2140.000000	0.348066
2141.000000	0.348013
2142.000000	0.348335
2143.000000	0.348228
2144.000000	0.348663
2145.000000	0.348798
2146.000000	0.348664
2147.000000	0.348541
2148.000000	0.348218
2149.000000	0.347988
2150.000000	0.347689
2151.000000	0.346481
2152.000000	0.345540
2153.000000	0.344533
2154.000000	0.343984
2155.000000	0.343494
2156.000000	0.343746
2157.000000	0.345087
2158.000000	0.345590
2159.000000	0.346598
2160.000000	0.346714
2161.000000	0.345370
2162.000000	0.345279
2163.000000	0.345348
2164.000000	0.345364
2165.000000	0.345952
2166.000000	0.346534
2167.000000	0.346843
2168.000000	0.346880
2169.000000	0.346768
2170.000000	0.346816
2171.000000	0.346975
2172.000000	0.347012
2173.000000	0.347119
2174.000000	0.347794
2175.000000	0.347652
2176.000000	0.346660
2177.000000	0.346606
2178.000000	0.346647
2179.000000	0.346932
2180.000000	0.348277
2181.000000	0.348889
2182.000000	0.348608
2183.000000	0.347923
2184.000000	0.347265
2185.000000	0.346323
2186.000000	0.345922
2187.000000	0.346025
2188.000000	0.345873
2189.000000	0.345268
2190.000000	0.344845
2191.000000	0.344869
2192.000000	0.344402
2193.000000	0.344423
2194.000000	0.343540
2195.000000	0.340956
2196.000000	0.340167
2197.000000	0.340052
2198.000000	0.339709
2199.000000	0.340692
2200.000000	0.341067
2201.000000	0.341011
2202.000000	0.340589
2203.000000	0.339394
2204.000000	0.338553
2205.000000	0.339000
2206.000000	0.339045
2207.000000	0.340158
2208.000000	0.342290
2209.000000	0.340733
2210.000000	0.339119
2211.000000	0.338587
2212.000000	0.338506
2213.000000	0.338688
2214.000000	0.340653
2215.000000	0.341123
2216.000000	0.339969
2217.000000	0.340936
2218.000000	0.343694
2219.000000	0.344391
2220.000000	0.345150
2221.000000	0.345556
2222.000000	0.343168
2223.000000	0.343222
2224.000000	0.344871
2225.000000	0.346740
2226.000000	0.347406
2227.000000	0.349007
2228.000000	0.350951
2229.000000	0.350231
2230.000000	0.349426
2231.000000	0.349327
2232.000000	0.346667
2233.000000	0.344400
2234.000000	0.343551
2235.000000	0.343635
2236.000000	0.344236
2237.000000	0.346912
2238.000000	0.347957
2239.000000	0.349231
2240.000000	0.348412
2241.000000	0.345274
2242.000000	0.343518
2243.000000	0.340228
2244.000000	0.339763
2245.000000	0.342001
2246.000000	0.342592
2247.000000	0.343712
2248.000000	0.344181
2249.000000	0.343341
2250.000000	0.344440
2251.000000	0.342233
2252.000000	0.340860
2253.000000	0.341309
2254.000000	0.340896
2255.000000	0.343792
2256.000000	0.346842
2257.000000	0.346396
2258.000000	0.344043
2259.000000	0.341166
2260.000000	0.337350
2261.000000	0.334612
2262.000000	0.331936
2263.000000	0.330883
2264.000000	0.332147
2265.000000	0.330695
2266.000000	0.328668
2267.000000	0.327199
2268.000000	0.324237
2269.000000	0.321474
2270.000000	0.320562
2271.000000	0.317532
2272.000000	0.311950
2273.000000	0.308325
2274.000000	0.304280
2275.000000	0.301710
2276.000000	0.300996
2277.000000	0.298861
2278.000000	0.297880
2279.000000	0.297052
2280.000000	0.293961
2281.000000	0.293223
2282.000000	0.293147
2283.000000	0.291871
2284.000000	0.291111
2285.000000	0.289334
2286.000000	0.285436
2287.000000	0.281752
2288.000000	0.280601
2289.000000	0.280488
2290.000000	0.282061
2291.000000	0.285308
2292.000000	0.287883
2293.000000	0.289670
2294.000000	0.291409
2295.000000	0.293220
2296.000000	0.293641
2297.000000	0.292994
2298.000000	0.293639
2299.000000	0.292975
2300.000000	0.293873
2301.000000	0.297739
2302.000000	0.297912
2303.000000	0.295944
2304.000000	0.295293
2305.000000	0.293039
2306.000000	0.292673
2307.000000	0.293719
2308.000000	0.295884
2309.000000	0.296048
2310.000000	0.296753
2311.000000	0.297251
2312.000000	0.296455
2313.000000	0.298278
2314.000000	0.299548
2315.000000	0.298757
2316.000000	0.300541
2317.000000	0.300784
2318.000000	0.298646
2319.000000	0.299757
2320.000000	0.299081
2321.000000	0.299319
2322.000000	0.299908
2323.000000	0.296619
2324.000000	0.294535
2325.000000	0.290426
2326.000000	0.286996
2327.000000	0.285546
2328.000000	0.283799
2329.000000	0.283908
2330.000000	0.281601
2331.000000	0.281104
2332.000000	0.284339
2333.000000	0.283530
2334.000000	0.281847
2335.000000	0.281504
2336.000000	0.278396
2337.000000	0.277152
2338.000000	0.280304
2339.000000	0.279531
2340.000000	0.276496
2341.000000	0.274058
2342.000000	0.267964
2343.000000	0.266251
2344.000000	0.269095
2345.000000	0.268188
2346.000000	0.267408
2347.000000	0.266922
2348.000000	0.264924
2349.000000	0.261974
2350.000000	0.260770
2351.000000	0.260669
2352.000000	0.260933
2353.000000	0.260074
2354.000000	0.259040
2355.000000	0.258026
2356.000000	0.254419
2357.000000	0.249760
2358.000000	0.247745
2359.000000	0.245527
2360.000000	0.243037
2361.000000	0.244602
2362.000000	0.243827
2363.000000	0.243386
2364.000000	0.244766
2365.000000	0.244160
2366.000000	0.244603
2367.000000	0.242477
2368.000000	0.238779
2369.000000	0.234209
2370.000000	0.229671
2371.000000	0.229223
2372.000000	0.229809
2373.000000	0.228600
2374.000000	0.225507
2375.000000	0.224118
2376.000000	0.226157
2377.000000	0.229029
2378.000000	0.233251
2379.000000	0.236814
2380.000000	0.231979
2381.000000	0.224347
2382.000000	0.220617
2383.000000	0.218159
2384.000000	0.220433
2385.000000	0.224343
2386.000000	0.221499
2387.000000	0.217948
2388.000000	0.215281
2389.000000	0.208390
2390.000000	0.207045
2391.000000	0.204759
2392.000000	0.199831
2393.000000	0.201939
2394.000000	0.199606
2395.000000	0.204376
2396.000000	0.207716
2397.000000	0.198628
2398.000000	0.201393
2399.000000	0.197064
2400.000000	0.192600
2401.000000	0.201255
2402.000000	0.199217
2403.000000	0.202353
2404.000000	0.205741
2405.000000	0.200936
2406.000000	0.204560
2407.000000	0.204293
2408.000000	0.199567
2409.000000	0.202979
2410.000000	0.198582
2411.000000	0.190877
2412.000000	0.193043
2413.000000	0.193699
2414.000000	0.199115
2415.000000	0.203910
2416.000000	0.207628
2417.000000	0.201504
2418.000000	0.189227
2419.000000	0.183430
2420.000000	0.176986
2421.000000	0.183680
2422.000000	0.187408
2423.000000	0.182527
2424.000000	0.179645
2425.000000	0.168953
2426.000000	0.163006
2427.000000	0.170481
2428.000000	0.175560
2429.000000	0.182935
2430.000000	0.190770
2431.000000	0.192114
2432.000000	0.200157
2433.000000	0.212304
2434.000000	0.221816
2435.000000	0.226703
2436.000000	0.231590
2437.000000	0.222754
2438.000000	0.214174
2439.000000	0.217420
2440.000000	0.212558
2441.000000	0.212848
2442.000000	0.211117
2443.000000	0.208380
2444.000000	0.207775
2445.000000	0.208462
2446.000000	0.218957
2447.000000	0.212867
2448.000000	0.206775
2449.000000	0.193595
2450.000000	0.170192
2451.000000	0.174206
2452.000000	0.177654
2453.000000	0.197621
2454.000000	0.228151
2455.000000	0.231866
2456.000000	0.231327
2457.000000	0.221652
2458.000000	0.198419
2459.000000	0.169541
2460.000000	0.156020
2461.000000	0.156337
2462.000000	0.156568
2463.000000	0.175045
2464.000000	0.191464
2465.000000	0.186469
2466.000000	0.170649
2467.000000	0.138650
2468.000000	0.118361
2469.000000	0.111618
2470.000000	0.098169
2471.000000	0.113770
2472.000000	0.117753
2473.000000	0.120893
2474.000000	0.154367
2475.000000	0.157488
2476.000000	0.163068
2477.000000	0.171040
2478.000000	0.164096
2479.000000	0.170021
2480.000000	0.167297
2481.000000	0.160652
2482.000000	0.158036
2483.000000	0.152603
2484.000000	0.162109
2485.000000	0.168827
2486.000000	0.161673
2487.000000	0.170841
2488.000000	0.166261
2489.000000	0.119772
2490.000000	0.086231
2491.000000	0.088567
2492.000000	0.081746
2493.000000	0.107782
2494.000000	0.134865
2495.000000	0.144866
2496.000000	0.148968
2497.000000	0.182683
2498.000000	0.180493
2499.000000	0.151025
2500.000000	0.120656
