# Wavelength	NAu-2-20_HEX-30_FV7-50_00000.asd.rts.txt
350.000000	0.158498
351.000000	0.161392
352.000000	0.168901
353.000000	0.175890
354.000000	0.180834
355.000000	0.181395
356.000000	0.175074
357.000000	0.165133
358.000000	0.156707
359.000000	0.158768
360.000000	0.162205
361.000000	0.156969
362.000000	0.162192
363.000000	0.168641
364.000000	0.168964
365.000000	0.167627
366.000000	0.166632
367.000000	0.165184
368.000000	0.160091
369.000000	0.165411
370.000000	0.171420
371.000000	0.164722
372.000000	0.160876
373.000000	0.163588
374.000000	0.170935
375.000000	0.168902
376.000000	0.164939
377.000000	0.162788
378.000000	0.163451
379.000000	0.162818
380.000000	0.164014
381.000000	0.171107
382.000000	0.169376
383.000000	0.165856
384.000000	0.167108
385.000000	0.171840
386.000000	0.172598
387.000000	0.169714
388.000000	0.171617
389.000000	0.171437
390.000000	0.169437
391.000000	0.168206
392.000000	0.171139
393.000000	0.173097
394.000000	0.171003
395.000000	0.172053
396.000000	0.172196
397.000000	0.170725
398.000000	0.171734
399.000000	0.171830
400.000000	0.171715
401.000000	0.173434
402.000000	0.174006
403.000000	0.173898
404.000000	0.174073
405.000000	0.174233
406.000000	0.174716
407.000000	0.175351
408.000000	0.174836
409.000000	0.174768
410.000000	0.175324
411.000000	0.175886
412.000000	0.176688
413.000000	0.177328
414.000000	0.177378
415.000000	0.176774
416.000000	0.176486
417.000000	0.176985
418.000000	0.177712
419.000000	0.178103
420.000000	0.178159
421.000000	0.178363
422.000000	0.178715
423.000000	0.179016
424.000000	0.179117
425.000000	0.179475
426.000000	0.180291
427.000000	0.181353
428.000000	0.181332
429.000000	0.181105
430.000000	0.181173
431.000000	0.181666
432.000000	0.181594
433.000000	0.181327
434.000000	0.181900
435.000000	0.182334
436.000000	0.182510
437.000000	0.182565
438.000000	0.183146
439.000000	0.183531
440.000000	0.183455
441.000000	0.183267
442.000000	0.183565
443.000000	0.184025
444.000000	0.183734
445.000000	0.184017
446.000000	0.184678
447.000000	0.185029
448.000000	0.185338
449.000000	0.185630
450.000000	0.185947
451.000000	0.186428
452.000000	0.186658
453.000000	0.186685
454.000000	0.187296
455.000000	0.187761
456.000000	0.188056
457.000000	0.188300
458.000000	0.188709
459.000000	0.188938
460.000000	0.188869
461.000000	0.189575
462.000000	0.190015
463.000000	0.189820
464.000000	0.190319
465.000000	0.190801
466.000000	0.190998
467.000000	0.190956
468.000000	0.191178
469.000000	0.191441
470.000000	0.191568
471.000000	0.192231
472.000000	0.192565
473.000000	0.192261
474.000000	0.192739
475.000000	0.193064
476.000000	0.193100
477.000000	0.193249
478.000000	0.193613
479.000000	0.194168
480.000000	0.194550
481.000000	0.194764
482.000000	0.194878
483.000000	0.194889
484.000000	0.195411
485.000000	0.195773
486.000000	0.195836
487.000000	0.195989
488.000000	0.196210
489.000000	0.196470
490.000000	0.196688
491.000000	0.196974
492.000000	0.197303
493.000000	0.197509
494.000000	0.197537
495.000000	0.197689
496.000000	0.198056
497.000000	0.198176
498.000000	0.198294
499.000000	0.198540
500.000000	0.198780
501.000000	0.198979
502.000000	0.199208
503.000000	0.199516
504.000000	0.199712
505.000000	0.199909
506.000000	0.200209
507.000000	0.200349
508.000000	0.200509
509.000000	0.200786
510.000000	0.201233
511.000000	0.201564
512.000000	0.201780
513.000000	0.202062
514.000000	0.202375
515.000000	0.202674
516.000000	0.202890
517.000000	0.203320
518.000000	0.203735
519.000000	0.203939
520.000000	0.204390
521.000000	0.204833
522.000000	0.205187
523.000000	0.205622
524.000000	0.206021
525.000000	0.206400
526.000000	0.206865
527.000000	0.207303
528.000000	0.207795
529.000000	0.208464
530.000000	0.209118
531.000000	0.209814
532.000000	0.210511
533.000000	0.211149
534.000000	0.211809
535.000000	0.212513
536.000000	0.213265
537.000000	0.213991
538.000000	0.214681
539.000000	0.215341
540.000000	0.215946
541.000000	0.216503
542.000000	0.217069
543.000000	0.217715
544.000000	0.218357
545.000000	0.218925
546.000000	0.219566
547.000000	0.220171
548.000000	0.220742
549.000000	0.221279
550.000000	0.221990
551.000000	0.222792
552.000000	0.223488
553.000000	0.224156
554.000000	0.224891
555.000000	0.225736
556.000000	0.226538
557.000000	0.227384
558.000000	0.228358
559.000000	0.229241
560.000000	0.230112
561.000000	0.231036
562.000000	0.231949
563.000000	0.232817
564.000000	0.233679
565.000000	0.234494
566.000000	0.235307
567.000000	0.236095
568.000000	0.236823
569.000000	0.237514
570.000000	0.238131
571.000000	0.238693
572.000000	0.239291
573.000000	0.239747
574.000000	0.240125
575.000000	0.240600
576.000000	0.240992
577.000000	0.241323
578.000000	0.241682
579.000000	0.242005
580.000000	0.242307
581.000000	0.242583
582.000000	0.242804
583.000000	0.242992
584.000000	0.243161
585.000000	0.243330
586.000000	0.243522
587.000000	0.243665
588.000000	0.243703
589.000000	0.243783
590.000000	0.243877
591.000000	0.243945
592.000000	0.243956
593.000000	0.243955
594.000000	0.243949
595.000000	0.243914
596.000000	0.243873
597.000000	0.243834
598.000000	0.243717
599.000000	0.243580
600.000000	0.243435
601.000000	0.243241
602.000000	0.243153
603.000000	0.243047
604.000000	0.242883
605.000000	0.242745
606.000000	0.242630
607.000000	0.242535
608.000000	0.242449
609.000000	0.242355
610.000000	0.242221
611.000000	0.242028
612.000000	0.241876
613.000000	0.241751
614.000000	0.241657
615.000000	0.241565
616.000000	0.241427
617.000000	0.241247
618.000000	0.241173
619.000000	0.241071
620.000000	0.240950
621.000000	0.240908
622.000000	0.240811
623.000000	0.240694
624.000000	0.240607
625.000000	0.240568
626.000000	0.240520
627.000000	0.240455
628.000000	0.240448
629.000000	0.240426
630.000000	0.240350
631.000000	0.240418
632.000000	0.240388
633.000000	0.240345
634.000000	0.240392
635.000000	0.240414
636.000000	0.240407
637.000000	0.240392
638.000000	0.240494
639.000000	0.240511
640.000000	0.240497
641.000000	0.240590
642.000000	0.240688
643.000000	0.240761
644.000000	0.240817
645.000000	0.240943
646.000000	0.241094
647.000000	0.241205
648.000000	0.241309
649.000000	0.241487
650.000000	0.241716
651.000000	0.241886
652.000000	0.242068
653.000000	0.242281
654.000000	0.242452
655.000000	0.242602
656.000000	0.242804
657.000000	0.243058
658.000000	0.243284
659.000000	0.243538
660.000000	0.243834
661.000000	0.244151
662.000000	0.244461
663.000000	0.244801
664.000000	0.245167
665.000000	0.245568
666.000000	0.245965
667.000000	0.246303
668.000000	0.246674
669.000000	0.247071
670.000000	0.247489
671.000000	0.247915
672.000000	0.248337
673.000000	0.248757
674.000000	0.249215
675.000000	0.249661
676.000000	0.250120
677.000000	0.250645
678.000000	0.251182
679.000000	0.251716
680.000000	0.252248
681.000000	0.252779
682.000000	0.253343
683.000000	0.253892
684.000000	0.254480
685.000000	0.255080
686.000000	0.255702
687.000000	0.256321
688.000000	0.256899
689.000000	0.257473
690.000000	0.258106
691.000000	0.258773
692.000000	0.259441
693.000000	0.260142
694.000000	0.260824
695.000000	0.261513
696.000000	0.262207
697.000000	0.262898
698.000000	0.263635
699.000000	0.264401
700.000000	0.265179
701.000000	0.265946
702.000000	0.266722
703.000000	0.267504
704.000000	0.268309
705.000000	0.269161
706.000000	0.269997
707.000000	0.270806
708.000000	0.271642
709.000000	0.272448
710.000000	0.273216
711.000000	0.274112
712.000000	0.274987
713.000000	0.275801
714.000000	0.276610
715.000000	0.277436
716.000000	0.278279
717.000000	0.279100
718.000000	0.279892
719.000000	0.280662
720.000000	0.281432
721.000000	0.282200
722.000000	0.282955
723.000000	0.283755
724.000000	0.284597
725.000000	0.285386
726.000000	0.286188
727.000000	0.286982
728.000000	0.287740
729.000000	0.288517
730.000000	0.289299
731.000000	0.290049
732.000000	0.290777
733.000000	0.291521
734.000000	0.292248
735.000000	0.292892
736.000000	0.293557
737.000000	0.294177
738.000000	0.294778
739.000000	0.295447
740.000000	0.296080
741.000000	0.296768
742.000000	0.297444
743.000000	0.298060
744.000000	0.298670
745.000000	0.299269
746.000000	0.299846
747.000000	0.300311
748.000000	0.300882
749.000000	0.301455
750.000000	0.301925
751.000000	0.302419
752.000000	0.302924
753.000000	0.303407
754.000000	0.303794
755.000000	0.304181
756.000000	0.304612
757.000000	0.305058
758.000000	0.305515
759.000000	0.305923
760.000000	0.306220
761.000000	0.306615
762.000000	0.306969
763.000000	0.307259
764.000000	0.307602
765.000000	0.307878
766.000000	0.308127
767.000000	0.308395
768.000000	0.308653
769.000000	0.308897
770.000000	0.309143
771.000000	0.309426
772.000000	0.309701
773.000000	0.309884
774.000000	0.310022
775.000000	0.310199
776.000000	0.310365
777.000000	0.310479
778.000000	0.310662
779.000000	0.310849
780.000000	0.311036
781.000000	0.311253
782.000000	0.311385
783.000000	0.311549
784.000000	0.311708
785.000000	0.311791
786.000000	0.311918
787.000000	0.312107
788.000000	0.312172
789.000000	0.312229
790.000000	0.312278
791.000000	0.312324
792.000000	0.312431
793.000000	0.312549
794.000000	0.312634
795.000000	0.312713
796.000000	0.312800
797.000000	0.312869
798.000000	0.312866
799.000000	0.312891
800.000000	0.312958
801.000000	0.313048
802.000000	0.313099
803.000000	0.313098
804.000000	0.313083
805.000000	0.313048
806.000000	0.313007
807.000000	0.313021
808.000000	0.313009
809.000000	0.312930
810.000000	0.312947
811.000000	0.313116
812.000000	0.313146
813.000000	0.313103
814.000000	0.313061
815.000000	0.313125
816.000000	0.313052
817.000000	0.312984
818.000000	0.313011
819.000000	0.313038
820.000000	0.313098
821.000000	0.313130
822.000000	0.313073
823.000000	0.313028
824.000000	0.312929
825.000000	0.312802
826.000000	0.312756
827.000000	0.312743
828.000000	0.312740
829.000000	0.312646
830.000000	0.312513
831.000000	0.312455
832.000000	0.312445
833.000000	0.312441
834.000000	0.312376
835.000000	0.312258
836.000000	0.312154
837.000000	0.312076
838.000000	0.312034
839.000000	0.311991
840.000000	0.311921
841.000000	0.311777
842.000000	0.311540
843.000000	0.311546
844.000000	0.311470
845.000000	0.311224
846.000000	0.311062
847.000000	0.311017
848.000000	0.310999
849.000000	0.310930
850.000000	0.310823
851.000000	0.310703
852.000000	0.310640
853.000000	0.310654
854.000000	0.310495
855.000000	0.310353
856.000000	0.310320
857.000000	0.310258
858.000000	0.310223
859.000000	0.310156
860.000000	0.310026
861.000000	0.309942
862.000000	0.309813
863.000000	0.309458
864.000000	0.309271
865.000000	0.309164
866.000000	0.309043
867.000000	0.308796
868.000000	0.308613
869.000000	0.308447
870.000000	0.308281
871.000000	0.308164
872.000000	0.308073
873.000000	0.307916
874.000000	0.307695
875.000000	0.307491
876.000000	0.307293
877.000000	0.307006
878.000000	0.306882
879.000000	0.306816
880.000000	0.306610
881.000000	0.306471
882.000000	0.306317
883.000000	0.306169
884.000000	0.305994
885.000000	0.305645
886.000000	0.305353
887.000000	0.305239
888.000000	0.305084
889.000000	0.304905
890.000000	0.304633
891.000000	0.304411
892.000000	0.304244
893.000000	0.304015
894.000000	0.303803
895.000000	0.303622
896.000000	0.303360
897.000000	0.303091
898.000000	0.302927
899.000000	0.302769
900.000000	0.302521
901.000000	0.302195
902.000000	0.302078
903.000000	0.301938
904.000000	0.301822
905.000000	0.301723
906.000000	0.301684
907.000000	0.301435
908.000000	0.301043
909.000000	0.300767
910.000000	0.300485
911.000000	0.300228
912.000000	0.300033
913.000000	0.299743
914.000000	0.299493
915.000000	0.299346
916.000000	0.299141
917.000000	0.298909
918.000000	0.298674
919.000000	0.298423
920.000000	0.298108
921.000000	0.297963
922.000000	0.297895
923.000000	0.297640
924.000000	0.297420
925.000000	0.297117
926.000000	0.296763
927.000000	0.296612
928.000000	0.296329
929.000000	0.296003
930.000000	0.295804
931.000000	0.295513
932.000000	0.295239
933.000000	0.295046
934.000000	0.294827
935.000000	0.294590
936.000000	0.294396
937.000000	0.294129
938.000000	0.293492
939.000000	0.293205
940.000000	0.293172
941.000000	0.292968
942.000000	0.292790
943.000000	0.292639
944.000000	0.292404
945.000000	0.292238
946.000000	0.292056
947.000000	0.291810
948.000000	0.291430
949.000000	0.291089
950.000000	0.290789
951.000000	0.290471
952.000000	0.290153
953.000000	0.290015
954.000000	0.289950
955.000000	0.289757
956.000000	0.289422
957.000000	0.289125
958.000000	0.288837
959.000000	0.288583
960.000000	0.288524
961.000000	0.288358
962.000000	0.288075
963.000000	0.288085
964.000000	0.288043
965.000000	0.287769
966.000000	0.287182
967.000000	0.286863
968.000000	0.286646
969.000000	0.286310
970.000000	0.285824
971.000000	0.285738
972.000000	0.285779
973.000000	0.285723
974.000000	0.285680
975.000000	0.285482
976.000000	0.285090
977.000000	0.284596
978.000000	0.284356
979.000000	0.284376
980.000000	0.284275
981.000000	0.284023
982.000000	0.283730
983.000000	0.283317
984.000000	0.282965
985.000000	0.282954
986.000000	0.282822
987.000000	0.282643
988.000000	0.282484
989.000000	0.282616
990.000000	0.282229
991.000000	0.281776
992.000000	0.281939
993.000000	0.281863
994.000000	0.281902
995.000000	0.282068
996.000000	0.281800
997.000000	0.281888
998.000000	0.281822
999.000000	0.281568
1000.000000	0.281757
1001.000000	0.282081
1002.000000	0.281748
1003.000000	0.281318
1004.000000	0.281183
1005.000000	0.280978
1006.000000	0.280780
1007.000000	0.280910
1008.000000	0.280905
1009.000000	0.280646
1010.000000	0.280044
1011.000000	0.279905
1012.000000	0.280084
1013.000000	0.279609
1014.000000	0.279649
1015.000000	0.279534
1016.000000	0.279202
1017.000000	0.280141
1018.000000	0.280307
1019.000000	0.280307
1020.000000	0.280503
1021.000000	0.280404
1022.000000	0.279913
1023.000000	0.279899
1024.000000	0.280257
1025.000000	0.279536
1026.000000	0.279153
1027.000000	0.279231
1028.000000	0.279210
1029.000000	0.279456
1030.000000	0.279571
1031.000000	0.279513
1032.000000	0.279550
1033.000000	0.279691
1034.000000	0.279748
1035.000000	0.279810
1036.000000	0.279842
1037.000000	0.279812
1038.000000	0.279806
1039.000000	0.279893
1040.000000	0.280211
1041.000000	0.280410
1042.000000	0.280099
1043.000000	0.280155
1044.000000	0.280639
1045.000000	0.280725
1046.000000	0.281040
1047.000000	0.281169
1048.000000	0.280747
1049.000000	0.280856
1050.000000	0.281502
1051.000000	0.281703
1052.000000	0.281751
1053.000000	0.282084
1054.000000	0.282587
1055.000000	0.282731
1056.000000	0.282939
1057.000000	0.283302
1058.000000	0.282966
1059.000000	0.282391
1060.000000	0.282733
1061.000000	0.283083
1062.000000	0.282828
1063.000000	0.283056
1064.000000	0.283346
1065.000000	0.283337
1066.000000	0.283551
1067.000000	0.284321
1068.000000	0.284747
1069.000000	0.284966
1070.000000	0.285093
1071.000000	0.285185
1072.000000	0.285210
1073.000000	0.284901
1074.000000	0.284967
1075.000000	0.285227
1076.000000	0.285646
1077.000000	0.285797
1078.000000	0.285735
1079.000000	0.285885
1080.000000	0.285860
1081.000000	0.286161
1082.000000	0.287104
1083.000000	0.287352
1084.000000	0.287365
1085.000000	0.287516
1086.000000	0.287263
1087.000000	0.287324
1088.000000	0.287502
1089.000000	0.287713
1090.000000	0.287923
1091.000000	0.288329
1092.000000	0.288455
1093.000000	0.289012
1094.000000	0.289156
1095.000000	0.288890
1096.000000	0.289058
1097.000000	0.289305
1098.000000	0.289600
1099.000000	0.290066
1100.000000	0.290489
1101.000000	0.291001
1102.000000	0.291213
1103.000000	0.291053
1104.000000	0.291350
1105.000000	0.291632
1106.000000	0.292017
1107.000000	0.292940
1108.000000	0.293456
1109.000000	0.293940
1110.000000	0.294072
1111.000000	0.294132
1112.000000	0.293916
1113.000000	0.293965
1114.000000	0.293897
1115.000000	0.294041
1116.000000	0.294495
1117.000000	0.294680
1118.000000	0.294778
1119.000000	0.294866
1120.000000	0.294753
1121.000000	0.294867
1122.000000	0.295326
1123.000000	0.295666
1124.000000	0.295911
1125.000000	0.296032
1126.000000	0.295784
1127.000000	0.295654
1128.000000	0.295530
1129.000000	0.295323
1130.000000	0.295450
1131.000000	0.295822
1132.000000	0.295970
1133.000000	0.296248
1134.000000	0.296498
1135.000000	0.296559
1136.000000	0.296721
1137.000000	0.297100
1138.000000	0.297199
1139.000000	0.297140
1140.000000	0.297286
1141.000000	0.297434
1142.000000	0.297512
1143.000000	0.297561
1144.000000	0.297730
1145.000000	0.297737
1146.000000	0.297646
1147.000000	0.297637
1148.000000	0.297612
1149.000000	0.297636
1150.000000	0.297646
1151.000000	0.297749
1152.000000	0.297902
1153.000000	0.298036
1154.000000	0.298143
1155.000000	0.298253
1156.000000	0.298361
1157.000000	0.298526
1158.000000	0.298721
1159.000000	0.298837
1160.000000	0.298954
1161.000000	0.299015
1162.000000	0.299043
1163.000000	0.299218
1164.000000	0.299088
1165.000000	0.298876
1166.000000	0.298825
1167.000000	0.298610
1168.000000	0.298599
1169.000000	0.298864
1170.000000	0.298964
1171.000000	0.299137
1172.000000	0.299152
1173.000000	0.298995
1174.000000	0.298969
1175.000000	0.298794
1176.000000	0.298762
1177.000000	0.299050
1178.000000	0.299133
1179.000000	0.299109
1180.000000	0.299120
1181.000000	0.299192
1182.000000	0.299142
1183.000000	0.299293
1184.000000	0.299637
1185.000000	0.299744
1186.000000	0.299818
1187.000000	0.299821
1188.000000	0.299625
1189.000000	0.299614
1190.000000	0.299738
1191.000000	0.299793
1192.000000	0.299964
1193.000000	0.300184
1194.000000	0.300341
1195.000000	0.300404
1196.000000	0.300435
1197.000000	0.300415
1198.000000	0.300148
1199.000000	0.300129
1200.000000	0.300259
1201.000000	0.300388
1202.000000	0.300460
1203.000000	0.300466
1204.000000	0.300340
1205.000000	0.300211
1206.000000	0.300121
1207.000000	0.300190
1208.000000	0.300133
1209.000000	0.300054
1210.000000	0.300067
1211.000000	0.300103
1212.000000	0.300114
1213.000000	0.300216
1214.000000	0.300290
1215.000000	0.300351
1216.000000	0.300353
1217.000000	0.300299
1218.000000	0.300238
1219.000000	0.300080
1220.000000	0.300067
1221.000000	0.300124
1222.000000	0.300212
1223.000000	0.300268
1224.000000	0.300270
1225.000000	0.300241
1226.000000	0.300276
1227.000000	0.300292
1228.000000	0.300309
1229.000000	0.300335
1230.000000	0.300331
1231.000000	0.300285
1232.000000	0.300351
1233.000000	0.300460
1234.000000	0.300515
1235.000000	0.300597
1236.000000	0.300712
1237.000000	0.300812
1238.000000	0.300784
1239.000000	0.300831
1240.000000	0.300959
1241.000000	0.300992
1242.000000	0.300909
1243.000000	0.300991
1244.000000	0.301035
1245.000000	0.301026
1246.000000	0.301112
1247.000000	0.301178
1248.000000	0.301203
1249.000000	0.301386
1250.000000	0.301632
1251.000000	0.301725
1252.000000	0.301749
1253.000000	0.301692
1254.000000	0.301667
1255.000000	0.301557
1256.000000	0.301538
1257.000000	0.301608
1258.000000	0.301646
1259.000000	0.301564
1260.000000	0.301580
1261.000000	0.301631
1262.000000	0.301650
1263.000000	0.301626
1264.000000	0.301779
1265.000000	0.301990
1266.000000	0.301937
1267.000000	0.301819
1268.000000	0.301754
1269.000000	0.301691
1270.000000	0.301765
1271.000000	0.301884
1272.000000	0.301987
1273.000000	0.302028
1274.000000	0.301930
1275.000000	0.301868
1276.000000	0.301854
1277.000000	0.301873
1278.000000	0.301746
1279.000000	0.301738
1280.000000	0.301759
1281.000000	0.301716
1282.000000	0.301736
1283.000000	0.301806
1284.000000	0.301838
1285.000000	0.301869
1286.000000	0.301893
1287.000000	0.301910
1288.000000	0.302024
1289.000000	0.301905
1290.000000	0.301813
1291.000000	0.301942
1292.000000	0.301986
1293.000000	0.302048
1294.000000	0.302071
1295.000000	0.302051
1296.000000	0.302091
1297.000000	0.302085
1298.000000	0.302230
1299.000000	0.302414
1300.000000	0.302424
1301.000000	0.302382
1302.000000	0.302282
1303.000000	0.302134
1304.000000	0.302014
1305.000000	0.301999
1306.000000	0.301969
1307.000000	0.302024
1308.000000	0.302032
1309.000000	0.301991
1310.000000	0.301946
1311.000000	0.301835
1312.000000	0.301856
1313.000000	0.302052
1314.000000	0.302191
1315.000000	0.302288
1316.000000	0.302385
1317.000000	0.302284
1318.000000	0.302149
1319.000000	0.302112
1320.000000	0.302090
1321.000000	0.302013
1322.000000	0.301949
1323.000000	0.302018
1324.000000	0.302109
1325.000000	0.302041
1326.000000	0.301983
1327.000000	0.301851
1328.000000	0.301623
1329.000000	0.301513
1330.000000	0.301510
1331.000000	0.301553
1332.000000	0.301865
1333.000000	0.301877
1334.000000	0.301816
1335.000000	0.301730
1336.000000	0.301375
1337.000000	0.301215
1338.000000	0.301067
1339.000000	0.301057
1340.000000	0.301125
1341.000000	0.301028
1342.000000	0.300898
1343.000000	0.300839
1344.000000	0.300650
1345.000000	0.300619
1346.000000	0.300654
1347.000000	0.300512
1348.000000	0.300556
1349.000000	0.300404
1350.000000	0.300314
1351.000000	0.300367
1352.000000	0.300239
1353.000000	0.300192
1354.000000	0.300232
1355.000000	0.300013
1356.000000	0.299858
1357.000000	0.299784
1358.000000	0.299582
1359.000000	0.299585
1360.000000	0.299537
1361.000000	0.299530
1362.000000	0.299437
1363.000000	0.299288
1364.000000	0.299185
1365.000000	0.299045
1366.000000	0.298984
1367.000000	0.298989
1368.000000	0.298929
1369.000000	0.298942
1370.000000	0.298937
1371.000000	0.298788
1372.000000	0.298652
1373.000000	0.298561
1374.000000	0.298321
1375.000000	0.298203
1376.000000	0.298264
1377.000000	0.298179
1378.000000	0.298077
1379.000000	0.297895
1380.000000	0.297661
1381.000000	0.297417
1382.000000	0.297231
1383.000000	0.297092
1384.000000	0.296678
1385.000000	0.296346
1386.000000	0.296238
1387.000000	0.296022
1388.000000	0.295761
1389.000000	0.295416
1390.000000	0.294963
1391.000000	0.294453
1392.000000	0.293990
1393.000000	0.293509
1394.000000	0.293034
1395.000000	0.292563
1396.000000	0.292138
1397.000000	0.291607
1398.000000	0.291008
1399.000000	0.290418
1400.000000	0.289750
1401.000000	0.289101
1402.000000	0.288543
1403.000000	0.287780
1404.000000	0.287181
1405.000000	0.286580
1406.000000	0.285878
1407.000000	0.285403
1408.000000	0.284821
1409.000000	0.284222
1410.000000	0.283840
1411.000000	0.283490
1412.000000	0.283129
1413.000000	0.282727
1414.000000	0.282308
1415.000000	0.281943
1416.000000	0.281538
1417.000000	0.281138
1418.000000	0.280687
1419.000000	0.280197
1420.000000	0.279770
1421.000000	0.279537
1422.000000	0.279294
1423.000000	0.279120
1424.000000	0.278755
1425.000000	0.278298
1426.000000	0.277970
1427.000000	0.277530
1428.000000	0.277114
1429.000000	0.276973
1430.000000	0.276891
1431.000000	0.276786
1432.000000	0.276589
1433.000000	0.276413
1434.000000	0.276198
1435.000000	0.275911
1436.000000	0.275711
1437.000000	0.275621
1438.000000	0.275470
1439.000000	0.275304
1440.000000	0.275179
1441.000000	0.275047
1442.000000	0.274991
1443.000000	0.274915
1444.000000	0.274908
1445.000000	0.274936
1446.000000	0.275106
1447.000000	0.275176
1448.000000	0.275153
1449.000000	0.275236
1450.000000	0.275184
1451.000000	0.275158
1452.000000	0.275191
1453.000000	0.275104
1454.000000	0.275055
1455.000000	0.275060
1456.000000	0.275124
1457.000000	0.275201
1458.000000	0.275185
1459.000000	0.275195
1460.000000	0.275227
1461.000000	0.275235
1462.000000	0.275337
1463.000000	0.275354
1464.000000	0.275348
1465.000000	0.275514
1466.000000	0.275631
1467.000000	0.275804
1468.000000	0.276073
1469.000000	0.276248
1470.000000	0.276271
1471.000000	0.276321
1472.000000	0.276410
1473.000000	0.276568
1474.000000	0.276755
1475.000000	0.276951
1476.000000	0.277061
1477.000000	0.277169
1478.000000	0.277318
1479.000000	0.277417
1480.000000	0.277489
1481.000000	0.277585
1482.000000	0.277695
1483.000000	0.277818
1484.000000	0.277928
1485.000000	0.278168
1486.000000	0.278468
1487.000000	0.278702
1488.000000	0.279088
1489.000000	0.279366
1490.000000	0.279374
1491.000000	0.279525
1492.000000	0.279668
1493.000000	0.279848
1494.000000	0.280027
1495.000000	0.280223
1496.000000	0.280478
1497.000000	0.280652
1498.000000	0.280808
1499.000000	0.280950
1500.000000	0.281058
1501.000000	0.281256
1502.000000	0.281441
1503.000000	0.281677
1504.000000	0.281967
1505.000000	0.282132
1506.000000	0.282285
1507.000000	0.282328
1508.000000	0.282309
1509.000000	0.282308
1510.000000	0.282334
1511.000000	0.282531
1512.000000	0.282663
1513.000000	0.282725
1514.000000	0.282888
1515.000000	0.282840
1516.000000	0.282780
1517.000000	0.282838
1518.000000	0.282690
1519.000000	0.282523
1520.000000	0.282512
1521.000000	0.282437
1522.000000	0.282544
1523.000000	0.282810
1524.000000	0.282978
1525.000000	0.283165
1526.000000	0.283272
1527.000000	0.283244
1528.000000	0.283311
1529.000000	0.283405
1530.000000	0.283469
1531.000000	0.283693
1532.000000	0.283835
1533.000000	0.283912
1534.000000	0.283971
1535.000000	0.283940
1536.000000	0.284009
1537.000000	0.284140
1538.000000	0.284116
1539.000000	0.284071
1540.000000	0.284071
1541.000000	0.284115
1542.000000	0.284288
1543.000000	0.284496
1544.000000	0.284565
1545.000000	0.284521
1546.000000	0.284485
1547.000000	0.284469
1548.000000	0.284525
1549.000000	0.284606
1550.000000	0.284523
1551.000000	0.284401
1552.000000	0.284274
1553.000000	0.284110
1554.000000	0.284102
1555.000000	0.284241
1556.000000	0.284366
1557.000000	0.284385
1558.000000	0.284404
1559.000000	0.284261
1560.000000	0.284253
1561.000000	0.284386
1562.000000	0.284394
1563.000000	0.284417
1564.000000	0.284488
1565.000000	0.284465
1566.000000	0.284466
1567.000000	0.284690
1568.000000	0.284762
1569.000000	0.284808
1570.000000	0.284852
1571.000000	0.284838
1572.000000	0.284800
1573.000000	0.284740
1574.000000	0.284728
1575.000000	0.284745
1576.000000	0.284758
1577.000000	0.284801
1578.000000	0.284777
1579.000000	0.284718
1580.000000	0.284726
1581.000000	0.284835
1582.000000	0.284849
1583.000000	0.284864
1584.000000	0.284858
1585.000000	0.284844
1586.000000	0.284850
1587.000000	0.284937
1588.000000	0.284906
1589.000000	0.284727
1590.000000	0.284740
1591.000000	0.284805
1592.000000	0.284821
1593.000000	0.285036
1594.000000	0.285097
1595.000000	0.285066
1596.000000	0.285091
1597.000000	0.285099
1598.000000	0.285109
1599.000000	0.285149
1600.000000	0.285138
1601.000000	0.285207
1602.000000	0.285240
1603.000000	0.285271
1604.000000	0.285279
1605.000000	0.285232
1606.000000	0.285267
1607.000000	0.285440
1608.000000	0.285468
1609.000000	0.285526
1610.000000	0.285553
1611.000000	0.285513
1612.000000	0.285437
1613.000000	0.285427
1614.000000	0.285405
1615.000000	0.285369
1616.000000	0.285360
1617.000000	0.285408
1618.000000	0.285375
1619.000000	0.285138
1620.000000	0.285152
1621.000000	0.285334
1622.000000	0.285485
1623.000000	0.285735
1624.000000	0.285951
1625.000000	0.286055
1626.000000	0.286027
1627.000000	0.285987
1628.000000	0.285948
1629.000000	0.285700
1630.000000	0.285657
1631.000000	0.285691
1632.000000	0.285680
1633.000000	0.285735
1634.000000	0.285759
1635.000000	0.285835
1636.000000	0.285807
1637.000000	0.285683
1638.000000	0.285642
1639.000000	0.285634
1640.000000	0.285664
1641.000000	0.285846
1642.000000	0.285938
1643.000000	0.285985
1644.000000	0.286084
1645.000000	0.286285
1646.000000	0.286292
1647.000000	0.286301
1648.000000	0.286203
1649.000000	0.285847
1650.000000	0.285910
1651.000000	0.286223
1652.000000	0.286435
1653.000000	0.286813
1654.000000	0.287058
1655.000000	0.287128
1656.000000	0.287141
1657.000000	0.287220
1658.000000	0.287234
1659.000000	0.287161
1660.000000	0.287249
1661.000000	0.287423
1662.000000	0.287403
1663.000000	0.287285
1664.000000	0.287226
1665.000000	0.287022
1666.000000	0.287083
1667.000000	0.287261
1668.000000	0.287366
1669.000000	0.287517
1670.000000	0.287555
1671.000000	0.287641
1672.000000	0.287734
1673.000000	0.287753
1674.000000	0.287747
1675.000000	0.287817
1676.000000	0.287857
1677.000000	0.287937
1678.000000	0.287875
1679.000000	0.287828
1680.000000	0.287854
1681.000000	0.287874
1682.000000	0.288081
1683.000000	0.288279
1684.000000	0.288232
1685.000000	0.288161
1686.000000	0.288147
1687.000000	0.288186
1688.000000	0.288345
1689.000000	0.288521
1690.000000	0.288566
1691.000000	0.288735
1692.000000	0.288806
1693.000000	0.288810
1694.000000	0.288856
1695.000000	0.288849
1696.000000	0.288699
1697.000000	0.288602
1698.000000	0.288460
1699.000000	0.288447
1700.000000	0.288635
1701.000000	0.288783
1702.000000	0.288874
1703.000000	0.288829
1704.000000	0.288658
1705.000000	0.288604
1706.000000	0.288604
1707.000000	0.288538
1708.000000	0.288439
1709.000000	0.288381
1710.000000	0.288388
1711.000000	0.288400
1712.000000	0.288522
1713.000000	0.288592
1714.000000	0.288625
1715.000000	0.288697
1716.000000	0.288834
1717.000000	0.288939
1718.000000	0.289039
1719.000000	0.289051
1720.000000	0.289062
1721.000000	0.289047
1722.000000	0.288916
1723.000000	0.288903
1724.000000	0.288977
1725.000000	0.289049
1726.000000	0.289132
1727.000000	0.289119
1728.000000	0.288977
1729.000000	0.288883
1730.000000	0.288847
1731.000000	0.288847
1732.000000	0.288956
1733.000000	0.289003
1734.000000	0.288844
1735.000000	0.288926
1736.000000	0.289092
1737.000000	0.289146
1738.000000	0.289318
1739.000000	0.289370
1740.000000	0.289236
1741.000000	0.289220
1742.000000	0.289234
1743.000000	0.289399
1744.000000	0.289655
1745.000000	0.289681
1746.000000	0.289737
1747.000000	0.289489
1748.000000	0.289393
1749.000000	0.289499
1750.000000	0.289573
1751.000000	0.289913
1752.000000	0.290146
1753.000000	0.290191
1754.000000	0.290238
1755.000000	0.290186
1756.000000	0.290054
1757.000000	0.289768
1758.000000	0.289681
1759.000000	0.289596
1760.000000	0.289543
1761.000000	0.289624
1762.000000	0.289680
1763.000000	0.289764
1764.000000	0.289773
1765.000000	0.289720
1766.000000	0.289753
1767.000000	0.289674
1768.000000	0.289610
1769.000000	0.289748
1770.000000	0.289813
1771.000000	0.289743
1772.000000	0.289732
1773.000000	0.289746
1774.000000	0.289687
1775.000000	0.289590
1776.000000	0.289608
1777.000000	0.289588
1778.000000	0.289645
1779.000000	0.289858
1780.000000	0.289896
1781.000000	0.289815
1782.000000	0.289848
1783.000000	0.289883
1784.000000	0.290044
1785.000000	0.290146
1786.000000	0.290081
1787.000000	0.290091
1788.000000	0.289932
1789.000000	0.289918
1790.000000	0.290124
1791.000000	0.290138
1792.000000	0.290181
1793.000000	0.290227
1794.000000	0.290151
1795.000000	0.290201
1796.000000	0.290414
1797.000000	0.290501
1798.000000	0.290489
1799.000000	0.290560
1800.000000	0.290691
1801.000000	0.291423
1802.000000	0.291014
1803.000000	0.289302
1804.000000	0.288700
1805.000000	0.287538
1806.000000	0.287373
1807.000000	0.288589
1808.000000	0.288858
1809.000000	0.289354
1810.000000	0.288710
1811.000000	0.289097
1812.000000	0.289409
1813.000000	0.289813
1814.000000	0.291288
1815.000000	0.291747
1816.000000	0.291217
1817.000000	0.291115
1818.000000	0.291183
1819.000000	0.291055
1820.000000	0.290701
1821.000000	0.290565
1822.000000	0.290505
1823.000000	0.290171
1824.000000	0.289986
1825.000000	0.289935
1826.000000	0.290230
1827.000000	0.290713
1828.000000	0.291133
1829.000000	0.291047
1830.000000	0.290799
1831.000000	0.290420
1832.000000	0.288953
1833.000000	0.288577
1834.000000	0.288964
1835.000000	0.288960
1836.000000	0.289111
1837.000000	0.289063
1838.000000	0.288881
1839.000000	0.288285
1840.000000	0.287528
1841.000000	0.287495
1842.000000	0.287489
1843.000000	0.287410
1844.000000	0.287654
1845.000000	0.288595
1846.000000	0.288861
1847.000000	0.288572
1848.000000	0.289138
1849.000000	0.288680
1850.000000	0.288049
1851.000000	0.287921
1852.000000	0.287830
1853.000000	0.287904
1854.000000	0.288181
1855.000000	0.288050
1856.000000	0.287698
1857.000000	0.287585
1858.000000	0.286895
1859.000000	0.286594
1860.000000	0.286217
1861.000000	0.285363
1862.000000	0.284862
1863.000000	0.284695
1864.000000	0.284237
1865.000000	0.284030
1866.000000	0.283408
1867.000000	0.282296
1868.000000	0.281013
1869.000000	0.280241
1870.000000	0.279544
1871.000000	0.279235
1872.000000	0.278878
1873.000000	0.278156
1874.000000	0.276970
1875.000000	0.276005
1876.000000	0.274711
1877.000000	0.273415
1878.000000	0.272188
1879.000000	0.270595
1880.000000	0.269040
1881.000000	0.267607
1882.000000	0.266122
1883.000000	0.265073
1884.000000	0.263744
1885.000000	0.262312
1886.000000	0.260348
1887.000000	0.258034
1888.000000	0.255477
1889.000000	0.252590
1890.000000	0.250637
1891.000000	0.249118
1892.000000	0.247188
1893.000000	0.245659
1894.000000	0.243642
1895.000000	0.241331
1896.000000	0.238739
1897.000000	0.236357
1898.000000	0.233708
1899.000000	0.231365
1900.000000	0.229166
1901.000000	0.227135
1902.000000	0.225271
1903.000000	0.223426
1904.000000	0.221799
1905.000000	0.220602
1906.000000	0.219318
1907.000000	0.218199
1908.000000	0.217133
1909.000000	0.216079
1910.000000	0.215042
1911.000000	0.214530
1912.000000	0.214020
1913.000000	0.213967
1914.000000	0.214005
1915.000000	0.213387
1916.000000	0.213176
1917.000000	0.212636
1918.000000	0.211851
1919.000000	0.210925
1920.000000	0.210688
1921.000000	0.210571
1922.000000	0.210805
1923.000000	0.211265
1924.000000	0.211287
1925.000000	0.210420
1926.000000	0.209585
1927.000000	0.209232
1928.000000	0.208983
1929.000000	0.208866
1930.000000	0.209586
1931.000000	0.210158
1932.000000	0.210019
1933.000000	0.209712
1934.000000	0.209694
1935.000000	0.209824
1936.000000	0.209844
1937.000000	0.210572
1938.000000	0.210425
1939.000000	0.210263
1940.000000	0.209587
1941.000000	0.210021
1942.000000	0.210311
1943.000000	0.210855
1944.000000	0.211594
1945.000000	0.211676
1946.000000	0.211194
1947.000000	0.210734
1948.000000	0.210058
1949.000000	0.209447
1950.000000	0.209654
1951.000000	0.209644
1952.000000	0.209929
1953.000000	0.210098
1954.000000	0.209906
1955.000000	0.209400
1956.000000	0.208415
1957.000000	0.207410
1958.000000	0.207306
1959.000000	0.207283
1960.000000	0.207570
1961.000000	0.208139
1962.000000	0.208439
1963.000000	0.208712
1964.000000	0.208807
1965.000000	0.208533
1966.000000	0.208452
1967.000000	0.208378
1968.000000	0.208019
1969.000000	0.208248
1970.000000	0.208697
1971.000000	0.209153
1972.000000	0.209477
1973.000000	0.209431
1974.000000	0.209109
1975.000000	0.208942
1976.000000	0.208438
1977.000000	0.208215
1978.000000	0.208756
1979.000000	0.208792
1980.000000	0.209146
1981.000000	0.209985
1982.000000	0.210381
1983.000000	0.211470
1984.000000	0.212029
1985.000000	0.212319
1986.000000	0.212716
1987.000000	0.213247
1988.000000	0.213184
1989.000000	0.213326
1990.000000	0.213555
1991.000000	0.213300
1992.000000	0.213446
1993.000000	0.214186
1994.000000	0.215081
1995.000000	0.215623
1996.000000	0.215957
1997.000000	0.216454
1998.000000	0.216589
1999.000000	0.217089
2000.000000	0.218019
2001.000000	0.219049
2002.000000	0.219330
2003.000000	0.219216
2004.000000	0.219097
2005.000000	0.218667
2006.000000	0.218780
2007.000000	0.219414
2008.000000	0.220173
2009.000000	0.221622
2010.000000	0.222401
2011.000000	0.222824
2012.000000	0.223569
2013.000000	0.224267
2014.000000	0.224588
2015.000000	0.225353
2016.000000	0.226078
2017.000000	0.226213
2018.000000	0.226708
2019.000000	0.227157
2020.000000	0.227472
2021.000000	0.227943
2022.000000	0.228376
2023.000000	0.228846
2024.000000	0.229625
2025.000000	0.230043
2026.000000	0.230341
2027.000000	0.230245
2028.000000	0.229980
2029.000000	0.230266
2030.000000	0.230256
2031.000000	0.230549
2032.000000	0.230854
2033.000000	0.230976
2034.000000	0.231326
2035.000000	0.231766
2036.000000	0.232365
2037.000000	0.233225
2038.000000	0.234164
2039.000000	0.235413
2040.000000	0.236861
2041.000000	0.237440
2042.000000	0.237712
2043.000000	0.237493
2044.000000	0.237207
2045.000000	0.237651
2046.000000	0.238504
2047.000000	0.239133
2048.000000	0.239905
2049.000000	0.240633
2050.000000	0.241070
2051.000000	0.241330
2052.000000	0.241555
2053.000000	0.241658
2054.000000	0.241367
2055.000000	0.241552
2056.000000	0.242687
2057.000000	0.243100
2058.000000	0.243631
2059.000000	0.244116
2060.000000	0.244118
2061.000000	0.243305
2062.000000	0.243236
2063.000000	0.243261
2064.000000	0.243192
2065.000000	0.243462
2066.000000	0.243783
2067.000000	0.244070
2068.000000	0.244976
2069.000000	0.246525
2070.000000	0.247282
2071.000000	0.247413
2072.000000	0.247871
2073.000000	0.247991
2074.000000	0.247859
2075.000000	0.247998
2076.000000	0.248597
2077.000000	0.248585
2078.000000	0.248183
2079.000000	0.248099
2080.000000	0.247646
2081.000000	0.247905
2082.000000	0.248767
2083.000000	0.249535
2084.000000	0.250039
2085.000000	0.250635
2086.000000	0.251232
2087.000000	0.251150
2088.000000	0.251554
2089.000000	0.252199
2090.000000	0.252345
2091.000000	0.252057
2092.000000	0.252104
2093.000000	0.251747
2094.000000	0.252138
2095.000000	0.253475
2096.000000	0.253997
2097.000000	0.254548
2098.000000	0.254954
2099.000000	0.254161
2100.000000	0.253345
2101.000000	0.253537
2102.000000	0.253740
2103.000000	0.254292
2104.000000	0.255438
2105.000000	0.255777
2106.000000	0.255427
2107.000000	0.255560
2108.000000	0.255479
2109.000000	0.255748
2110.000000	0.256270
2111.000000	0.256721
2112.000000	0.257627
2113.000000	0.257368
2114.000000	0.256877
2115.000000	0.257347
2116.000000	0.256968
2117.000000	0.257200
2118.000000	0.257698
2119.000000	0.257420
2120.000000	0.257561
2121.000000	0.257585
2122.000000	0.257847
2123.000000	0.258535
2124.000000	0.258849
2125.000000	0.259086
2126.000000	0.259431
2127.000000	0.259529
2128.000000	0.259797
2129.000000	0.260518
2130.000000	0.260743
2131.000000	0.259728
2132.000000	0.259606
2133.000000	0.259456
2134.000000	0.259197
2135.000000	0.259824
2136.000000	0.260316
2137.000000	0.260474
2138.000000	0.260464
2139.000000	0.260102
2140.000000	0.259119
2141.000000	0.258918
2142.000000	0.258318
2143.000000	0.258477
2144.000000	0.259974
2145.000000	0.260761
2146.000000	0.261437
2147.000000	0.263011
2148.000000	0.263757
2149.000000	0.264321
2150.000000	0.264764
2151.000000	0.264326
2152.000000	0.263316
2153.000000	0.262261
2154.000000	0.261313
2155.000000	0.260002
2156.000000	0.259566
2157.000000	0.259463
2158.000000	0.259619
2159.000000	0.260794
2160.000000	0.261282
2161.000000	0.261552
2162.000000	0.261912
2163.000000	0.262020
2164.000000	0.261890
2165.000000	0.261347
2166.000000	0.261762
2167.000000	0.261374
2168.000000	0.261684
2169.000000	0.262044
2170.000000	0.261863
2171.000000	0.261824
2172.000000	0.261848
2173.000000	0.261436
2174.000000	0.260788
2175.000000	0.260278
2176.000000	0.258961
2177.000000	0.258738
2178.000000	0.259121
2179.000000	0.259782
2180.000000	0.261892
2181.000000	0.262897
2182.000000	0.263105
2183.000000	0.263092
2184.000000	0.263243
2185.000000	0.262215
2186.000000	0.261697
2187.000000	0.262565
2188.000000	0.263161
2189.000000	0.263401
2190.000000	0.263927
2191.000000	0.263942
2192.000000	0.264202
2193.000000	0.263953
2194.000000	0.264756
2195.000000	0.266961
2196.000000	0.267545
2197.000000	0.268041
2198.000000	0.267344
2199.000000	0.264607
2200.000000	0.263196
2201.000000	0.261624
2202.000000	0.259886
2203.000000	0.257981
2204.000000	0.256389
2205.000000	0.256437
2206.000000	0.256980
2207.000000	0.255736
2208.000000	0.255512
2209.000000	0.254522
2210.000000	0.253876
2211.000000	0.254887
2212.000000	0.256042
2213.000000	0.258584
2214.000000	0.261554
2215.000000	0.264358
2216.000000	0.271327
2217.000000	0.271849
2218.000000	0.266655
2219.000000	0.265306
2220.000000	0.261622
2221.000000	0.261406
2222.000000	0.266642
2223.000000	0.267872
2224.000000	0.268461
2225.000000	0.267663
2226.000000	0.264926
2227.000000	0.264840
2228.000000	0.267626
2229.000000	0.267576
2230.000000	0.268252
2231.000000	0.267003
2232.000000	0.262633
2233.000000	0.261182
2234.000000	0.260151
2235.000000	0.260240
2236.000000	0.259626
2237.000000	0.259522
2238.000000	0.259172
2239.000000	0.258009
2240.000000	0.257538
2241.000000	0.258099
2242.000000	0.258075
2243.000000	0.257116
2244.000000	0.256861
2245.000000	0.257207
2246.000000	0.257035
2247.000000	0.257714
2248.000000	0.257681
2249.000000	0.257079
2250.000000	0.256242
2251.000000	0.253549
2252.000000	0.250812
2253.000000	0.250134
2254.000000	0.250040
2255.000000	0.251771
2256.000000	0.252772
2257.000000	0.255043
2258.000000	0.256359
2259.000000	0.255660
2260.000000	0.256576
2261.000000	0.256125
2262.000000	0.253089
2263.000000	0.252920
2264.000000	0.254289
2265.000000	0.254992
2266.000000	0.256696
2267.000000	0.256493
2268.000000	0.254807
2269.000000	0.254111
2270.000000	0.253432
2271.000000	0.252786
2272.000000	0.252170
2273.000000	0.252260
2274.000000	0.251608
2275.000000	0.252194
2276.000000	0.254969
2277.000000	0.256862
2278.000000	0.255121
2279.000000	0.252674
2280.000000	0.247013
2281.000000	0.240940
2282.000000	0.240606
2283.000000	0.240528
2284.000000	0.239928
2285.000000	0.242710
2286.000000	0.245882
2287.000000	0.247549
2288.000000	0.249645
2289.000000	0.249213
2290.000000	0.247187
2291.000000	0.244410
2292.000000	0.240168
2293.000000	0.240344
2294.000000	0.239541
2295.000000	0.237607
2296.000000	0.237470
2297.000000	0.239980
2298.000000	0.239314
2299.000000	0.237538
2300.000000	0.237075
2301.000000	0.235221
2302.000000	0.234703
2303.000000	0.236520
2304.000000	0.236449
2305.000000	0.235096
2306.000000	0.234398
2307.000000	0.232809
2308.000000	0.232941
2309.000000	0.234664
2310.000000	0.239483
2311.000000	0.242638
2312.000000	0.244786
2313.000000	0.244121
2314.000000	0.241646
2315.000000	0.242682
2316.000000	0.242768
2317.000000	0.243946
2318.000000	0.246663
2319.000000	0.246547
2320.000000	0.245355
2321.000000	0.243498
2322.000000	0.240713
2323.000000	0.239088
2324.000000	0.239956
2325.000000	0.241649
2326.000000	0.242943
2327.000000	0.244006
2328.000000	0.242004
2329.000000	0.238851
2330.000000	0.236559
2331.000000	0.234808
2332.000000	0.235161
2333.000000	0.235619
2334.000000	0.235452
2335.000000	0.236098
2336.000000	0.236015
2337.000000	0.236648
2338.000000	0.238924
2339.000000	0.239688
2340.000000	0.240806
2341.000000	0.239194
2342.000000	0.234558
2343.000000	0.231738
2344.000000	0.226650
2345.000000	0.225557
2346.000000	0.228245
2347.000000	0.229218
2348.000000	0.231442
2349.000000	0.232744
2350.000000	0.233841
2351.000000	0.235758
2352.000000	0.236252
2353.000000	0.237145
2354.000000	0.234467
2355.000000	0.232082
2356.000000	0.231057
2357.000000	0.225969
2358.000000	0.224267
2359.000000	0.221551
2360.000000	0.219934
2361.000000	0.222568
2362.000000	0.219069
2363.000000	0.217405
2364.000000	0.216767
2365.000000	0.213295
2366.000000	0.214328
2367.000000	0.217361
2368.000000	0.215333
2369.000000	0.213368
2370.000000	0.215989
2371.000000	0.216124
2372.000000	0.217281
2373.000000	0.219805
2374.000000	0.216777
2375.000000	0.211215
2376.000000	0.212026
2377.000000	0.214917
2378.000000	0.214531
2379.000000	0.214194
2380.000000	0.207420
2381.000000	0.198312
2382.000000	0.191985
2383.000000	0.188377
2384.000000	0.189721
2385.000000	0.193160
2386.000000	0.200246
2387.000000	0.205895
2388.000000	0.203637
2389.000000	0.199109
2390.000000	0.197407
2391.000000	0.193633
2392.000000	0.192459
2393.000000	0.194636
2394.000000	0.191617
2395.000000	0.194182
2396.000000	0.197724
2397.000000	0.196274
2398.000000	0.195010
2399.000000	0.191560
2400.000000	0.191251
2401.000000	0.195698
2402.000000	0.200544
2403.000000	0.201640
2404.000000	0.202658
2405.000000	0.202264
2406.000000	0.203365
2407.000000	0.203784
2408.000000	0.199425
2409.000000	0.199630
2410.000000	0.189142
2411.000000	0.181827
2412.000000	0.185210
2413.000000	0.173879
2414.000000	0.171198
2415.000000	0.173109
2416.000000	0.167119
2417.000000	0.174303
2418.000000	0.179214
2419.000000	0.178928
2420.000000	0.183157
2421.000000	0.184070
2422.000000	0.186762
2423.000000	0.191304
2424.000000	0.189936
2425.000000	0.181468
2426.000000	0.176453
2427.000000	0.176801
2428.000000	0.177158
2429.000000	0.189127
2430.000000	0.195783
2431.000000	0.192441
2432.000000	0.196236
2433.000000	0.193571
2434.000000	0.190492
2435.000000	0.193912
2436.000000	0.195672
2437.000000	0.200759
2438.000000	0.196295
2439.000000	0.192740
2440.000000	0.192406
2441.000000	0.176284
2442.000000	0.176185
2443.000000	0.180382
2444.000000	0.180363
2445.000000	0.191809
2446.000000	0.190184
2447.000000	0.182234
2448.000000	0.179809
2449.000000	0.176715
2450.000000	0.175525
2451.000000	0.171602
2452.000000	0.159902
2453.000000	0.150104
2454.000000	0.141783
2455.000000	0.139456
2456.000000	0.142187
2457.000000	0.144903
2458.000000	0.153547
2459.000000	0.163682
2460.000000	0.169671
2461.000000	0.179164
2462.000000	0.181399
2463.000000	0.158180
2464.000000	0.144359
2465.000000	0.133920
2466.000000	0.116693
2467.000000	0.138173
2468.000000	0.145292
2469.000000	0.124612
2470.000000	0.135312
2471.000000	0.131846
2472.000000	0.134754
2473.000000	0.161387
2474.000000	0.154146
2475.000000	0.157988
2476.000000	0.179572
2477.000000	0.165568
2478.000000	0.156562
2479.000000	0.145030
2480.000000	0.111433
2481.000000	0.125429
2482.000000	0.166787
2483.000000	0.163319
2484.000000	0.155008
2485.000000	0.152952
2486.000000	0.127637
2487.000000	0.151459
2488.000000	0.199311
2489.000000	0.199052
2490.000000	0.193746
2491.000000	0.165237
2492.000000	0.141125
2493.000000	0.102186
2494.000000	0.092443
2495.000000	0.110798
2496.000000	0.111535
2497.000000	0.132565
2498.000000	0.143112
2499.000000	0.114237
2500.000000	0.126405
