# Wavelength	NAu-2-30_HEX-20_FV7-50_00000.asd.rts.txt
350.000000	0.170947
351.000000	0.169195
352.000000	0.165132
353.000000	0.165361
354.000000	0.170587
355.000000	0.166045
356.000000	0.156238
357.000000	0.148212
358.000000	0.150374
359.000000	0.145586
360.000000	0.138807
361.000000	0.138940
362.000000	0.143112
363.000000	0.147932
364.000000	0.150703
365.000000	0.151806
366.000000	0.152315
367.000000	0.150840
368.000000	0.143587
369.000000	0.147963
370.000000	0.156783
371.000000	0.156978
372.000000	0.150886
373.000000	0.147707
374.000000	0.151228
375.000000	0.148478
376.000000	0.145643
377.000000	0.145202
378.000000	0.146695
379.000000	0.149174
380.000000	0.150582
381.000000	0.149599
382.000000	0.148779
383.000000	0.149301
384.000000	0.151474
385.000000	0.153850
386.000000	0.154611
387.000000	0.153987
388.000000	0.154160
389.000000	0.152890
390.000000	0.151723
391.000000	0.152954
392.000000	0.153798
393.000000	0.153354
394.000000	0.151929
395.000000	0.152618
396.000000	0.153403
397.000000	0.153359
398.000000	0.152964
399.000000	0.152756
400.000000	0.153004
401.000000	0.153709
402.000000	0.154132
403.000000	0.154860
404.000000	0.156207
405.000000	0.155859
406.000000	0.155430
407.000000	0.155664
408.000000	0.155646
409.000000	0.155636
410.000000	0.155911
411.000000	0.156762
412.000000	0.157479
413.000000	0.158110
414.000000	0.158763
415.000000	0.158653
416.000000	0.158380
417.000000	0.158467
418.000000	0.159313
419.000000	0.159170
420.000000	0.158314
421.000000	0.158766
422.000000	0.159124
423.000000	0.159454
424.000000	0.160193
425.000000	0.160606
426.000000	0.160587
427.000000	0.160339
428.000000	0.160772
429.000000	0.161352
430.000000	0.161872
431.000000	0.162605
432.000000	0.162537
433.000000	0.162314
434.000000	0.163334
435.000000	0.163538
436.000000	0.163429
437.000000	0.163757
438.000000	0.164043
439.000000	0.164459
440.000000	0.164989
441.000000	0.164877
442.000000	0.165128
443.000000	0.165615
444.000000	0.165530
445.000000	0.165536
446.000000	0.165640
447.000000	0.165637
448.000000	0.166123
449.000000	0.166676
450.000000	0.167023
451.000000	0.167555
452.000000	0.168033
453.000000	0.168424
454.000000	0.169111
455.000000	0.169532
456.000000	0.169746
457.000000	0.169941
458.000000	0.170095
459.000000	0.170171
460.000000	0.170248
461.000000	0.170770
462.000000	0.171081
463.000000	0.170952
464.000000	0.171294
465.000000	0.171851
466.000000	0.172287
467.000000	0.172242
468.000000	0.172644
469.000000	0.173165
470.000000	0.173389
471.000000	0.173911
472.000000	0.174087
473.000000	0.173797
474.000000	0.174575
475.000000	0.175048
476.000000	0.174988
477.000000	0.175103
478.000000	0.175504
479.000000	0.176006
480.000000	0.176055
481.000000	0.176092
482.000000	0.176276
483.000000	0.176541
484.000000	0.176999
485.000000	0.177302
486.000000	0.177445
487.000000	0.177631
488.000000	0.177929
489.000000	0.178263
490.000000	0.178418
491.000000	0.178667
492.000000	0.179019
493.000000	0.179296
494.000000	0.179353
495.000000	0.179468
496.000000	0.179769
497.000000	0.180011
498.000000	0.180051
499.000000	0.179997
500.000000	0.180145
501.000000	0.180302
502.000000	0.180478
503.000000	0.180694
504.000000	0.180867
505.000000	0.181135
506.000000	0.181573
507.000000	0.181711
508.000000	0.181828
509.000000	0.182096
510.000000	0.182541
511.000000	0.182931
512.000000	0.183228
513.000000	0.183506
514.000000	0.183900
515.000000	0.184272
516.000000	0.184408
517.000000	0.184805
518.000000	0.185236
519.000000	0.185466
520.000000	0.185844
521.000000	0.186248
522.000000	0.186626
523.000000	0.187006
524.000000	0.187426
525.000000	0.187942
526.000000	0.188640
527.000000	0.189189
528.000000	0.189699
529.000000	0.190393
530.000000	0.191185
531.000000	0.192037
532.000000	0.192865
533.000000	0.193708
534.000000	0.194573
535.000000	0.195443
536.000000	0.196301
537.000000	0.197173
538.000000	0.198012
539.000000	0.198742
540.000000	0.199489
541.000000	0.200173
542.000000	0.200769
543.000000	0.201502
544.000000	0.202259
545.000000	0.202928
546.000000	0.203582
547.000000	0.204253
548.000000	0.204994
549.000000	0.205798
550.000000	0.206656
551.000000	0.207520
552.000000	0.208316
553.000000	0.209207
554.000000	0.210159
555.000000	0.211141
556.000000	0.212173
557.000000	0.213226
558.000000	0.214347
559.000000	0.215399
560.000000	0.216448
561.000000	0.217536
562.000000	0.218575
563.000000	0.219591
564.000000	0.220611
565.000000	0.221577
566.000000	0.222531
567.000000	0.223412
568.000000	0.224191
569.000000	0.224984
570.000000	0.225728
571.000000	0.226402
572.000000	0.227034
573.000000	0.227620
574.000000	0.228180
575.000000	0.228763
576.000000	0.229151
577.000000	0.229486
578.000000	0.229926
579.000000	0.230249
580.000000	0.230509
581.000000	0.230752
582.000000	0.231019
583.000000	0.231202
584.000000	0.231313
585.000000	0.231439
586.000000	0.231510
587.000000	0.231530
588.000000	0.231528
589.000000	0.231594
590.000000	0.231637
591.000000	0.231595
592.000000	0.231503
593.000000	0.231428
594.000000	0.231358
595.000000	0.231192
596.000000	0.231030
597.000000	0.230883
598.000000	0.230652
599.000000	0.230395
600.000000	0.230187
601.000000	0.230003
602.000000	0.229757
603.000000	0.229480
604.000000	0.229211
605.000000	0.228975
606.000000	0.228756
607.000000	0.228537
608.000000	0.228293
609.000000	0.228073
610.000000	0.227866
611.000000	0.227638
612.000000	0.227339
613.000000	0.227071
614.000000	0.226916
615.000000	0.226787
616.000000	0.226563
617.000000	0.226270
618.000000	0.226182
619.000000	0.226013
620.000000	0.225777
621.000000	0.225633
622.000000	0.225407
623.000000	0.225186
624.000000	0.225042
625.000000	0.224835
626.000000	0.224665
627.000000	0.224579
628.000000	0.224541
629.000000	0.224521
630.000000	0.224418
631.000000	0.224308
632.000000	0.224234
633.000000	0.224210
634.000000	0.224217
635.000000	0.224200
636.000000	0.224190
637.000000	0.224205
638.000000	0.224288
639.000000	0.224290
640.000000	0.224269
641.000000	0.224339
642.000000	0.224360
643.000000	0.224370
644.000000	0.224457
645.000000	0.224578
646.000000	0.224679
647.000000	0.224726
648.000000	0.224843
649.000000	0.225035
650.000000	0.225257
651.000000	0.225435
652.000000	0.225612
653.000000	0.225824
654.000000	0.226038
655.000000	0.226208
656.000000	0.226441
657.000000	0.226769
658.000000	0.227028
659.000000	0.227306
660.000000	0.227638
661.000000	0.227998
662.000000	0.228316
663.000000	0.228634
664.000000	0.228979
665.000000	0.229347
666.000000	0.229759
667.000000	0.230197
668.000000	0.230607
669.000000	0.231049
670.000000	0.231550
671.000000	0.232016
672.000000	0.232576
673.000000	0.233204
674.000000	0.233766
675.000000	0.234333
676.000000	0.234885
677.000000	0.235402
678.000000	0.235943
679.000000	0.236508
680.000000	0.237100
681.000000	0.237698
682.000000	0.238405
683.000000	0.239148
684.000000	0.239843
685.000000	0.240571
686.000000	0.241342
687.000000	0.242098
688.000000	0.242859
689.000000	0.243633
690.000000	0.244462
691.000000	0.245350
692.000000	0.246208
693.000000	0.247050
694.000000	0.247859
695.000000	0.248715
696.000000	0.249624
697.000000	0.250557
698.000000	0.251480
699.000000	0.252433
700.000000	0.253435
701.000000	0.254358
702.000000	0.255314
703.000000	0.256329
704.000000	0.257369
705.000000	0.258409
706.000000	0.259424
707.000000	0.260473
708.000000	0.261533
709.000000	0.262550
710.000000	0.263527
711.000000	0.264610
712.000000	0.265661
713.000000	0.266646
714.000000	0.267628
715.000000	0.268631
716.000000	0.269669
717.000000	0.270720
718.000000	0.271784
719.000000	0.272840
720.000000	0.273885
721.000000	0.274907
722.000000	0.275900
723.000000	0.276912
724.000000	0.277905
725.000000	0.278904
726.000000	0.279971
727.000000	0.281028
728.000000	0.282078
729.000000	0.283123
730.000000	0.284116
731.000000	0.285069
732.000000	0.286023
733.000000	0.287004
734.000000	0.287918
735.000000	0.288748
736.000000	0.289615
737.000000	0.290449
738.000000	0.291200
739.000000	0.292019
740.000000	0.292839
741.000000	0.293607
742.000000	0.294387
743.000000	0.295155
744.000000	0.295870
745.000000	0.296593
746.000000	0.297339
747.000000	0.298015
748.000000	0.298716
749.000000	0.299405
750.000000	0.300039
751.000000	0.300711
752.000000	0.301395
753.000000	0.302057
754.000000	0.302632
755.000000	0.303194
756.000000	0.303735
757.000000	0.304194
758.000000	0.304687
759.000000	0.305186
760.000000	0.305607
761.000000	0.306052
762.000000	0.306496
763.000000	0.306894
764.000000	0.307267
765.000000	0.307613
766.000000	0.307934
767.000000	0.308234
768.000000	0.308558
769.000000	0.308889
770.000000	0.309227
771.000000	0.309578
772.000000	0.309957
773.000000	0.310268
774.000000	0.310521
775.000000	0.310760
776.000000	0.310936
777.000000	0.311034
778.000000	0.311255
779.000000	0.311485
780.000000	0.311684
781.000000	0.311856
782.000000	0.311989
783.000000	0.312207
784.000000	0.312448
785.000000	0.312638
786.000000	0.312843
787.000000	0.313051
788.000000	0.313081
789.000000	0.313123
790.000000	0.313197
791.000000	0.313288
792.000000	0.313395
793.000000	0.313479
794.000000	0.313521
795.000000	0.313565
796.000000	0.313620
797.000000	0.313683
798.000000	0.313755
799.000000	0.313839
800.000000	0.313929
801.000000	0.314018
802.000000	0.314145
803.000000	0.314206
804.000000	0.314208
805.000000	0.314264
806.000000	0.314313
807.000000	0.314365
808.000000	0.314311
809.000000	0.314273
810.000000	0.314279
811.000000	0.314306
812.000000	0.314289
813.000000	0.314255
814.000000	0.314217
815.000000	0.314198
816.000000	0.314178
817.000000	0.314204
818.000000	0.314230
819.000000	0.314218
820.000000	0.314229
821.000000	0.314229
822.000000	0.314201
823.000000	0.314193
824.000000	0.314126
825.000000	0.314017
826.000000	0.313924
827.000000	0.313820
828.000000	0.313739
829.000000	0.313698
830.000000	0.313655
831.000000	0.313586
832.000000	0.313328
833.000000	0.313187
834.000000	0.313088
835.000000	0.312956
836.000000	0.312762
837.000000	0.312655
838.000000	0.312618
839.000000	0.312458
840.000000	0.312422
841.000000	0.312456
842.000000	0.312419
843.000000	0.312340
844.000000	0.312295
845.000000	0.312242
846.000000	0.312090
847.000000	0.311895
848.000000	0.311700
849.000000	0.311580
850.000000	0.311537
851.000000	0.311472
852.000000	0.311385
853.000000	0.311301
854.000000	0.311096
855.000000	0.310977
856.000000	0.310994
857.000000	0.310841
858.000000	0.310660
859.000000	0.310471
860.000000	0.310288
861.000000	0.310078
862.000000	0.309877
863.000000	0.309666
864.000000	0.309524
865.000000	0.309366
866.000000	0.309157
867.000000	0.308875
868.000000	0.308684
869.000000	0.308555
870.000000	0.308480
871.000000	0.308364
872.000000	0.308208
873.000000	0.307985
874.000000	0.307798
875.000000	0.307582
876.000000	0.307356
877.000000	0.307107
878.000000	0.306893
879.000000	0.306765
880.000000	0.306601
881.000000	0.306471
882.000000	0.306298
883.000000	0.306141
884.000000	0.306019
885.000000	0.305736
886.000000	0.305440
887.000000	0.305232
888.000000	0.304978
889.000000	0.304683
890.000000	0.304319
891.000000	0.304071
892.000000	0.303833
893.000000	0.303605
894.000000	0.303479
895.000000	0.303296
896.000000	0.303009
897.000000	0.302723
898.000000	0.302553
899.000000	0.302310
900.000000	0.302068
901.000000	0.301851
902.000000	0.301731
903.000000	0.301502
904.000000	0.301279
905.000000	0.301110
906.000000	0.300901
907.000000	0.300635
908.000000	0.300384
909.000000	0.300137
910.000000	0.299933
911.000000	0.299666
912.000000	0.299290
913.000000	0.299018
914.000000	0.298789
915.000000	0.298601
916.000000	0.298340
917.000000	0.298155
918.000000	0.297953
919.000000	0.297629
920.000000	0.297212
921.000000	0.296935
922.000000	0.296768
923.000000	0.296531
924.000000	0.296396
925.000000	0.296115
926.000000	0.295691
927.000000	0.295519
928.000000	0.295220
929.000000	0.294835
930.000000	0.294535
931.000000	0.294362
932.000000	0.294156
933.000000	0.293869
934.000000	0.293485
935.000000	0.293331
936.000000	0.293235
937.000000	0.292919
938.000000	0.292606
939.000000	0.292369
940.000000	0.292146
941.000000	0.291948
942.000000	0.291740
943.000000	0.291621
944.000000	0.291514
945.000000	0.291419
946.000000	0.291183
947.000000	0.290975
948.000000	0.290889
949.000000	0.290463
950.000000	0.290089
951.000000	0.289809
952.000000	0.289434
953.000000	0.289298
954.000000	0.289250
955.000000	0.289017
956.000000	0.288520
957.000000	0.288158
958.000000	0.287858
959.000000	0.287537
960.000000	0.287613
961.000000	0.287479
962.000000	0.287050
963.000000	0.286980
964.000000	0.286858
965.000000	0.286592
966.000000	0.286136
967.000000	0.285863
968.000000	0.285615
969.000000	0.285360
970.000000	0.285226
971.000000	0.285023
972.000000	0.284981
973.000000	0.284993
974.000000	0.284703
975.000000	0.284551
976.000000	0.284352
977.000000	0.283960
978.000000	0.283780
979.000000	0.283542
980.000000	0.283288
981.000000	0.283526
982.000000	0.283487
983.000000	0.283027
984.000000	0.282440
985.000000	0.282243
986.000000	0.282181
987.000000	0.282144
988.000000	0.281947
989.000000	0.281604
990.000000	0.281169
991.000000	0.280786
992.000000	0.280656
993.000000	0.280871
994.000000	0.281039
995.000000	0.281104
996.000000	0.280933
997.000000	0.280740
998.000000	0.280605
999.000000	0.280621
1000.000000	0.280680
1001.000000	0.280702
1002.000000	0.280530
1003.000000	0.280674
1004.000000	0.280742
1005.000000	0.280674
1006.000000	0.280037
1007.000000	0.278979
1008.000000	0.278829
1009.000000	0.278303
1010.000000	0.277912
1011.000000	0.278332
1012.000000	0.278390
1013.000000	0.278521
1014.000000	0.278799
1015.000000	0.278448
1016.000000	0.278454
1017.000000	0.278360
1018.000000	0.277614
1019.000000	0.277754
1020.000000	0.279079
1021.000000	0.279185
1022.000000	0.279378
1023.000000	0.279578
1024.000000	0.279100
1025.000000	0.278725
1026.000000	0.278758
1027.000000	0.278614
1028.000000	0.278978
1029.000000	0.278817
1030.000000	0.278685
1031.000000	0.279350
1032.000000	0.279598
1033.000000	0.279661
1034.000000	0.279813
1035.000000	0.279914
1036.000000	0.279980
1037.000000	0.280178
1038.000000	0.280098
1039.000000	0.280047
1040.000000	0.279765
1041.000000	0.279227
1042.000000	0.279148
1043.000000	0.279269
1044.000000	0.279607
1045.000000	0.280105
1046.000000	0.280305
1047.000000	0.280462
1048.000000	0.280374
1049.000000	0.280481
1050.000000	0.280641
1051.000000	0.280732
1052.000000	0.280622
1053.000000	0.280784
1054.000000	0.281456
1055.000000	0.281679
1056.000000	0.281818
1057.000000	0.282136
1058.000000	0.282015
1059.000000	0.281673
1060.000000	0.282022
1061.000000	0.282190
1062.000000	0.282408
1063.000000	0.282958
1064.000000	0.283224
1065.000000	0.283461
1066.000000	0.283586
1067.000000	0.283389
1068.000000	0.283393
1069.000000	0.283254
1070.000000	0.283372
1071.000000	0.283859
1072.000000	0.284160
1073.000000	0.284432
1074.000000	0.285053
1075.000000	0.285188
1076.000000	0.285120
1077.000000	0.285445
1078.000000	0.285297
1079.000000	0.285264
1080.000000	0.285144
1081.000000	0.285430
1082.000000	0.286032
1083.000000	0.286337
1084.000000	0.286953
1085.000000	0.287281
1086.000000	0.286908
1087.000000	0.287088
1088.000000	0.287722
1089.000000	0.287957
1090.000000	0.288074
1091.000000	0.288283
1092.000000	0.288058
1093.000000	0.288116
1094.000000	0.288419
1095.000000	0.289040
1096.000000	0.289275
1097.000000	0.289499
1098.000000	0.289809
1099.000000	0.289794
1100.000000	0.290195
1101.000000	0.291101
1102.000000	0.291482
1103.000000	0.291645
1104.000000	0.291927
1105.000000	0.292185
1106.000000	0.292217
1107.000000	0.291815
1108.000000	0.291906
1109.000000	0.292001
1110.000000	0.292306
1111.000000	0.292762
1112.000000	0.293915
1113.000000	0.294302
1114.000000	0.294429
1115.000000	0.294503
1116.000000	0.294237
1117.000000	0.294265
1118.000000	0.294257
1119.000000	0.294353
1120.000000	0.294657
1121.000000	0.294852
1122.000000	0.295117
1123.000000	0.295512
1124.000000	0.295958
1125.000000	0.296071
1126.000000	0.295608
1127.000000	0.295617
1128.000000	0.295722
1129.000000	0.295711
1130.000000	0.296017
1131.000000	0.296923
1132.000000	0.297238
1133.000000	0.297485
1134.000000	0.297532
1135.000000	0.297207
1136.000000	0.297122
1137.000000	0.296989
1138.000000	0.296842
1139.000000	0.296743
1140.000000	0.296877
1141.000000	0.297150
1142.000000	0.297241
1143.000000	0.297377
1144.000000	0.297566
1145.000000	0.297516
1146.000000	0.297203
1147.000000	0.297229
1148.000000	0.297254
1149.000000	0.297520
1150.000000	0.298122
1151.000000	0.298346
1152.000000	0.298531
1153.000000	0.298665
1154.000000	0.298467
1155.000000	0.298464
1156.000000	0.298613
1157.000000	0.298699
1158.000000	0.298635
1159.000000	0.298736
1160.000000	0.299029
1161.000000	0.299132
1162.000000	0.299222
1163.000000	0.299454
1164.000000	0.299601
1165.000000	0.299565
1166.000000	0.299598
1167.000000	0.299635
1168.000000	0.299620
1169.000000	0.299527
1170.000000	0.299553
1171.000000	0.299703
1172.000000	0.299798
1173.000000	0.299787
1174.000000	0.299923
1175.000000	0.300162
1176.000000	0.300237
1177.000000	0.300469
1178.000000	0.300554
1179.000000	0.300414
1180.000000	0.300290
1181.000000	0.300272
1182.000000	0.300097
1183.000000	0.299880
1184.000000	0.300058
1185.000000	0.300131
1186.000000	0.300293
1187.000000	0.300329
1188.000000	0.300352
1189.000000	0.300337
1190.000000	0.300295
1191.000000	0.300291
1192.000000	0.300327
1193.000000	0.300516
1194.000000	0.300695
1195.000000	0.300832
1196.000000	0.301096
1197.000000	0.301198
1198.000000	0.301068
1199.000000	0.301128
1200.000000	0.301325
1201.000000	0.301289
1202.000000	0.301353
1203.000000	0.301322
1204.000000	0.301068
1205.000000	0.301096
1206.000000	0.301039
1207.000000	0.301100
1208.000000	0.301109
1209.000000	0.301160
1210.000000	0.301188
1211.000000	0.301243
1212.000000	0.301272
1213.000000	0.301295
1214.000000	0.301375
1215.000000	0.301455
1216.000000	0.301545
1217.000000	0.301718
1218.000000	0.301761
1219.000000	0.301724
1220.000000	0.301753
1221.000000	0.301861
1222.000000	0.301809
1223.000000	0.301856
1224.000000	0.302071
1225.000000	0.302112
1226.000000	0.302238
1227.000000	0.302328
1228.000000	0.302305
1229.000000	0.302305
1230.000000	0.302234
1231.000000	0.302198
1232.000000	0.302267
1233.000000	0.302401
1234.000000	0.302617
1235.000000	0.302691
1236.000000	0.302661
1237.000000	0.302747
1238.000000	0.302701
1239.000000	0.302669
1240.000000	0.302747
1241.000000	0.302760
1242.000000	0.302506
1243.000000	0.302624
1244.000000	0.302717
1245.000000	0.302666
1246.000000	0.302806
1247.000000	0.302898
1248.000000	0.302905
1249.000000	0.303061
1250.000000	0.303279
1251.000000	0.303397
1252.000000	0.303466
1253.000000	0.303597
1254.000000	0.303625
1255.000000	0.303464
1256.000000	0.303477
1257.000000	0.303594
1258.000000	0.303633
1259.000000	0.303591
1260.000000	0.303676
1261.000000	0.303804
1262.000000	0.303799
1263.000000	0.303821
1264.000000	0.303758
1265.000000	0.303672
1266.000000	0.303591
1267.000000	0.303640
1268.000000	0.303757
1269.000000	0.303684
1270.000000	0.303649
1271.000000	0.303726
1272.000000	0.303844
1273.000000	0.304067
1274.000000	0.304218
1275.000000	0.304214
1276.000000	0.304064
1277.000000	0.304076
1278.000000	0.303936
1279.000000	0.303871
1280.000000	0.303880
1281.000000	0.303853
1282.000000	0.303793
1283.000000	0.303867
1284.000000	0.304017
1285.000000	0.304084
1286.000000	0.304091
1287.000000	0.304156
1288.000000	0.304289
1289.000000	0.304205
1290.000000	0.304117
1291.000000	0.304095
1292.000000	0.304002
1293.000000	0.303890
1294.000000	0.303756
1295.000000	0.303768
1296.000000	0.303756
1297.000000	0.303812
1298.000000	0.304005
1299.000000	0.304141
1300.000000	0.304366
1301.000000	0.304385
1302.000000	0.304323
1303.000000	0.304263
1304.000000	0.304196
1305.000000	0.304091
1306.000000	0.304052
1307.000000	0.304127
1308.000000	0.304136
1309.000000	0.304107
1310.000000	0.304087
1311.000000	0.304088
1312.000000	0.304090
1313.000000	0.304003
1314.000000	0.303946
1315.000000	0.303943
1316.000000	0.303925
1317.000000	0.304002
1318.000000	0.304133
1319.000000	0.304053
1320.000000	0.303868
1321.000000	0.303672
1322.000000	0.303613
1323.000000	0.303727
1324.000000	0.303919
1325.000000	0.304133
1326.000000	0.304123
1327.000000	0.304065
1328.000000	0.304107
1329.000000	0.304042
1330.000000	0.303874
1331.000000	0.303893
1332.000000	0.304116
1333.000000	0.304045
1334.000000	0.303896
1335.000000	0.303882
1336.000000	0.303728
1337.000000	0.303691
1338.000000	0.303793
1339.000000	0.303859
1340.000000	0.303847
1341.000000	0.303790
1342.000000	0.303825
1343.000000	0.303935
1344.000000	0.303873
1345.000000	0.303753
1346.000000	0.303663
1347.000000	0.303458
1348.000000	0.303441
1349.000000	0.303454
1350.000000	0.303323
1351.000000	0.303198
1352.000000	0.303116
1353.000000	0.303025
1354.000000	0.303039
1355.000000	0.303116
1356.000000	0.303170
1357.000000	0.302980
1358.000000	0.302843
1359.000000	0.302759
1360.000000	0.302723
1361.000000	0.302756
1362.000000	0.302811
1363.000000	0.303034
1364.000000	0.303066
1365.000000	0.302915
1366.000000	0.302869
1367.000000	0.302854
1368.000000	0.302590
1369.000000	0.302557
1370.000000	0.302577
1371.000000	0.302387
1372.000000	0.302321
1373.000000	0.302385
1374.000000	0.302259
1375.000000	0.302040
1376.000000	0.301933
1377.000000	0.301687
1378.000000	0.301477
1379.000000	0.301442
1380.000000	0.301304
1381.000000	0.300986
1382.000000	0.300694
1383.000000	0.300457
1384.000000	0.300078
1385.000000	0.299640
1386.000000	0.299400
1387.000000	0.299109
1388.000000	0.298547
1389.000000	0.298094
1390.000000	0.297599
1391.000000	0.296927
1392.000000	0.296482
1393.000000	0.295991
1394.000000	0.295559
1395.000000	0.295090
1396.000000	0.294662
1397.000000	0.294085
1398.000000	0.293403
1399.000000	0.292712
1400.000000	0.291880
1401.000000	0.291152
1402.000000	0.290489
1403.000000	0.289833
1404.000000	0.289222
1405.000000	0.288653
1406.000000	0.288174
1407.000000	0.287687
1408.000000	0.287219
1409.000000	0.286796
1410.000000	0.286338
1411.000000	0.285995
1412.000000	0.285649
1413.000000	0.285335
1414.000000	0.285110
1415.000000	0.284761
1416.000000	0.284438
1417.000000	0.284248
1418.000000	0.283934
1419.000000	0.283681
1420.000000	0.283504
1421.000000	0.283359
1422.000000	0.283149
1423.000000	0.283049
1424.000000	0.282875
1425.000000	0.282600
1426.000000	0.282453
1427.000000	0.282391
1428.000000	0.282315
1429.000000	0.282279
1430.000000	0.282215
1431.000000	0.282113
1432.000000	0.281986
1433.000000	0.281871
1434.000000	0.281729
1435.000000	0.281598
1436.000000	0.281483
1437.000000	0.281365
1438.000000	0.281279
1439.000000	0.281307
1440.000000	0.281263
1441.000000	0.281102
1442.000000	0.281097
1443.000000	0.281066
1444.000000	0.281141
1445.000000	0.281308
1446.000000	0.281667
1447.000000	0.281980
1448.000000	0.282183
1449.000000	0.282484
1450.000000	0.282775
1451.000000	0.282976
1452.000000	0.283121
1453.000000	0.283224
1454.000000	0.283407
1455.000000	0.283675
1456.000000	0.283910
1457.000000	0.284189
1458.000000	0.284433
1459.000000	0.284520
1460.000000	0.284650
1461.000000	0.284763
1462.000000	0.284722
1463.000000	0.284657
1464.000000	0.284827
1465.000000	0.285031
1466.000000	0.285153
1467.000000	0.285447
1468.000000	0.285626
1469.000000	0.285802
1470.000000	0.286013
1471.000000	0.286150
1472.000000	0.286336
1473.000000	0.286599
1474.000000	0.286755
1475.000000	0.286900
1476.000000	0.287031
1477.000000	0.287238
1478.000000	0.287527
1479.000000	0.287705
1480.000000	0.287828
1481.000000	0.287925
1482.000000	0.287881
1483.000000	0.287989
1484.000000	0.288224
1485.000000	0.288393
1486.000000	0.288522
1487.000000	0.288689
1488.000000	0.288871
1489.000000	0.289079
1490.000000	0.289204
1491.000000	0.289417
1492.000000	0.289686
1493.000000	0.289927
1494.000000	0.290170
1495.000000	0.290314
1496.000000	0.290324
1497.000000	0.290399
1498.000000	0.290438
1499.000000	0.290594
1500.000000	0.290861
1501.000000	0.291079
1502.000000	0.291175
1503.000000	0.291274
1504.000000	0.291356
1505.000000	0.291386
1506.000000	0.291521
1507.000000	0.291762
1508.000000	0.291838
1509.000000	0.291876
1510.000000	0.291960
1511.000000	0.292004
1512.000000	0.292196
1513.000000	0.292404
1514.000000	0.292517
1515.000000	0.292503
1516.000000	0.292494
1517.000000	0.292535
1518.000000	0.292591
1519.000000	0.292739
1520.000000	0.292784
1521.000000	0.292656
1522.000000	0.292773
1523.000000	0.292862
1524.000000	0.292778
1525.000000	0.292941
1526.000000	0.292970
1527.000000	0.292845
1528.000000	0.292952
1529.000000	0.292951
1530.000000	0.292871
1531.000000	0.293030
1532.000000	0.293109
1533.000000	0.293149
1534.000000	0.293256
1535.000000	0.293289
1536.000000	0.293310
1537.000000	0.293427
1538.000000	0.293525
1539.000000	0.293544
1540.000000	0.293557
1541.000000	0.293657
1542.000000	0.293721
1543.000000	0.293706
1544.000000	0.293760
1545.000000	0.293819
1546.000000	0.293867
1547.000000	0.293963
1548.000000	0.293981
1549.000000	0.293938
1550.000000	0.293923
1551.000000	0.293888
1552.000000	0.293937
1553.000000	0.293980
1554.000000	0.293905
1555.000000	0.294034
1556.000000	0.294163
1557.000000	0.294099
1558.000000	0.294127
1559.000000	0.294123
1560.000000	0.294108
1561.000000	0.294128
1562.000000	0.294172
1563.000000	0.294296
1564.000000	0.294338
1565.000000	0.294370
1566.000000	0.294300
1567.000000	0.294193
1568.000000	0.294191
1569.000000	0.294268
1570.000000	0.294265
1571.000000	0.294298
1572.000000	0.294312
1573.000000	0.294244
1574.000000	0.294230
1575.000000	0.294287
1576.000000	0.294362
1577.000000	0.294450
1578.000000	0.294478
1579.000000	0.294557
1580.000000	0.294569
1581.000000	0.294548
1582.000000	0.294597
1583.000000	0.294703
1584.000000	0.294709
1585.000000	0.294780
1586.000000	0.294760
1587.000000	0.294630
1588.000000	0.294575
1589.000000	0.294522
1590.000000	0.294472
1591.000000	0.294444
1592.000000	0.294454
1593.000000	0.294513
1594.000000	0.294536
1595.000000	0.294648
1596.000000	0.294696
1597.000000	0.294705
1598.000000	0.294749
1599.000000	0.294798
1600.000000	0.294826
1601.000000	0.294997
1602.000000	0.295010
1603.000000	0.294958
1604.000000	0.294956
1605.000000	0.294880
1606.000000	0.294871
1607.000000	0.295061
1608.000000	0.295032
1609.000000	0.294938
1610.000000	0.294883
1611.000000	0.294708
1612.000000	0.294635
1613.000000	0.294792
1614.000000	0.294777
1615.000000	0.294750
1616.000000	0.294775
1617.000000	0.294715
1618.000000	0.294687
1619.000000	0.294674
1620.000000	0.294694
1621.000000	0.294745
1622.000000	0.294845
1623.000000	0.294995
1624.000000	0.295083
1625.000000	0.294974
1626.000000	0.294981
1627.000000	0.295070
1628.000000	0.295152
1629.000000	0.295290
1630.000000	0.295418
1631.000000	0.295479
1632.000000	0.295453
1633.000000	0.295390
1634.000000	0.295414
1635.000000	0.295425
1636.000000	0.295430
1637.000000	0.295552
1638.000000	0.295523
1639.000000	0.295435
1640.000000	0.295404
1641.000000	0.295403
1642.000000	0.295430
1643.000000	0.295515
1644.000000	0.295542
1645.000000	0.295590
1646.000000	0.295546
1647.000000	0.295520
1648.000000	0.295402
1649.000000	0.295230
1650.000000	0.295149
1651.000000	0.295045
1652.000000	0.295051
1653.000000	0.295134
1654.000000	0.295222
1655.000000	0.295333
1656.000000	0.295328
1657.000000	0.295339
1658.000000	0.295359
1659.000000	0.295398
1660.000000	0.295503
1661.000000	0.295618
1662.000000	0.295701
1663.000000	0.295805
1664.000000	0.295812
1665.000000	0.295715
1666.000000	0.295748
1667.000000	0.295698
1668.000000	0.295682
1669.000000	0.295692
1670.000000	0.295694
1671.000000	0.295794
1672.000000	0.295903
1673.000000	0.296037
1674.000000	0.296125
1675.000000	0.296169
1676.000000	0.296101
1677.000000	0.296120
1678.000000	0.296233
1679.000000	0.296300
1680.000000	0.296399
1681.000000	0.296564
1682.000000	0.296694
1683.000000	0.296688
1684.000000	0.296487
1685.000000	0.296348
1686.000000	0.296357
1687.000000	0.296399
1688.000000	0.296436
1689.000000	0.296559
1690.000000	0.296392
1691.000000	0.296128
1692.000000	0.296051
1693.000000	0.295958
1694.000000	0.295866
1695.000000	0.295934
1696.000000	0.296054
1697.000000	0.295983
1698.000000	0.295807
1699.000000	0.295776
1700.000000	0.295643
1701.000000	0.295725
1702.000000	0.295872
1703.000000	0.295988
1704.000000	0.296357
1705.000000	0.296515
1706.000000	0.296595
1707.000000	0.296718
1708.000000	0.296705
1709.000000	0.296638
1710.000000	0.296665
1711.000000	0.296720
1712.000000	0.296756
1713.000000	0.296745
1714.000000	0.296842
1715.000000	0.296859
1716.000000	0.296751
1717.000000	0.296718
1718.000000	0.296708
1719.000000	0.296625
1720.000000	0.296557
1721.000000	0.296492
1722.000000	0.296329
1723.000000	0.296348
1724.000000	0.296508
1725.000000	0.296640
1726.000000	0.296896
1727.000000	0.296852
1728.000000	0.296538
1729.000000	0.296335
1730.000000	0.296090
1731.000000	0.295981
1732.000000	0.296059
1733.000000	0.296055
1734.000000	0.295883
1735.000000	0.295851
1736.000000	0.295817
1737.000000	0.295842
1738.000000	0.295961
1739.000000	0.296076
1740.000000	0.296258
1741.000000	0.296243
1742.000000	0.296134
1743.000000	0.296245
1744.000000	0.296308
1745.000000	0.296361
1746.000000	0.296599
1747.000000	0.296459
1748.000000	0.296385
1749.000000	0.296383
1750.000000	0.296366
1751.000000	0.296544
1752.000000	0.296684
1753.000000	0.296699
1754.000000	0.296674
1755.000000	0.296423
1756.000000	0.296338
1757.000000	0.296307
1758.000000	0.296333
1759.000000	0.296596
1760.000000	0.296621
1761.000000	0.296430
1762.000000	0.296354
1763.000000	0.296242
1764.000000	0.296137
1765.000000	0.296100
1766.000000	0.296025
1767.000000	0.295684
1768.000000	0.295604
1769.000000	0.295824
1770.000000	0.295921
1771.000000	0.296034
1772.000000	0.296170
1773.000000	0.296269
1774.000000	0.296254
1775.000000	0.296329
1776.000000	0.296269
1777.000000	0.295852
1778.000000	0.295830
1779.000000	0.295989
1780.000000	0.296103
1781.000000	0.296385
1782.000000	0.296401
1783.000000	0.296306
1784.000000	0.296190
1785.000000	0.296076
1786.000000	0.296237
1787.000000	0.296392
1788.000000	0.296263
1789.000000	0.296236
1790.000000	0.296006
1791.000000	0.295857
1792.000000	0.295943
1793.000000	0.296049
1794.000000	0.296257
1795.000000	0.296397
1796.000000	0.296572
1797.000000	0.296701
1798.000000	0.296716
1799.000000	0.296737
1800.000000	0.296867
1801.000000	0.296486
1802.000000	0.296779
1803.000000	0.297055
1804.000000	0.297108
1805.000000	0.296356
1806.000000	0.296301
1807.000000	0.296656
1808.000000	0.296787
1809.000000	0.296915
1810.000000	0.297092
1811.000000	0.297388
1812.000000	0.297719
1813.000000	0.298007
1814.000000	0.298806
1815.000000	0.298712
1816.000000	0.297816
1817.000000	0.297377
1818.000000	0.296399
1819.000000	0.296378
1820.000000	0.296990
1821.000000	0.296875
1822.000000	0.296905
1823.000000	0.296872
1824.000000	0.296751
1825.000000	0.296188
1826.000000	0.296309
1827.000000	0.296856
1828.000000	0.297046
1829.000000	0.296819
1830.000000	0.296995
1831.000000	0.296801
1832.000000	0.295718
1833.000000	0.295441
1834.000000	0.295875
1835.000000	0.295656
1836.000000	0.294865
1837.000000	0.294752
1838.000000	0.294701
1839.000000	0.294561
1840.000000	0.294730
1841.000000	0.295309
1842.000000	0.295479
1843.000000	0.295418
1844.000000	0.295330
1845.000000	0.294754
1846.000000	0.294760
1847.000000	0.294855
1848.000000	0.294979
1849.000000	0.295143
1850.000000	0.295214
1851.000000	0.295107
1852.000000	0.294530
1853.000000	0.294267
1854.000000	0.293924
1855.000000	0.293537
1856.000000	0.292952
1857.000000	0.292619
1858.000000	0.292306
1859.000000	0.292341
1860.000000	0.293020
1861.000000	0.292922
1862.000000	0.292503
1863.000000	0.291832
1864.000000	0.291325
1865.000000	0.290531
1866.000000	0.289784
1867.000000	0.289395
1868.000000	0.287980
1869.000000	0.286739
1870.000000	0.285385
1871.000000	0.285011
1872.000000	0.285390
1873.000000	0.284939
1874.000000	0.284712
1875.000000	0.284136
1876.000000	0.282747
1877.000000	0.280990
1878.000000	0.280058
1879.000000	0.278736
1880.000000	0.277140
1881.000000	0.275323
1882.000000	0.273588
1883.000000	0.271981
1884.000000	0.270481
1885.000000	0.269518
1886.000000	0.267739
1887.000000	0.265550
1888.000000	0.263140
1889.000000	0.260748
1890.000000	0.257739
1891.000000	0.255255
1892.000000	0.253268
1893.000000	0.251269
1894.000000	0.249209
1895.000000	0.246710
1896.000000	0.244309
1897.000000	0.241356
1898.000000	0.238108
1899.000000	0.235781
1900.000000	0.233890
1901.000000	0.231996
1902.000000	0.230333
1903.000000	0.228939
1904.000000	0.228083
1905.000000	0.227480
1906.000000	0.227096
1907.000000	0.227235
1908.000000	0.227316
1909.000000	0.227178
1910.000000	0.227377
1911.000000	0.227152
1912.000000	0.226590
1913.000000	0.226075
1914.000000	0.225784
1915.000000	0.226008
1916.000000	0.226608
1917.000000	0.226902
1918.000000	0.227597
1919.000000	0.227838
1920.000000	0.227268
1921.000000	0.226461
1922.000000	0.226280
1923.000000	0.226485
1924.000000	0.227043
1925.000000	0.228247
1926.000000	0.229086
1927.000000	0.229427
1928.000000	0.229692
1929.000000	0.229853
1930.000000	0.229763
1931.000000	0.229848
1932.000000	0.230317
1933.000000	0.230783
1934.000000	0.231570
1935.000000	0.232187
1936.000000	0.232787
1937.000000	0.233665
1938.000000	0.233507
1939.000000	0.233476
1940.000000	0.233307
1941.000000	0.233095
1942.000000	0.232681
1943.000000	0.232614
1944.000000	0.232489
1945.000000	0.232379
1946.000000	0.232238
1947.000000	0.232472
1948.000000	0.232369
1949.000000	0.232361
1950.000000	0.232445
1951.000000	0.232222
1952.000000	0.231748
1953.000000	0.231796
1954.000000	0.231583
1955.000000	0.231295
1956.000000	0.231604
1957.000000	0.231830
1958.000000	0.231988
1959.000000	0.232432
1960.000000	0.232522
1961.000000	0.232351
1962.000000	0.232452
1963.000000	0.232681
1964.000000	0.232986
1965.000000	0.233419
1966.000000	0.233807
1967.000000	0.233699
1968.000000	0.233349
1969.000000	0.233182
1970.000000	0.232902
1971.000000	0.232822
1972.000000	0.233027
1973.000000	0.233024
1974.000000	0.232679
1975.000000	0.233120
1976.000000	0.234194
1977.000000	0.234834
1978.000000	0.235518
1979.000000	0.235696
1980.000000	0.234974
1981.000000	0.234811
1982.000000	0.234944
1983.000000	0.235343
1984.000000	0.235704
1985.000000	0.236307
1986.000000	0.236742
1987.000000	0.237043
1988.000000	0.237777
1989.000000	0.238695
1990.000000	0.239676
1991.000000	0.240272
1992.000000	0.240304
1993.000000	0.240665
1994.000000	0.241279
1995.000000	0.241541
1996.000000	0.242089
1997.000000	0.242263
1998.000000	0.241705
1999.000000	0.241695
2000.000000	0.241869
2001.000000	0.241987
2002.000000	0.242470
2003.000000	0.243096
2004.000000	0.243729
2005.000000	0.243995
2006.000000	0.244126
2007.000000	0.244454
2008.000000	0.244539
2009.000000	0.244229
2010.000000	0.244578
2011.000000	0.244754
2012.000000	0.245168
2013.000000	0.246170
2014.000000	0.246798
2015.000000	0.246808
2016.000000	0.247317
2017.000000	0.247186
2018.000000	0.247723
2019.000000	0.249073
2020.000000	0.249786
2021.000000	0.250278
2022.000000	0.250595
2023.000000	0.250912
2024.000000	0.250834
2025.000000	0.250961
2026.000000	0.251294
2027.000000	0.251223
2028.000000	0.251136
2029.000000	0.251311
2030.000000	0.251260
2031.000000	0.251772
2032.000000	0.251844
2033.000000	0.251913
2034.000000	0.252363
2035.000000	0.253493
2036.000000	0.253742
2037.000000	0.253991
2038.000000	0.254114
2039.000000	0.253840
2040.000000	0.253473
2041.000000	0.253591
2042.000000	0.254042
2043.000000	0.255021
2044.000000	0.256253
2045.000000	0.257498
2046.000000	0.258588
2047.000000	0.258907
2048.000000	0.258156
2049.000000	0.258386
2050.000000	0.258139
2051.000000	0.258123
2052.000000	0.258577
2053.000000	0.258810
2054.000000	0.258927
2055.000000	0.259369
2056.000000	0.260251
2057.000000	0.260729
2058.000000	0.260753
2059.000000	0.260922
2060.000000	0.260946
2061.000000	0.260558
2062.000000	0.260903
2063.000000	0.261545
2064.000000	0.261898
2065.000000	0.263099
2066.000000	0.263306
2067.000000	0.262898
2068.000000	0.263284
2069.000000	0.262920
2070.000000	0.262251
2071.000000	0.262490
2072.000000	0.262524
2073.000000	0.262791
2074.000000	0.263454
2075.000000	0.263756
2076.000000	0.263737
2077.000000	0.263935
2078.000000	0.264409
2079.000000	0.264439
2080.000000	0.264136
2081.000000	0.264263
2082.000000	0.264699
2083.000000	0.264160
2084.000000	0.264419
2085.000000	0.265059
2086.000000	0.264761
2087.000000	0.265087
2088.000000	0.265661
2089.000000	0.265414
2090.000000	0.265574
2091.000000	0.265997
2092.000000	0.266294
2093.000000	0.266591
2094.000000	0.266940
2095.000000	0.267453
2096.000000	0.267767
2097.000000	0.267788
2098.000000	0.267986
2099.000000	0.268461
2100.000000	0.268675
2101.000000	0.269202
2102.000000	0.269386
2103.000000	0.269409
2104.000000	0.269244
2105.000000	0.269149
2106.000000	0.269143
2107.000000	0.269193
2108.000000	0.269008
2109.000000	0.269180
2110.000000	0.269344
2111.000000	0.269449
2112.000000	0.269546
2113.000000	0.269854
2114.000000	0.269932
2115.000000	0.270102
2116.000000	0.270172
2117.000000	0.270374
2118.000000	0.270864
2119.000000	0.271341
2120.000000	0.271382
2121.000000	0.270955
2122.000000	0.271210
2123.000000	0.271440
2124.000000	0.271507
2125.000000	0.272141
2126.000000	0.272580
2127.000000	0.272385
2128.000000	0.272947
2129.000000	0.274556
2130.000000	0.275090
2131.000000	0.275013
2132.000000	0.274260
2133.000000	0.272673
2134.000000	0.271912
2135.000000	0.272688
2136.000000	0.272956
2137.000000	0.273075
2138.000000	0.273962
2139.000000	0.273681
2140.000000	0.271845
2141.000000	0.271718
2142.000000	0.271831
2143.000000	0.271844
2144.000000	0.273100
2145.000000	0.273731
2146.000000	0.273978
2147.000000	0.274684
2148.000000	0.275113
2149.000000	0.275429
2150.000000	0.275144
2151.000000	0.274604
2152.000000	0.274357
2153.000000	0.273560
2154.000000	0.273422
2155.000000	0.273774
2156.000000	0.273955
2157.000000	0.274655
2158.000000	0.274694
2159.000000	0.274516
2160.000000	0.274340
2161.000000	0.273393
2162.000000	0.273261
2163.000000	0.273531
2164.000000	0.273345
2165.000000	0.273077
2166.000000	0.273290
2167.000000	0.273298
2168.000000	0.274056
2169.000000	0.275184
2170.000000	0.275804
2171.000000	0.275802
2172.000000	0.274814
2173.000000	0.274683
2174.000000	0.274629
2175.000000	0.274497
2176.000000	0.274553
2177.000000	0.274545
2178.000000	0.274421
2179.000000	0.274232
2180.000000	0.274396
2181.000000	0.274489
2182.000000	0.274047
2183.000000	0.272961
2184.000000	0.271808
2185.000000	0.270444
2186.000000	0.269516
2187.000000	0.268963
2188.000000	0.269422
2189.000000	0.270295
2190.000000	0.270875
2191.000000	0.271956
2192.000000	0.272793
2193.000000	0.273905
2194.000000	0.274107
2195.000000	0.273861
2196.000000	0.273812
2197.000000	0.272592
2198.000000	0.272312
2199.000000	0.272752
2200.000000	0.273103
2201.000000	0.273953
2202.000000	0.274760
2203.000000	0.276244
2204.000000	0.276384
2205.000000	0.275911
2206.000000	0.274896
2207.000000	0.271791
2208.000000	0.272515
2209.000000	0.273420
2210.000000	0.272544
2211.000000	0.273494
2212.000000	0.273974
2213.000000	0.274508
2214.000000	0.275631
2215.000000	0.275600
2216.000000	0.274353
2217.000000	0.274144
2218.000000	0.274617
2219.000000	0.273973
2220.000000	0.272542
2221.000000	0.272666
2222.000000	0.272136
2223.000000	0.272221
2224.000000	0.274657
2225.000000	0.275754
2226.000000	0.274527
2227.000000	0.273361
2228.000000	0.272721
2229.000000	0.272612
2230.000000	0.272853
2231.000000	0.273219
2232.000000	0.270362
2233.000000	0.267887
2234.000000	0.267674
2235.000000	0.266583
2236.000000	0.266704
2237.000000	0.269247
2238.000000	0.270316
2239.000000	0.270577
2240.000000	0.271234
2241.000000	0.273687
2242.000000	0.272648
2243.000000	0.268367
2244.000000	0.267022
2245.000000	0.263479
2246.000000	0.262573
2247.000000	0.265954
2248.000000	0.267719
2249.000000	0.269103
2250.000000	0.271982
2251.000000	0.273576
2252.000000	0.274718
2253.000000	0.274418
2254.000000	0.272809
2255.000000	0.271847
2256.000000	0.271457
2257.000000	0.271430
2258.000000	0.271285
2259.000000	0.272509
2260.000000	0.272508
2261.000000	0.273266
2262.000000	0.276072
2263.000000	0.276196
2264.000000	0.275431
2265.000000	0.274000
2266.000000	0.269688
2267.000000	0.268437
2268.000000	0.268430
2269.000000	0.267704
2270.000000	0.268311
2271.000000	0.268385
2272.000000	0.267388
2273.000000	0.266659
2274.000000	0.266121
2275.000000	0.265875
2276.000000	0.265344
2277.000000	0.265907
2278.000000	0.265343
2279.000000	0.263824
2280.000000	0.262260
2281.000000	0.261439
2282.000000	0.261545
2283.000000	0.261748
2284.000000	0.260815
2285.000000	0.258876
2286.000000	0.256758
2287.000000	0.256095
2288.000000	0.256896
2289.000000	0.255937
2290.000000	0.256194
2291.000000	0.256805
2292.000000	0.256496
2293.000000	0.258214
2294.000000	0.257815
2295.000000	0.256496
2296.000000	0.253775
2297.000000	0.248450
2298.000000	0.245555
2299.000000	0.242493
2300.000000	0.242013
2301.000000	0.243590
2302.000000	0.244438
2303.000000	0.246757
2304.000000	0.247371
2305.000000	0.246897
2306.000000	0.248168
2307.000000	0.249792
2308.000000	0.251344
2309.000000	0.252168
2310.000000	0.254423
2311.000000	0.256084
2312.000000	0.253803
2313.000000	0.251646
2314.000000	0.249237
2315.000000	0.246728
2316.000000	0.248368
2317.000000	0.251577
2318.000000	0.254240
2319.000000	0.256313
2320.000000	0.255206
2321.000000	0.254356
2322.000000	0.253113
2323.000000	0.250537
2324.000000	0.250074
2325.000000	0.250053
2326.000000	0.251333
2327.000000	0.254367
2328.000000	0.257821
2329.000000	0.260274
2330.000000	0.261833
2331.000000	0.259983
2332.000000	0.256230
2333.000000	0.253541
2334.000000	0.249873
2335.000000	0.249897
2336.000000	0.253700
2337.000000	0.255132
2338.000000	0.258849
2339.000000	0.259430
2340.000000	0.257522
2341.000000	0.257080
2342.000000	0.255431
2343.000000	0.255025
2344.000000	0.255434
2345.000000	0.255204
2346.000000	0.255460
2347.000000	0.254706
2348.000000	0.252656
2349.000000	0.252714
2350.000000	0.253804
2351.000000	0.254131
2352.000000	0.256867
2353.000000	0.257538
2354.000000	0.256341
2355.000000	0.256913
2356.000000	0.255864
2357.000000	0.255109
2358.000000	0.253429
2359.000000	0.250663
2360.000000	0.247966
2361.000000	0.247351
2362.000000	0.247849
2363.000000	0.248757
2364.000000	0.249898
2365.000000	0.249422
2366.000000	0.249867
2367.000000	0.248098
2368.000000	0.247371
2369.000000	0.246468
2370.000000	0.241543
2371.000000	0.239924
2372.000000	0.240145
2373.000000	0.240652
2374.000000	0.242730
2375.000000	0.242880
2376.000000	0.242242
2377.000000	0.243641
2378.000000	0.247106
2379.000000	0.248757
2380.000000	0.246326
2381.000000	0.243290
2382.000000	0.237692
2383.000000	0.234869
2384.000000	0.237815
2385.000000	0.239086
2386.000000	0.241959
2387.000000	0.244927
2388.000000	0.239018
2389.000000	0.230826
2390.000000	0.224679
2391.000000	0.220160
2392.000000	0.224769
2393.000000	0.233338
2394.000000	0.239813
2395.000000	0.246255
2396.000000	0.251097
2397.000000	0.252131
2398.000000	0.251474
2399.000000	0.248004
2400.000000	0.243205
2401.000000	0.240636
2402.000000	0.234696
2403.000000	0.231017
2404.000000	0.223244
2405.000000	0.214062
2406.000000	0.212403
2407.000000	0.211025
2408.000000	0.215380
2409.000000	0.217844
2410.000000	0.217243
2411.000000	0.221282
2412.000000	0.230315
2413.000000	0.238582
2414.000000	0.243166
2415.000000	0.242450
2416.000000	0.234473
2417.000000	0.226719
2418.000000	0.229318
2419.000000	0.238781
2420.000000	0.246206
2421.000000	0.254193
2422.000000	0.257725
2423.000000	0.256492
2424.000000	0.253556
2425.000000	0.249841
2426.000000	0.238264
2427.000000	0.223139
2428.000000	0.214548
2429.000000	0.219370
2430.000000	0.229958
2431.000000	0.238261
2432.000000	0.254631
2433.000000	0.252097
2434.000000	0.249084
2435.000000	0.262676
2436.000000	0.254291
2437.000000	0.243672
2438.000000	0.236509
2439.000000	0.218285
2440.000000	0.208359
2441.000000	0.209949
2442.000000	0.206495
2443.000000	0.202846
2444.000000	0.208579
2445.000000	0.211706
2446.000000	0.213867
2447.000000	0.220137
2448.000000	0.221078
2449.000000	0.221385
2450.000000	0.231467
2451.000000	0.237020
2452.000000	0.244542
2453.000000	0.251247
2454.000000	0.248379
2455.000000	0.251163
2456.000000	0.242189
2457.000000	0.234428
2458.000000	0.235907
2459.000000	0.235033
2460.000000	0.237161
2461.000000	0.230577
2462.000000	0.225939
2463.000000	0.216152
2464.000000	0.217345
2465.000000	0.234975
2466.000000	0.233632
2467.000000	0.250202
2468.000000	0.270823
2469.000000	0.246264
2470.000000	0.245799
2471.000000	0.233999
2472.000000	0.181432
2473.000000	0.181363
2474.000000	0.189274
2475.000000	0.200117
2476.000000	0.241150
2477.000000	0.257846
2478.000000	0.270608
2479.000000	0.274556
2480.000000	0.263773
2481.000000	0.271312
2482.000000	0.283526
2483.000000	0.252965
2484.000000	0.228892
2485.000000	0.206291
2486.000000	0.145515
2487.000000	0.147075
2488.000000	0.180186
2489.000000	0.200482
2490.000000	0.220138
2491.000000	0.242498
2492.000000	0.254812
2493.000000	0.291471
2494.000000	0.303799
2495.000000	0.252491
2496.000000	0.237354
2497.000000	0.241677
2498.000000	0.238537
2499.000000	0.260379
2500.000000	0.273837
