# Wavelength	NAu-1-20_HEX-10_FV7-70_00001.asd.rts.txt
350.000000	0.186176
351.000000	0.197707
352.000000	0.183592
353.000000	0.169921
354.000000	0.171581
355.000000	0.175423
356.000000	0.181412
357.000000	0.188426
358.000000	0.191670
359.000000	0.181699
360.000000	0.167432
361.000000	0.160346
362.000000	0.155339
363.000000	0.161764
364.000000	0.178049
365.000000	0.176286
366.000000	0.174794
367.000000	0.177338
368.000000	0.176484
369.000000	0.176007
370.000000	0.175864
371.000000	0.174989
372.000000	0.171771
373.000000	0.171481
374.000000	0.176776
375.000000	0.181572
376.000000	0.183160
377.000000	0.181384
378.000000	0.178421
379.000000	0.180480
380.000000	0.184506
381.000000	0.185492
382.000000	0.184556
383.000000	0.183540
384.000000	0.183679
385.000000	0.183763
386.000000	0.183376
387.000000	0.183462
388.000000	0.186479
389.000000	0.187584
390.000000	0.187916
391.000000	0.190132
392.000000	0.191449
393.000000	0.192032
394.000000	0.192298
395.000000	0.191735
396.000000	0.192703
397.000000	0.195277
398.000000	0.196863
399.000000	0.197134
400.000000	0.196868
401.000000	0.197297
402.000000	0.197792
403.000000	0.197965
404.000000	0.197894
405.000000	0.198845
406.000000	0.199700
407.000000	0.200066
408.000000	0.200666
409.000000	0.201435
410.000000	0.202093
411.000000	0.202181
412.000000	0.203594
413.000000	0.205144
414.000000	0.205314
415.000000	0.204673
416.000000	0.204531
417.000000	0.205353
418.000000	0.205810
419.000000	0.206396
420.000000	0.207016
421.000000	0.207064
422.000000	0.207451
423.000000	0.207992
424.000000	0.208279
425.000000	0.208546
426.000000	0.208709
427.000000	0.208759
428.000000	0.209154
429.000000	0.209286
430.000000	0.209199
431.000000	0.209893
432.000000	0.209867
433.000000	0.209423
434.000000	0.209724
435.000000	0.209773
436.000000	0.209702
437.000000	0.209770
438.000000	0.209961
439.000000	0.209894
440.000000	0.209631
441.000000	0.209853
442.000000	0.209993
443.000000	0.209974
444.000000	0.210175
445.000000	0.210269
446.000000	0.210297
447.000000	0.210287
448.000000	0.210673
449.000000	0.211258
450.000000	0.211847
451.000000	0.212338
452.000000	0.213211
453.000000	0.214386
454.000000	0.215348
455.000000	0.216036
456.000000	0.216691
457.000000	0.217572
458.000000	0.219022
459.000000	0.220337
460.000000	0.220957
461.000000	0.221361
462.000000	0.222046
463.000000	0.222973
464.000000	0.223655
465.000000	0.224125
466.000000	0.224609
467.000000	0.225616
468.000000	0.225949
469.000000	0.225994
470.000000	0.226557
471.000000	0.226950
472.000000	0.227248
473.000000	0.227581
474.000000	0.227943
475.000000	0.228215
476.000000	0.228477
477.000000	0.228693
478.000000	0.229052
479.000000	0.229540
480.000000	0.229745
481.000000	0.229787
482.000000	0.229923
483.000000	0.230174
484.000000	0.230609
485.000000	0.231128
486.000000	0.231693
487.000000	0.231779
488.000000	0.232094
489.000000	0.232662
490.000000	0.233045
491.000000	0.233253
492.000000	0.233498
493.000000	0.233884
494.000000	0.234203
495.000000	0.234504
496.000000	0.234858
497.000000	0.235550
498.000000	0.236075
499.000000	0.236346
500.000000	0.236571
501.000000	0.236875
502.000000	0.237286
503.000000	0.237693
504.000000	0.238088
505.000000	0.238508
506.000000	0.238965
507.000000	0.239265
508.000000	0.239640
509.000000	0.240147
510.000000	0.240605
511.000000	0.240959
512.000000	0.241310
513.000000	0.241845
514.000000	0.242369
515.000000	0.242850
516.000000	0.243256
517.000000	0.243661
518.000000	0.244151
519.000000	0.244677
520.000000	0.245155
521.000000	0.245505
522.000000	0.245779
523.000000	0.246222
524.000000	0.246780
525.000000	0.247319
526.000000	0.247685
527.000000	0.248169
528.000000	0.248660
529.000000	0.249059
530.000000	0.249572
531.000000	0.250076
532.000000	0.250457
533.000000	0.251013
534.000000	0.251567
535.000000	0.252052
536.000000	0.252539
537.000000	0.253026
538.000000	0.253506
539.000000	0.253959
540.000000	0.254480
541.000000	0.254944
542.000000	0.255299
543.000000	0.255753
544.000000	0.256294
545.000000	0.256817
546.000000	0.257279
547.000000	0.257809
548.000000	0.258422
549.000000	0.258972
550.000000	0.259474
551.000000	0.259942
552.000000	0.260363
553.000000	0.260885
554.000000	0.261423
555.000000	0.261910
556.000000	0.262408
557.000000	0.262824
558.000000	0.263279
559.000000	0.263839
560.000000	0.264306
561.000000	0.264781
562.000000	0.265358
563.000000	0.265777
564.000000	0.266193
565.000000	0.266692
566.000000	0.267171
567.000000	0.267593
568.000000	0.267959
569.000000	0.268437
570.000000	0.268853
571.000000	0.269202
572.000000	0.269653
573.000000	0.270056
574.000000	0.270407
575.000000	0.270802
576.000000	0.271215
577.000000	0.271556
578.000000	0.271841
579.000000	0.272196
580.000000	0.272553
581.000000	0.272865
582.000000	0.273099
583.000000	0.273415
584.000000	0.273772
585.000000	0.274014
586.000000	0.274260
587.000000	0.274546
588.000000	0.274873
589.000000	0.275144
590.000000	0.275394
591.000000	0.275643
592.000000	0.275823
593.000000	0.276056
594.000000	0.276335
595.000000	0.276533
596.000000	0.276735
597.000000	0.276998
598.000000	0.277263
599.000000	0.277365
600.000000	0.277458
601.000000	0.277613
602.000000	0.277758
603.000000	0.277859
604.000000	0.277953
605.000000	0.278183
606.000000	0.278346
607.000000	0.278433
608.000000	0.278561
609.000000	0.278850
610.000000	0.279147
611.000000	0.279275
612.000000	0.279458
613.000000	0.279596
614.000000	0.279660
615.000000	0.279737
616.000000	0.279799
617.000000	0.279825
618.000000	0.279900
619.000000	0.279974
620.000000	0.280028
621.000000	0.280105
622.000000	0.280139
623.000000	0.280160
624.000000	0.280207
625.000000	0.280302
626.000000	0.280436
627.000000	0.280592
628.000000	0.280738
629.000000	0.280929
630.000000	0.281059
631.000000	0.281212
632.000000	0.281345
633.000000	0.281456
634.000000	0.281555
635.000000	0.281765
636.000000	0.281990
637.000000	0.282167
638.000000	0.282412
639.000000	0.282570
640.000000	0.282683
641.000000	0.282797
642.000000	0.282926
643.000000	0.283081
644.000000	0.283264
645.000000	0.283404
646.000000	0.283488
647.000000	0.283530
648.000000	0.283710
649.000000	0.283928
650.000000	0.284111
651.000000	0.284272
652.000000	0.284404
653.000000	0.284552
654.000000	0.284702
655.000000	0.284856
656.000000	0.285023
657.000000	0.285166
658.000000	0.285369
659.000000	0.285573
660.000000	0.285752
661.000000	0.286001
662.000000	0.286151
663.000000	0.286246
664.000000	0.286355
665.000000	0.286498
666.000000	0.286667
667.000000	0.286821
668.000000	0.287018
669.000000	0.287271
670.000000	0.287558
671.000000	0.287753
672.000000	0.287929
673.000000	0.288119
674.000000	0.288358
675.000000	0.288575
676.000000	0.288749
677.000000	0.288896
678.000000	0.289033
679.000000	0.289216
680.000000	0.289461
681.000000	0.289633
682.000000	0.289819
683.000000	0.289987
684.000000	0.290204
685.000000	0.290409
686.000000	0.290619
687.000000	0.290830
688.000000	0.291101
689.000000	0.291378
690.000000	0.291639
691.000000	0.291853
692.000000	0.292018
693.000000	0.292224
694.000000	0.292515
695.000000	0.292738
696.000000	0.292920
697.000000	0.293159
698.000000	0.293373
699.000000	0.293566
700.000000	0.293763
701.000000	0.293996
702.000000	0.294266
703.000000	0.294531
704.000000	0.294735
705.000000	0.294964
706.000000	0.295180
707.000000	0.295380
708.000000	0.295587
709.000000	0.295790
710.000000	0.295985
711.000000	0.296117
712.000000	0.296256
713.000000	0.296478
714.000000	0.296824
715.000000	0.297145
716.000000	0.297428
717.000000	0.297698
718.000000	0.297906
719.000000	0.298119
720.000000	0.298387
721.000000	0.298553
722.000000	0.298653
723.000000	0.298767
724.000000	0.298838
725.000000	0.298945
726.000000	0.299154
727.000000	0.299359
728.000000	0.299557
729.000000	0.299751
730.000000	0.299900
731.000000	0.300081
732.000000	0.300253
733.000000	0.300424
734.000000	0.300546
735.000000	0.300695
736.000000	0.300919
737.000000	0.301013
738.000000	0.301056
739.000000	0.301193
740.000000	0.301347
741.000000	0.301521
742.000000	0.301688
743.000000	0.301839
744.000000	0.302080
745.000000	0.302220
746.000000	0.302310
747.000000	0.302385
748.000000	0.302516
749.000000	0.302649
750.000000	0.302720
751.000000	0.302805
752.000000	0.302876
753.000000	0.302963
754.000000	0.303118
755.000000	0.303284
756.000000	0.303396
757.000000	0.303383
758.000000	0.303500
759.000000	0.303657
760.000000	0.303734
761.000000	0.303871
762.000000	0.303994
763.000000	0.304093
764.000000	0.304265
765.000000	0.304414
766.000000	0.304501
767.000000	0.304508
768.000000	0.304473
769.000000	0.304430
770.000000	0.304400
771.000000	0.304372
772.000000	0.304375
773.000000	0.304370
774.000000	0.304420
775.000000	0.304429
776.000000	0.304433
777.000000	0.304445
778.000000	0.304428
779.000000	0.304454
780.000000	0.304512
781.000000	0.304489
782.000000	0.304539
783.000000	0.304645
784.000000	0.304590
785.000000	0.304584
786.000000	0.304566
787.000000	0.304492
788.000000	0.304377
789.000000	0.304351
790.000000	0.304362
791.000000	0.304319
792.000000	0.304363
793.000000	0.304429
794.000000	0.304462
795.000000	0.304544
796.000000	0.304572
797.000000	0.304533
798.000000	0.304526
799.000000	0.304442
800.000000	0.304324
801.000000	0.304250
802.000000	0.304176
803.000000	0.304097
804.000000	0.304058
805.000000	0.304067
806.000000	0.304027
807.000000	0.303984
808.000000	0.303906
809.000000	0.303856
810.000000	0.303783
811.000000	0.303648
812.000000	0.303566
813.000000	0.303463
814.000000	0.303326
815.000000	0.303216
816.000000	0.303149
817.000000	0.303092
818.000000	0.302944
819.000000	0.302902
820.000000	0.302835
821.000000	0.302681
822.000000	0.302640
823.000000	0.302673
824.000000	0.302635
825.000000	0.302489
826.000000	0.302409
827.000000	0.302338
828.000000	0.302283
829.000000	0.302280
830.000000	0.302203
831.000000	0.302109
832.000000	0.301988
833.000000	0.301853
834.000000	0.301760
835.000000	0.301738
836.000000	0.301593
837.000000	0.301426
838.000000	0.301293
839.000000	0.301166
840.000000	0.301045
841.000000	0.300949
842.000000	0.300859
843.000000	0.300804
844.000000	0.300809
845.000000	0.300780
846.000000	0.300572
847.000000	0.300427
848.000000	0.300310
849.000000	0.300162
850.000000	0.300014
851.000000	0.299825
852.000000	0.299633
853.000000	0.299485
854.000000	0.299238
855.000000	0.299103
856.000000	0.299135
857.000000	0.298999
858.000000	0.298907
859.000000	0.298861
860.000000	0.298692
861.000000	0.298543
862.000000	0.298428
863.000000	0.298250
864.000000	0.298056
865.000000	0.297902
866.000000	0.297826
867.000000	0.297748
868.000000	0.297723
869.000000	0.297659
870.000000	0.297532
871.000000	0.297346
872.000000	0.297178
873.000000	0.297039
874.000000	0.297042
875.000000	0.296829
876.000000	0.296566
877.000000	0.296510
878.000000	0.296181
879.000000	0.295796
880.000000	0.295431
881.000000	0.295252
882.000000	0.295083
883.000000	0.294910
884.000000	0.294715
885.000000	0.294490
886.000000	0.294282
887.000000	0.294116
888.000000	0.293888
889.000000	0.293701
890.000000	0.293528
891.000000	0.293495
892.000000	0.293423
893.000000	0.293297
894.000000	0.293212
895.000000	0.293048
896.000000	0.292805
897.000000	0.292558
898.000000	0.292398
899.000000	0.292266
900.000000	0.292119
901.000000	0.291894
902.000000	0.291623
903.000000	0.291537
904.000000	0.291496
905.000000	0.291233
906.000000	0.291063
907.000000	0.290966
908.000000	0.290894
909.000000	0.290621
910.000000	0.290307
911.000000	0.290053
912.000000	0.289923
913.000000	0.289822
914.000000	0.289642
915.000000	0.289401
916.000000	0.289072
917.000000	0.288813
918.000000	0.288659
919.000000	0.288570
920.000000	0.288509
921.000000	0.288285
922.000000	0.288017
923.000000	0.287918
924.000000	0.287686
925.000000	0.287410
926.000000	0.287188
927.000000	0.286953
928.000000	0.286672
929.000000	0.286382
930.000000	0.286133
931.000000	0.285875
932.000000	0.285537
933.000000	0.285192
934.000000	0.284969
935.000000	0.284929
936.000000	0.284898
937.000000	0.284633
938.000000	0.284283
939.000000	0.284041
940.000000	0.283934
941.000000	0.283978
942.000000	0.283642
943.000000	0.283350
944.000000	0.283255
945.000000	0.283213
946.000000	0.283051
947.000000	0.282881
948.000000	0.282794
949.000000	0.282655
950.000000	0.282467
951.000000	0.282158
952.000000	0.281725
953.000000	0.281464
954.000000	0.281357
955.000000	0.281244
956.000000	0.281062
957.000000	0.280845
958.000000	0.280592
959.000000	0.280408
960.000000	0.280305
961.000000	0.280155
962.000000	0.279894
963.000000	0.279606
964.000000	0.279349
965.000000	0.279289
966.000000	0.279319
967.000000	0.278987
968.000000	0.278690
969.000000	0.278467
970.000000	0.278302
971.000000	0.278198
972.000000	0.278086
973.000000	0.277879
974.000000	0.277653
975.000000	0.277450
976.000000	0.277338
977.000000	0.277281
978.000000	0.276927
979.000000	0.276917
980.000000	0.276919
981.000000	0.276697
982.000000	0.276446
983.000000	0.276352
984.000000	0.276410
985.000000	0.276281
986.000000	0.276033
987.000000	0.275905
988.000000	0.275834
989.000000	0.275376
990.000000	0.275143
991.000000	0.275180
992.000000	0.275328
993.000000	0.275371
994.000000	0.274935
995.000000	0.274505
996.000000	0.274721
997.000000	0.274918
998.000000	0.275194
999.000000	0.275449
1000.000000	0.274964
1001.000000	0.275241
1002.000000	0.275207
1003.000000	0.275158
1004.000000	0.275225
1005.000000	0.274919
1006.000000	0.274771
1007.000000	0.274745
1008.000000	0.275573
1009.000000	0.275535
1010.000000	0.274643
1011.000000	0.273927
1012.000000	0.273375
1013.000000	0.273010
1014.000000	0.273436
1015.000000	0.273557
1016.000000	0.273273
1017.000000	0.273529
1018.000000	0.273276
1019.000000	0.273173
1020.000000	0.273793
1021.000000	0.273674
1022.000000	0.272844
1023.000000	0.272970
1024.000000	0.273525
1025.000000	0.273642
1026.000000	0.273572
1027.000000	0.273704
1028.000000	0.273433
1029.000000	0.273364
1030.000000	0.273907
1031.000000	0.274153
1032.000000	0.274463
1033.000000	0.274446
1034.000000	0.274364
1035.000000	0.274018
1036.000000	0.273986
1037.000000	0.273945
1038.000000	0.273961
1039.000000	0.274344
1040.000000	0.274435
1041.000000	0.274126
1042.000000	0.274401
1043.000000	0.274837
1044.000000	0.275106
1045.000000	0.275678
1046.000000	0.275715
1047.000000	0.275851
1048.000000	0.275681
1049.000000	0.275776
1050.000000	0.276084
1051.000000	0.276185
1052.000000	0.276110
1053.000000	0.276088
1054.000000	0.276015
1055.000000	0.276207
1056.000000	0.276468
1057.000000	0.277210
1058.000000	0.277441
1059.000000	0.277680
1060.000000	0.278233
1061.000000	0.278140
1062.000000	0.278292
1063.000000	0.278694
1064.000000	0.278879
1065.000000	0.278780
1066.000000	0.278935
1067.000000	0.279173
1068.000000	0.279325
1069.000000	0.279390
1070.000000	0.279521
1071.000000	0.279591
1072.000000	0.279900
1073.000000	0.280357
1074.000000	0.281116
1075.000000	0.281594
1076.000000	0.282195
1077.000000	0.282612
1078.000000	0.282361
1079.000000	0.282341
1080.000000	0.282113
1081.000000	0.282297
1082.000000	0.282713
1083.000000	0.283064
1084.000000	0.283784
1085.000000	0.284162
1086.000000	0.284153
1087.000000	0.284460
1088.000000	0.284983
1089.000000	0.285159
1090.000000	0.284984
1091.000000	0.285195
1092.000000	0.285550
1093.000000	0.285652
1094.000000	0.285856
1095.000000	0.286342
1096.000000	0.286545
1097.000000	0.286296
1098.000000	0.286608
1099.000000	0.287338
1100.000000	0.287616
1101.000000	0.287815
1102.000000	0.288013
1103.000000	0.287737
1104.000000	0.287933
1105.000000	0.288477
1106.000000	0.288924
1107.000000	0.289615
1108.000000	0.289980
1109.000000	0.290047
1110.000000	0.290432
1111.000000	0.290595
1112.000000	0.290546
1113.000000	0.290710
1114.000000	0.291007
1115.000000	0.291141
1116.000000	0.291211
1117.000000	0.291358
1118.000000	0.291421
1119.000000	0.291563
1120.000000	0.291822
1121.000000	0.292040
1122.000000	0.292462
1123.000000	0.292780
1124.000000	0.292692
1125.000000	0.292864
1126.000000	0.293001
1127.000000	0.293086
1128.000000	0.293204
1129.000000	0.293426
1130.000000	0.293819
1131.000000	0.294347
1132.000000	0.294580
1133.000000	0.294970
1134.000000	0.295224
1135.000000	0.295112
1136.000000	0.295143
1137.000000	0.295280
1138.000000	0.295350
1139.000000	0.295414
1140.000000	0.295514
1141.000000	0.295460
1142.000000	0.295672
1143.000000	0.296044
1144.000000	0.296356
1145.000000	0.296571
1146.000000	0.296899
1147.000000	0.297075
1148.000000	0.296940
1149.000000	0.297018
1150.000000	0.297258
1151.000000	0.297342
1152.000000	0.297259
1153.000000	0.297354
1154.000000	0.297475
1155.000000	0.297511
1156.000000	0.297579
1157.000000	0.297665
1158.000000	0.297542
1159.000000	0.297625
1160.000000	0.297872
1161.000000	0.298078
1162.000000	0.298441
1163.000000	0.298851
1164.000000	0.298902
1165.000000	0.299102
1166.000000	0.299231
1167.000000	0.299213
1168.000000	0.299184
1169.000000	0.299146
1170.000000	0.299210
1171.000000	0.299339
1172.000000	0.299394
1173.000000	0.299446
1174.000000	0.299542
1175.000000	0.299538
1176.000000	0.299531
1177.000000	0.299663
1178.000000	0.299808
1179.000000	0.299973
1180.000000	0.299971
1181.000000	0.300038
1182.000000	0.300069
1183.000000	0.299938
1184.000000	0.299888
1185.000000	0.299885
1186.000000	0.299939
1187.000000	0.299971
1188.000000	0.300028
1189.000000	0.300072
1190.000000	0.300208
1191.000000	0.300277
1192.000000	0.300386
1193.000000	0.300531
1194.000000	0.300557
1195.000000	0.300610
1196.000000	0.300627
1197.000000	0.300677
1198.000000	0.300717
1199.000000	0.300801
1200.000000	0.300960
1201.000000	0.301058
1202.000000	0.301100
1203.000000	0.301146
1204.000000	0.301070
1205.000000	0.301039
1206.000000	0.301021
1207.000000	0.301107
1208.000000	0.301162
1209.000000	0.301320
1210.000000	0.301381
1211.000000	0.301421
1212.000000	0.301406
1213.000000	0.301319
1214.000000	0.301334
1215.000000	0.301382
1216.000000	0.301390
1217.000000	0.301428
1218.000000	0.301407
1219.000000	0.301355
1220.000000	0.301265
1221.000000	0.301298
1222.000000	0.301266
1223.000000	0.301255
1224.000000	0.301314
1225.000000	0.301297
1226.000000	0.301351
1227.000000	0.301433
1228.000000	0.301651
1229.000000	0.301765
1230.000000	0.301951
1231.000000	0.301892
1232.000000	0.301710
1233.000000	0.301759
1234.000000	0.301744
1235.000000	0.301791
1236.000000	0.301955
1237.000000	0.302075
1238.000000	0.302168
1239.000000	0.302168
1240.000000	0.302089
1241.000000	0.302090
1242.000000	0.302024
1243.000000	0.301873
1244.000000	0.301954
1245.000000	0.302047
1246.000000	0.301970
1247.000000	0.302011
1248.000000	0.301997
1249.000000	0.301877
1250.000000	0.301821
1251.000000	0.301836
1252.000000	0.301806
1253.000000	0.301791
1254.000000	0.301761
1255.000000	0.301702
1256.000000	0.301688
1257.000000	0.301706
1258.000000	0.301786
1259.000000	0.301882
1260.000000	0.301965
1261.000000	0.301973
1262.000000	0.302030
1263.000000	0.302135
1264.000000	0.302221
1265.000000	0.302224
1266.000000	0.302292
1267.000000	0.302247
1268.000000	0.302086
1269.000000	0.302046
1270.000000	0.302095
1271.000000	0.302121
1272.000000	0.302145
1273.000000	0.302099
1274.000000	0.302157
1275.000000	0.302130
1276.000000	0.302019
1277.000000	0.302035
1278.000000	0.302017
1279.000000	0.301980
1280.000000	0.301983
1281.000000	0.301945
1282.000000	0.301864
1283.000000	0.301853
1284.000000	0.301796
1285.000000	0.301761
1286.000000	0.301675
1287.000000	0.301747
1288.000000	0.301940
1289.000000	0.301860
1290.000000	0.301777
1291.000000	0.301832
1292.000000	0.301748
1293.000000	0.301755
1294.000000	0.301888
1295.000000	0.301909
1296.000000	0.301936
1297.000000	0.301947
1298.000000	0.301824
1299.000000	0.301729
1300.000000	0.301668
1301.000000	0.301723
1302.000000	0.301680
1303.000000	0.301768
1304.000000	0.301741
1305.000000	0.301739
1306.000000	0.301660
1307.000000	0.301608
1308.000000	0.301618
1309.000000	0.301629
1310.000000	0.301499
1311.000000	0.301326
1312.000000	0.301168
1313.000000	0.301040
1314.000000	0.300871
1315.000000	0.300904
1316.000000	0.301174
1317.000000	0.301216
1318.000000	0.301174
1319.000000	0.301155
1320.000000	0.301083
1321.000000	0.300968
1322.000000	0.300893
1323.000000	0.300857
1324.000000	0.300789
1325.000000	0.300786
1326.000000	0.300865
1327.000000	0.300908
1328.000000	0.300917
1329.000000	0.300900
1330.000000	0.300866
1331.000000	0.300855
1332.000000	0.300927
1333.000000	0.300919
1334.000000	0.300886
1335.000000	0.300925
1336.000000	0.300953
1337.000000	0.300983
1338.000000	0.301014
1339.000000	0.301029
1340.000000	0.301065
1341.000000	0.301096
1342.000000	0.301017
1343.000000	0.300947
1344.000000	0.300888
1345.000000	0.300757
1346.000000	0.300765
1347.000000	0.300770
1348.000000	0.300772
1349.000000	0.300698
1350.000000	0.300594
1351.000000	0.300504
1352.000000	0.300472
1353.000000	0.300452
1354.000000	0.300423
1355.000000	0.300382
1356.000000	0.300310
1357.000000	0.300130
1358.000000	0.299992
1359.000000	0.299849
1360.000000	0.299784
1361.000000	0.299791
1362.000000	0.299804
1363.000000	0.299960
1364.000000	0.299966
1365.000000	0.299804
1366.000000	0.299666
1367.000000	0.299466
1368.000000	0.299273
1369.000000	0.299338
1370.000000	0.299407
1371.000000	0.299393
1372.000000	0.299325
1373.000000	0.299145
1374.000000	0.298971
1375.000000	0.298769
1376.000000	0.298806
1377.000000	0.298892
1378.000000	0.298863
1379.000000	0.298913
1380.000000	0.298993
1381.000000	0.298850
1382.000000	0.298643
1383.000000	0.298601
1384.000000	0.298324
1385.000000	0.298012
1386.000000	0.297977
1387.000000	0.297801
1388.000000	0.297382
1389.000000	0.297039
1390.000000	0.296799
1391.000000	0.296508
1392.000000	0.296385
1393.000000	0.296153
1394.000000	0.295947
1395.000000	0.295651
1396.000000	0.295222
1397.000000	0.294860
1398.000000	0.294497
1399.000000	0.294201
1400.000000	0.293929
1401.000000	0.293629
1402.000000	0.293417
1403.000000	0.293050
1404.000000	0.292857
1405.000000	0.292655
1406.000000	0.292345
1407.000000	0.292058
1408.000000	0.291597
1409.000000	0.291207
1410.000000	0.291019
1411.000000	0.290839
1412.000000	0.290557
1413.000000	0.290314
1414.000000	0.290110
1415.000000	0.289861
1416.000000	0.289824
1417.000000	0.289867
1418.000000	0.289726
1419.000000	0.289793
1420.000000	0.289701
1421.000000	0.289444
1422.000000	0.289360
1423.000000	0.289303
1424.000000	0.289095
1425.000000	0.289026
1426.000000	0.288924
1427.000000	0.288682
1428.000000	0.288540
1429.000000	0.288536
1430.000000	0.288563
1431.000000	0.288609
1432.000000	0.288609
1433.000000	0.288654
1434.000000	0.288612
1435.000000	0.288516
1436.000000	0.288543
1437.000000	0.288593
1438.000000	0.288692
1439.000000	0.288934
1440.000000	0.289131
1441.000000	0.289382
1442.000000	0.289581
1443.000000	0.289698
1444.000000	0.289825
1445.000000	0.289942
1446.000000	0.290015
1447.000000	0.290063
1448.000000	0.290105
1449.000000	0.290146
1450.000000	0.290226
1451.000000	0.290359
1452.000000	0.290471
1453.000000	0.290525
1454.000000	0.290526
1455.000000	0.290584
1456.000000	0.290784
1457.000000	0.291044
1458.000000	0.291206
1459.000000	0.291232
1460.000000	0.291119
1461.000000	0.290962
1462.000000	0.290875
1463.000000	0.290799
1464.000000	0.290789
1465.000000	0.290791
1466.000000	0.290746
1467.000000	0.290781
1468.000000	0.290827
1469.000000	0.290909
1470.000000	0.290850
1471.000000	0.290787
1472.000000	0.290772
1473.000000	0.290805
1474.000000	0.290948
1475.000000	0.291034
1476.000000	0.291051
1477.000000	0.291132
1478.000000	0.291104
1479.000000	0.291166
1480.000000	0.291294
1481.000000	0.291305
1482.000000	0.291211
1483.000000	0.291395
1484.000000	0.291681
1485.000000	0.291899
1486.000000	0.292261
1487.000000	0.292454
1488.000000	0.292517
1489.000000	0.292647
1490.000000	0.292696
1491.000000	0.292770
1492.000000	0.292745
1493.000000	0.292813
1494.000000	0.292927
1495.000000	0.292945
1496.000000	0.292953
1497.000000	0.292974
1498.000000	0.292928
1499.000000	0.292916
1500.000000	0.293054
1501.000000	0.293083
1502.000000	0.293098
1503.000000	0.293261
1504.000000	0.293402
1505.000000	0.293516
1506.000000	0.293659
1507.000000	0.293707
1508.000000	0.293713
1509.000000	0.293815
1510.000000	0.293928
1511.000000	0.293978
1512.000000	0.293961
1513.000000	0.293917
1514.000000	0.293985
1515.000000	0.294063
1516.000000	0.294204
1517.000000	0.294305
1518.000000	0.294190
1519.000000	0.294051
1520.000000	0.293954
1521.000000	0.293877
1522.000000	0.293980
1523.000000	0.294047
1524.000000	0.293988
1525.000000	0.294011
1526.000000	0.294056
1527.000000	0.294098
1528.000000	0.294299
1529.000000	0.294463
1530.000000	0.294369
1531.000000	0.294372
1532.000000	0.294429
1533.000000	0.294451
1534.000000	0.294546
1535.000000	0.294597
1536.000000	0.294539
1537.000000	0.294496
1538.000000	0.294473
1539.000000	0.294399
1540.000000	0.294395
1541.000000	0.294474
1542.000000	0.294475
1543.000000	0.294507
1544.000000	0.294482
1545.000000	0.294488
1546.000000	0.294624
1547.000000	0.294756
1548.000000	0.294894
1549.000000	0.294882
1550.000000	0.294880
1551.000000	0.294934
1552.000000	0.294931
1553.000000	0.295015
1554.000000	0.295000
1555.000000	0.294985
1556.000000	0.295104
1557.000000	0.295172
1558.000000	0.295194
1559.000000	0.295164
1560.000000	0.295086
1561.000000	0.294919
1562.000000	0.294812
1563.000000	0.294748
1564.000000	0.294732
1565.000000	0.294778
1566.000000	0.294702
1567.000000	0.294674
1568.000000	0.294675
1569.000000	0.294740
1570.000000	0.294682
1571.000000	0.294588
1572.000000	0.294514
1573.000000	0.294327
1574.000000	0.294237
1575.000000	0.294305
1576.000000	0.294267
1577.000000	0.294141
1578.000000	0.294042
1579.000000	0.293963
1580.000000	0.293917
1581.000000	0.293949
1582.000000	0.293995
1583.000000	0.294068
1584.000000	0.294136
1585.000000	0.294314
1586.000000	0.294423
1587.000000	0.294535
1588.000000	0.294613
1589.000000	0.294660
1590.000000	0.294701
1591.000000	0.294746
1592.000000	0.294729
1593.000000	0.294688
1594.000000	0.294640
1595.000000	0.294592
1596.000000	0.294601
1597.000000	0.294688
1598.000000	0.294688
1599.000000	0.294702
1600.000000	0.294639
1601.000000	0.294540
1602.000000	0.294496
1603.000000	0.294503
1604.000000	0.294472
1605.000000	0.294478
1606.000000	0.294438
1607.000000	0.294373
1608.000000	0.294360
1609.000000	0.294433
1610.000000	0.294434
1611.000000	0.294497
1612.000000	0.294497
1613.000000	0.294526
1614.000000	0.294453
1615.000000	0.294291
1616.000000	0.294280
1617.000000	0.294233
1618.000000	0.294224
1619.000000	0.294381
1620.000000	0.294416
1621.000000	0.294364
1622.000000	0.294455
1623.000000	0.294512
1624.000000	0.294598
1625.000000	0.294691
1626.000000	0.294679
1627.000000	0.294678
1628.000000	0.294681
1629.000000	0.294544
1630.000000	0.294561
1631.000000	0.294607
1632.000000	0.294590
1633.000000	0.294674
1634.000000	0.294645
1635.000000	0.294531
1636.000000	0.294472
1637.000000	0.294409
1638.000000	0.294356
1639.000000	0.294411
1640.000000	0.294344
1641.000000	0.294227
1642.000000	0.294221
1643.000000	0.294249
1644.000000	0.294279
1645.000000	0.294433
1646.000000	0.294448
1647.000000	0.294426
1648.000000	0.294340
1649.000000	0.294255
1650.000000	0.294197
1651.000000	0.294100
1652.000000	0.294100
1653.000000	0.294178
1654.000000	0.294145
1655.000000	0.294016
1656.000000	0.293908
1657.000000	0.293785
1658.000000	0.293719
1659.000000	0.293829
1660.000000	0.293882
1661.000000	0.293835
1662.000000	0.293861
1663.000000	0.293875
1664.000000	0.293943
1665.000000	0.294074
1666.000000	0.294179
1667.000000	0.294239
1668.000000	0.294270
1669.000000	0.294247
1670.000000	0.294192
1671.000000	0.294189
1672.000000	0.294261
1673.000000	0.294302
1674.000000	0.294380
1675.000000	0.294467
1676.000000	0.294485
1677.000000	0.294459
1678.000000	0.294333
1679.000000	0.294311
1680.000000	0.294338
1681.000000	0.294285
1682.000000	0.294286
1683.000000	0.294327
1684.000000	0.294221
1685.000000	0.294225
1686.000000	0.294200
1687.000000	0.294090
1688.000000	0.294118
1689.000000	0.294125
1690.000000	0.294083
1691.000000	0.294195
1692.000000	0.294046
1693.000000	0.293900
1694.000000	0.294016
1695.000000	0.294006
1696.000000	0.294082
1697.000000	0.294078
1698.000000	0.293927
1699.000000	0.293945
1700.000000	0.294107
1701.000000	0.294235
1702.000000	0.294265
1703.000000	0.294276
1704.000000	0.294310
1705.000000	0.294320
1706.000000	0.294379
1707.000000	0.294379
1708.000000	0.294246
1709.000000	0.294170
1710.000000	0.294208
1711.000000	0.294225
1712.000000	0.294368
1713.000000	0.294333
1714.000000	0.294099
1715.000000	0.294127
1716.000000	0.294257
1717.000000	0.294297
1718.000000	0.294508
1719.000000	0.294520
1720.000000	0.294321
1721.000000	0.294257
1722.000000	0.294172
1723.000000	0.294220
1724.000000	0.294426
1725.000000	0.294532
1726.000000	0.294676
1727.000000	0.294651
1728.000000	0.294337
1729.000000	0.294217
1730.000000	0.294201
1731.000000	0.294236
1732.000000	0.294446
1733.000000	0.294580
1734.000000	0.294584
1735.000000	0.294610
1736.000000	0.294619
1737.000000	0.294552
1738.000000	0.294425
1739.000000	0.294386
1740.000000	0.294313
1741.000000	0.294257
1742.000000	0.294298
1743.000000	0.294279
1744.000000	0.294174
1745.000000	0.294136
1746.000000	0.294117
1747.000000	0.294103
1748.000000	0.294065
1749.000000	0.294103
1750.000000	0.294011
1751.000000	0.293958
1752.000000	0.293962
1753.000000	0.293668
1754.000000	0.293587
1755.000000	0.293702
1756.000000	0.293660
1757.000000	0.293602
1758.000000	0.293604
1759.000000	0.293586
1760.000000	0.293456
1761.000000	0.293187
1762.000000	0.293130
1763.000000	0.293129
1764.000000	0.293065
1765.000000	0.293203
1766.000000	0.293151
1767.000000	0.292713
1768.000000	0.292495
1769.000000	0.292378
1770.000000	0.292447
1771.000000	0.292634
1772.000000	0.292816
1773.000000	0.293155
1774.000000	0.293320
1775.000000	0.293482
1776.000000	0.293567
1777.000000	0.293501
1778.000000	0.293505
1779.000000	0.293462
1780.000000	0.293494
1781.000000	0.293559
1782.000000	0.293565
1783.000000	0.293610
1784.000000	0.293545
1785.000000	0.293560
1786.000000	0.293578
1787.000000	0.293582
1788.000000	0.293720
1789.000000	0.293695
1790.000000	0.293678
1791.000000	0.293676
1792.000000	0.293653
1793.000000	0.293708
1794.000000	0.293949
1795.000000	0.294056
1796.000000	0.294165
1797.000000	0.294194
1798.000000	0.294009
1799.000000	0.293958
1800.000000	0.294012
1801.000000	0.294504
1802.000000	0.294274
1803.000000	0.293201
1804.000000	0.293166
1805.000000	0.293465
1806.000000	0.293521
1807.000000	0.294180
1808.000000	0.294372
1809.000000	0.294230
1810.000000	0.293556
1811.000000	0.293569
1812.000000	0.293823
1813.000000	0.294119
1814.000000	0.294906
1815.000000	0.295121
1816.000000	0.295032
1817.000000	0.294936
1818.000000	0.294386
1819.000000	0.294734
1820.000000	0.294153
1821.000000	0.293696
1822.000000	0.293745
1823.000000	0.293784
1824.000000	0.293678
1825.000000	0.294093
1826.000000	0.294260
1827.000000	0.293870
1828.000000	0.293600
1829.000000	0.293922
1830.000000	0.294130
1831.000000	0.293833
1832.000000	0.293060
1833.000000	0.292689
1834.000000	0.292011
1835.000000	0.291704
1836.000000	0.291610
1837.000000	0.291686
1838.000000	0.292279
1839.000000	0.291908
1840.000000	0.291545
1841.000000	0.292063
1842.000000	0.291921
1843.000000	0.291073
1844.000000	0.291093
1845.000000	0.291587
1846.000000	0.291369
1847.000000	0.290619
1848.000000	0.290453
1849.000000	0.290759
1850.000000	0.291041
1851.000000	0.290962
1852.000000	0.291235
1853.000000	0.291368
1854.000000	0.290488
1855.000000	0.290217
1856.000000	0.290396
1857.000000	0.290727
1858.000000	0.290566
1859.000000	0.290161
1860.000000	0.289761
1861.000000	0.290118
1862.000000	0.290044
1863.000000	0.289925
1864.000000	0.289900
1865.000000	0.289802
1866.000000	0.289585
1867.000000	0.289406
1868.000000	0.289084
1869.000000	0.288690
1870.000000	0.288746
1871.000000	0.288226
1872.000000	0.288142
1873.000000	0.287988
1874.000000	0.287582
1875.000000	0.287153
1876.000000	0.286552
1877.000000	0.286217
1878.000000	0.284979
1879.000000	0.284297
1880.000000	0.284025
1881.000000	0.283083
1882.000000	0.282308
1883.000000	0.281790
1884.000000	0.281518
1885.000000	0.281347
1886.000000	0.280905
1887.000000	0.280903
1888.000000	0.280101
1889.000000	0.278592
1890.000000	0.277045
1891.000000	0.275011
1892.000000	0.273136
1893.000000	0.271874
1894.000000	0.270917
1895.000000	0.269841
1896.000000	0.269296
1897.000000	0.268671
1898.000000	0.267202
1899.000000	0.265562
1900.000000	0.264031
1901.000000	0.262790
1902.000000	0.262116
1903.000000	0.261550
1904.000000	0.260528
1905.000000	0.259397
1906.000000	0.258386
1907.000000	0.257301
1908.000000	0.256170
1909.000000	0.255716
1910.000000	0.255320
1911.000000	0.254895
1912.000000	0.254997
1913.000000	0.255292
1914.000000	0.255611
1915.000000	0.255812
1916.000000	0.255774
1917.000000	0.255628
1918.000000	0.255198
1919.000000	0.255052
1920.000000	0.255131
1921.000000	0.255493
1922.000000	0.255438
1923.000000	0.255456
1924.000000	0.255623
1925.000000	0.255546
1926.000000	0.256238
1927.000000	0.256879
1928.000000	0.256994
1929.000000	0.256976
1930.000000	0.256564
1931.000000	0.255590
1932.000000	0.254964
1933.000000	0.254784
1934.000000	0.254778
1935.000000	0.255014
1936.000000	0.255543
1937.000000	0.255872
1938.000000	0.255809
1939.000000	0.255841
1940.000000	0.255967
1941.000000	0.255831
1942.000000	0.255609
1943.000000	0.256049
1944.000000	0.256644
1945.000000	0.257676
1946.000000	0.258683
1947.000000	0.258757
1948.000000	0.259052
1949.000000	0.258894
1950.000000	0.258491
1951.000000	0.258058
1952.000000	0.257811
1953.000000	0.257214
1954.000000	0.257088
1955.000000	0.256761
1956.000000	0.257522
1957.000000	0.258949
1958.000000	0.259104
1959.000000	0.259364
1960.000000	0.259460
1961.000000	0.258766
1962.000000	0.258286
1963.000000	0.257894
1964.000000	0.257871
1965.000000	0.257560
1966.000000	0.257522
1967.000000	0.257817
1968.000000	0.258175
1969.000000	0.258700
1970.000000	0.259416
1971.000000	0.259687
1972.000000	0.259414
1973.000000	0.259495
1974.000000	0.259579
1975.000000	0.259572
1976.000000	0.259673
1977.000000	0.260197
1978.000000	0.260193
1979.000000	0.260234
1980.000000	0.260376
1981.000000	0.260738
1982.000000	0.261227
1983.000000	0.261402
1984.000000	0.261188
1985.000000	0.260362
1986.000000	0.259990
1987.000000	0.259461
1988.000000	0.259488
1989.000000	0.259367
1990.000000	0.260187
1991.000000	0.260637
1992.000000	0.260488
1993.000000	0.261103
1994.000000	0.261710
1995.000000	0.262181
1996.000000	0.262683
1997.000000	0.262979
1998.000000	0.262981
1999.000000	0.263134
2000.000000	0.263405
2001.000000	0.263306
2002.000000	0.263269
2003.000000	0.263502
2004.000000	0.263697
2005.000000	0.264204
2006.000000	0.264753
2007.000000	0.265377
2008.000000	0.265741
2009.000000	0.265899
2010.000000	0.266148
2011.000000	0.266088
2012.000000	0.266124
2013.000000	0.266117
2014.000000	0.266137
2015.000000	0.266525
2016.000000	0.266494
2017.000000	0.266858
2018.000000	0.267462
2019.000000	0.267335
2020.000000	0.267567
2021.000000	0.267698
2022.000000	0.267476
2023.000000	0.267528
2024.000000	0.267816
2025.000000	0.268198
2026.000000	0.268595
2027.000000	0.268815
2028.000000	0.269840
2029.000000	0.270620
2030.000000	0.270770
2031.000000	0.271257
2032.000000	0.271101
2033.000000	0.270801
2034.000000	0.270933
2035.000000	0.271724
2036.000000	0.271811
2037.000000	0.272096
2038.000000	0.271871
2039.000000	0.271038
2040.000000	0.270574
2041.000000	0.269933
2042.000000	0.269685
2043.000000	0.270056
2044.000000	0.270120
2045.000000	0.270368
2046.000000	0.270478
2047.000000	0.270706
2048.000000	0.270758
2049.000000	0.271191
2050.000000	0.271851
2051.000000	0.272075
2052.000000	0.272178
2053.000000	0.272073
2054.000000	0.271577
2055.000000	0.271478
2056.000000	0.271949
2057.000000	0.272168
2058.000000	0.272755
2059.000000	0.273000
2060.000000	0.272993
2061.000000	0.272477
2062.000000	0.272321
2063.000000	0.272166
2064.000000	0.272149
2065.000000	0.272557
2066.000000	0.272597
2067.000000	0.273111
2068.000000	0.272938
2069.000000	0.272405
2070.000000	0.272325
2071.000000	0.271708
2072.000000	0.271835
2073.000000	0.271793
2074.000000	0.271416
2075.000000	0.271635
2076.000000	0.272182
2077.000000	0.272375
2078.000000	0.272843
2079.000000	0.273230
2080.000000	0.273588
2081.000000	0.273729
2082.000000	0.273918
2083.000000	0.273949
2084.000000	0.273333
2085.000000	0.272885
2086.000000	0.273258
2087.000000	0.273396
2088.000000	0.273463
2089.000000	0.273420
2090.000000	0.273603
2091.000000	0.273607
2092.000000	0.273924
2093.000000	0.274759
2094.000000	0.275379
2095.000000	0.276066
2096.000000	0.276423
2097.000000	0.276447
2098.000000	0.276815
2099.000000	0.276963
2100.000000	0.277129
2101.000000	0.277731
2102.000000	0.278227
2103.000000	0.278059
2104.000000	0.278011
2105.000000	0.277819
2106.000000	0.277130
2107.000000	0.276851
2108.000000	0.276553
2109.000000	0.276439
2110.000000	0.276595
2111.000000	0.276695
2112.000000	0.276732
2113.000000	0.276899
2114.000000	0.276831
2115.000000	0.276347
2116.000000	0.276162
2117.000000	0.276082
2118.000000	0.276245
2119.000000	0.276052
2120.000000	0.275964
2121.000000	0.275563
2122.000000	0.275752
2123.000000	0.276414
2124.000000	0.276875
2125.000000	0.277769
2126.000000	0.278110
2127.000000	0.277839
2128.000000	0.277866
2129.000000	0.277831
2130.000000	0.277772
2131.000000	0.277489
2132.000000	0.277528
2133.000000	0.277737
2134.000000	0.277848
2135.000000	0.278012
2136.000000	0.278728
2137.000000	0.278990
2138.000000	0.279195
2139.000000	0.279156
2140.000000	0.278789
2141.000000	0.278597
2142.000000	0.278079
2143.000000	0.277506
2144.000000	0.277241
2145.000000	0.276973
2146.000000	0.276762
2147.000000	0.276780
2148.000000	0.276100
2149.000000	0.276260
2150.000000	0.276433
2151.000000	0.276382
2152.000000	0.276701
2153.000000	0.276353
2154.000000	0.276164
2155.000000	0.275552
2156.000000	0.275332
2157.000000	0.275528
2158.000000	0.275590
2159.000000	0.275518
2160.000000	0.275593
2161.000000	0.275691
2162.000000	0.275924
2163.000000	0.276758
2164.000000	0.276682
2165.000000	0.276064
2166.000000	0.275400
2167.000000	0.275102
2168.000000	0.274683
2169.000000	0.275286
2170.000000	0.276238
2171.000000	0.276578
2172.000000	0.276454
2173.000000	0.276574
2174.000000	0.276624
2175.000000	0.276791
2176.000000	0.277048
2177.000000	0.277474
2178.000000	0.278311
2179.000000	0.278665
2180.000000	0.278878
2181.000000	0.278872
2182.000000	0.278222
2183.000000	0.276771
2184.000000	0.275362
2185.000000	0.275335
2186.000000	0.275861
2187.000000	0.277378
2188.000000	0.277925
2189.000000	0.277398
2190.000000	0.276290
2191.000000	0.275261
2192.000000	0.274932
2193.000000	0.275722
2194.000000	0.276059
2195.000000	0.276759
2196.000000	0.277071
2197.000000	0.277123
2198.000000	0.277173
2199.000000	0.277535
2200.000000	0.276780
2201.000000	0.275541
2202.000000	0.274333
2203.000000	0.271447
2204.000000	0.269042
2205.000000	0.269022
2206.000000	0.268897
2207.000000	0.270318
2208.000000	0.272096
2209.000000	0.272496
2210.000000	0.273564
2211.000000	0.273333
2212.000000	0.273344
2213.000000	0.272785
2214.000000	0.270304
2215.000000	0.270594
2216.000000	0.272686
2217.000000	0.273692
2218.000000	0.276191
2219.000000	0.277412
2220.000000	0.276971
2221.000000	0.276449
2222.000000	0.276213
2223.000000	0.275572
2224.000000	0.273034
2225.000000	0.273153
2226.000000	0.274576
2227.000000	0.273548
2228.000000	0.274051
2229.000000	0.274588
2230.000000	0.273730
2231.000000	0.275827
2232.000000	0.278259
2233.000000	0.279741
2234.000000	0.281477
2235.000000	0.282118
2236.000000	0.281950
2237.000000	0.281233
2238.000000	0.279165
2239.000000	0.274717
2240.000000	0.272647
2241.000000	0.270140
2242.000000	0.268933
2243.000000	0.268954
2244.000000	0.269516
2245.000000	0.272578
2246.000000	0.273044
2247.000000	0.272199
2248.000000	0.272844
2249.000000	0.273375
2250.000000	0.271390
2251.000000	0.273457
2252.000000	0.276409
2253.000000	0.277676
2254.000000	0.277979
2255.000000	0.278470
2256.000000	0.278355
2257.000000	0.276280
2258.000000	0.274684
2259.000000	0.271394
2260.000000	0.267964
2261.000000	0.266402
2262.000000	0.265886
2263.000000	0.265901
2264.000000	0.267234
2265.000000	0.268024
2266.000000	0.270609
2267.000000	0.270154
2268.000000	0.267079
2269.000000	0.266749
2270.000000	0.265910
2271.000000	0.265084
2272.000000	0.266744
2273.000000	0.267147
2274.000000	0.265786
2275.000000	0.264901
2276.000000	0.264719
2277.000000	0.263826
2278.000000	0.260695
2279.000000	0.259081
2280.000000	0.258516
2281.000000	0.257540
2282.000000	0.258836
2283.000000	0.259911
2284.000000	0.259814
2285.000000	0.260080
2286.000000	0.259951
2287.000000	0.259825
2288.000000	0.261553
2289.000000	0.263690
2290.000000	0.264279
2291.000000	0.266759
2292.000000	0.268877
2293.000000	0.268220
2294.000000	0.268428
2295.000000	0.269173
2296.000000	0.268750
2297.000000	0.267573
2298.000000	0.266577
2299.000000	0.264835
2300.000000	0.264587
2301.000000	0.264849
2302.000000	0.264451
2303.000000	0.263747
2304.000000	0.263805
2305.000000	0.264652
2306.000000	0.264876
2307.000000	0.265120
2308.000000	0.267018
2309.000000	0.267079
2310.000000	0.264159
2311.000000	0.264210
2312.000000	0.264265
2313.000000	0.264607
2314.000000	0.267134
2315.000000	0.267744
2316.000000	0.268204
2317.000000	0.266298
2318.000000	0.265953
2319.000000	0.267402
2320.000000	0.267467
2321.000000	0.268674
2322.000000	0.266856
2323.000000	0.264449
2324.000000	0.263213
2325.000000	0.263076
2326.000000	0.264220
2327.000000	0.264461
2328.000000	0.264800
2329.000000	0.264480
2330.000000	0.263966
2331.000000	0.262669
2332.000000	0.261977
2333.000000	0.262783
2334.000000	0.261639
2335.000000	0.261395
2336.000000	0.261099
2337.000000	0.261351
2338.000000	0.262645
2339.000000	0.263488
2340.000000	0.264728
2341.000000	0.265958
2342.000000	0.264992
2343.000000	0.265621
2344.000000	0.269636
2345.000000	0.269738
2346.000000	0.268610
2347.000000	0.267917
2348.000000	0.264892
2349.000000	0.263005
2350.000000	0.262663
2351.000000	0.260512
2352.000000	0.260066
2353.000000	0.257130
2354.000000	0.251562
2355.000000	0.250291
2356.000000	0.247998
2357.000000	0.246716
2358.000000	0.251450
2359.000000	0.253357
2360.000000	0.255062
2361.000000	0.256489
2362.000000	0.254040
2363.000000	0.253709
2364.000000	0.252292
2365.000000	0.250494
2366.000000	0.250147
2367.000000	0.251056
2368.000000	0.252303
2369.000000	0.253832
2370.000000	0.256249
2371.000000	0.257319
2372.000000	0.257873
2373.000000	0.258644
2374.000000	0.258942
2375.000000	0.258554
2376.000000	0.260262
2377.000000	0.261512
2378.000000	0.259443
2379.000000	0.254837
2380.000000	0.246371
2381.000000	0.237849
2382.000000	0.234231
2383.000000	0.234141
2384.000000	0.237401
2385.000000	0.244825
2386.000000	0.248976
2387.000000	0.249072
2388.000000	0.252106
2389.000000	0.254124
2390.000000	0.254656
2391.000000	0.256245
2392.000000	0.254821
2393.000000	0.253240
2394.000000	0.253642
2395.000000	0.257294
2396.000000	0.263463
2397.000000	0.266848
2398.000000	0.268328
2399.000000	0.269794
2400.000000	0.269779
2401.000000	0.267083
2402.000000	0.270106
2403.000000	0.274894
2404.000000	0.274974
2405.000000	0.276433
2406.000000	0.271093
2407.000000	0.266060
2408.000000	0.261242
2409.000000	0.251115
2410.000000	0.248810
2411.000000	0.241505
2412.000000	0.235243
2413.000000	0.241890
2414.000000	0.247524
2415.000000	0.253881
2416.000000	0.252776
2417.000000	0.245141
2418.000000	0.240395
2419.000000	0.233892
2420.000000	0.234084
2421.000000	0.235504
2422.000000	0.235060
2423.000000	0.235587
2424.000000	0.239707
2425.000000	0.247099
2426.000000	0.252811
2427.000000	0.257739
2428.000000	0.258666
2429.000000	0.262341
2430.000000	0.260654
2431.000000	0.250155
2432.000000	0.242114
2433.000000	0.239036
2434.000000	0.233581
2435.000000	0.228460
2436.000000	0.221213
2437.000000	0.208399
2438.000000	0.208938
2439.000000	0.215311
2440.000000	0.224706
2441.000000	0.233679
2442.000000	0.232184
2443.000000	0.236144
2444.000000	0.238102
2445.000000	0.237533
2446.000000	0.239796
2447.000000	0.236905
2448.000000	0.243904
2449.000000	0.256069
2450.000000	0.265571
2451.000000	0.262490
2452.000000	0.252051
2453.000000	0.245953
2454.000000	0.235545
2455.000000	0.244140
2456.000000	0.263531
2457.000000	0.277409
2458.000000	0.285273
2459.000000	0.280639
2460.000000	0.274372
2461.000000	0.260564
2462.000000	0.267900
2463.000000	0.291161
2464.000000	0.291861
2465.000000	0.288825
2466.000000	0.274770
2467.000000	0.249922
2468.000000	0.239868
2469.000000	0.246860
2470.000000	0.253529
2471.000000	0.264311
2472.000000	0.277216
2473.000000	0.254706
2474.000000	0.220916
2475.000000	0.198266
2476.000000	0.176537
2477.000000	0.157837
2478.000000	0.173589
2479.000000	0.200257
2480.000000	0.183311
2481.000000	0.209771
2482.000000	0.231999
2483.000000	0.210121
2484.000000	0.237969
2485.000000	0.229202
2486.000000	0.203810
2487.000000	0.221419
2488.000000	0.209679
2489.000000	0.197875
2490.000000	0.215900
2491.000000	0.191507
2492.000000	0.178829
2493.000000	0.178808
2494.000000	0.175500
2495.000000	0.169661
2496.000000	0.149187
2497.000000	0.120729
2498.000000	0.118366
2499.000000	0.126209
2500.000000	0.138891
