# Wavelength	Nau-1_10_FV7_90_00001.asd.rts.txt
350.000000	0.195960
351.000000	0.181428
352.000000	0.196564
353.000000	0.198257
354.000000	0.176559
355.000000	0.178846
356.000000	0.184548
357.000000	0.190443
358.000000	0.202256
359.000000	0.203632
360.000000	0.197380
361.000000	0.190902
362.000000	0.192935
363.000000	0.193360
364.000000	0.188109
365.000000	0.192770
366.000000	0.195704
367.000000	0.194253
368.000000	0.193623
369.000000	0.191476
370.000000	0.194170
371.000000	0.206802
372.000000	0.205923
373.000000	0.199680
374.000000	0.197194
375.000000	0.200806
376.000000	0.201511
377.000000	0.199143
378.000000	0.202242
379.000000	0.204793
380.000000	0.204708
381.000000	0.202434
382.000000	0.203278
383.000000	0.203164
384.000000	0.200963
385.000000	0.206758
386.000000	0.208724
387.000000	0.205151
388.000000	0.204281
389.000000	0.203787
390.000000	0.203996
391.000000	0.205524
392.000000	0.207851
393.000000	0.208526
394.000000	0.207144
395.000000	0.210949
396.000000	0.212289
397.000000	0.209729
398.000000	0.209809
399.000000	0.211039
400.000000	0.212416
401.000000	0.212827
402.000000	0.213240
403.000000	0.214559
404.000000	0.216855
405.000000	0.216210
406.000000	0.215725
407.000000	0.216674
408.000000	0.216899
409.000000	0.217523
410.000000	0.218280
411.000000	0.218152
412.000000	0.218619
413.000000	0.219092
414.000000	0.218895
415.000000	0.219593
416.000000	0.220169
417.000000	0.220248
418.000000	0.221407
419.000000	0.221777
420.000000	0.221455
421.000000	0.222201
422.000000	0.222485
423.000000	0.222285
424.000000	0.222166
425.000000	0.222979
426.000000	0.223613
427.000000	0.223374
428.000000	0.223655
429.000000	0.223759
430.000000	0.223620
431.000000	0.224047
432.000000	0.224233
433.000000	0.224418
434.000000	0.225315
435.000000	0.225402
436.000000	0.225243
437.000000	0.225522
438.000000	0.225538
439.000000	0.225661
440.000000	0.226033
441.000000	0.225943
442.000000	0.225948
443.000000	0.226107
444.000000	0.226313
445.000000	0.226526
446.000000	0.226842
447.000000	0.227180
448.000000	0.227146
449.000000	0.227392
450.000000	0.228194
451.000000	0.228487
452.000000	0.228827
453.000000	0.229307
454.000000	0.229682
455.000000	0.230542
456.000000	0.231572
457.000000	0.231973
458.000000	0.232574
459.000000	0.233286
460.000000	0.233897
461.000000	0.234088
462.000000	0.234440
463.000000	0.234972
464.000000	0.235095
465.000000	0.235492
466.000000	0.236098
467.000000	0.236509
468.000000	0.236962
469.000000	0.237188
470.000000	0.237103
471.000000	0.237486
472.000000	0.237888
473.000000	0.238052
474.000000	0.238448
475.000000	0.238738
476.000000	0.238981
477.000000	0.239341
478.000000	0.239574
479.000000	0.239828
480.000000	0.240081
481.000000	0.240351
482.000000	0.240700
483.000000	0.240989
484.000000	0.241389
485.000000	0.241690
486.000000	0.241944
487.000000	0.242120
488.000000	0.242337
489.000000	0.242663
490.000000	0.243103
491.000000	0.243295
492.000000	0.243544
493.000000	0.244093
494.000000	0.244377
495.000000	0.244574
496.000000	0.244826
497.000000	0.245109
498.000000	0.245402
499.000000	0.245759
500.000000	0.246148
501.000000	0.246492
502.000000	0.246818
503.000000	0.247117
504.000000	0.247440
505.000000	0.247753
506.000000	0.248031
507.000000	0.248373
508.000000	0.248681
509.000000	0.248927
510.000000	0.249414
511.000000	0.249839
512.000000	0.250180
513.000000	0.250572
514.000000	0.250892
515.000000	0.251253
516.000000	0.251742
517.000000	0.252127
518.000000	0.252532
519.000000	0.252967
520.000000	0.253279
521.000000	0.253588
522.000000	0.253953
523.000000	0.254339
524.000000	0.254737
525.000000	0.255125
526.000000	0.255517
527.000000	0.255891
528.000000	0.256237
529.000000	0.256593
530.000000	0.256896
531.000000	0.257272
532.000000	0.257679
533.000000	0.257963
534.000000	0.258288
535.000000	0.258696
536.000000	0.259168
537.000000	0.259494
538.000000	0.259798
539.000000	0.260299
540.000000	0.260649
541.000000	0.260935
542.000000	0.261308
543.000000	0.261693
544.000000	0.262044
545.000000	0.262322
546.000000	0.262742
547.000000	0.263083
548.000000	0.263405
549.000000	0.263879
550.000000	0.264282
551.000000	0.264672
552.000000	0.265122
553.000000	0.265559
554.000000	0.265940
555.000000	0.266286
556.000000	0.266803
557.000000	0.267153
558.000000	0.267424
559.000000	0.267935
560.000000	0.268396
561.000000	0.268798
562.000000	0.269116
563.000000	0.269492
564.000000	0.269910
565.000000	0.270231
566.000000	0.270567
567.000000	0.270913
568.000000	0.271248
569.000000	0.271613
570.000000	0.272029
571.000000	0.272443
572.000000	0.272750
573.000000	0.273113
574.000000	0.273479
575.000000	0.273784
576.000000	0.274088
577.000000	0.274393
578.000000	0.274743
579.000000	0.275067
580.000000	0.275446
581.000000	0.275854
582.000000	0.276068
583.000000	0.276384
584.000000	0.276756
585.000000	0.276954
586.000000	0.277162
587.000000	0.277396
588.000000	0.277628
589.000000	0.277811
590.000000	0.278029
591.000000	0.278339
592.000000	0.278712
593.000000	0.278988
594.000000	0.279159
595.000000	0.279387
596.000000	0.279593
597.000000	0.279793
598.000000	0.279939
599.000000	0.280084
600.000000	0.280221
601.000000	0.280297
602.000000	0.280504
603.000000	0.280719
604.000000	0.280901
605.000000	0.281133
606.000000	0.281376
607.000000	0.281646
608.000000	0.281985
609.000000	0.282248
610.000000	0.282485
611.000000	0.282761
612.000000	0.282894
613.000000	0.283026
614.000000	0.283254
615.000000	0.283355
616.000000	0.283379
617.000000	0.283374
618.000000	0.283501
619.000000	0.283588
620.000000	0.283635
621.000000	0.283743
622.000000	0.283723
623.000000	0.283688
624.000000	0.283739
625.000000	0.283769
626.000000	0.283828
627.000000	0.283936
628.000000	0.284056
629.000000	0.284304
630.000000	0.284534
631.000000	0.284727
632.000000	0.284894
633.000000	0.285070
634.000000	0.285261
635.000000	0.285408
636.000000	0.285622
637.000000	0.285900
638.000000	0.286029
639.000000	0.286192
640.000000	0.286443
641.000000	0.286581
642.000000	0.286697
643.000000	0.286828
644.000000	0.286998
645.000000	0.287155
646.000000	0.287310
647.000000	0.287435
648.000000	0.287447
649.000000	0.287504
650.000000	0.287631
651.000000	0.287736
652.000000	0.287912
653.000000	0.288123
654.000000	0.288210
655.000000	0.288348
656.000000	0.288542
657.000000	0.288707
658.000000	0.288835
659.000000	0.288976
660.000000	0.289127
661.000000	0.289218
662.000000	0.289377
663.000000	0.289600
664.000000	0.289708
665.000000	0.289945
666.000000	0.290208
667.000000	0.290338
668.000000	0.290534
669.000000	0.290770
670.000000	0.291003
671.000000	0.291180
672.000000	0.291328
673.000000	0.291469
674.000000	0.291643
675.000000	0.291779
676.000000	0.291906
677.000000	0.292078
678.000000	0.292178
679.000000	0.292344
680.000000	0.292621
681.000000	0.292699
682.000000	0.292906
683.000000	0.293191
684.000000	0.293332
685.000000	0.293470
686.000000	0.293687
687.000000	0.293973
688.000000	0.294187
689.000000	0.294337
690.000000	0.294493
691.000000	0.294703
692.000000	0.294883
693.000000	0.295075
694.000000	0.295296
695.000000	0.295496
696.000000	0.295663
697.000000	0.295805
698.000000	0.295892
699.000000	0.296043
700.000000	0.296322
701.000000	0.296478
702.000000	0.296645
703.000000	0.296839
704.000000	0.296963
705.000000	0.297181
706.000000	0.297450
707.000000	0.297724
708.000000	0.297879
709.000000	0.298019
710.000000	0.298249
711.000000	0.298438
712.000000	0.298522
713.000000	0.298576
714.000000	0.298828
715.000000	0.299127
716.000000	0.299392
717.000000	0.299544
718.000000	0.299686
719.000000	0.299852
720.000000	0.300059
721.000000	0.300270
722.000000	0.300431
723.000000	0.300588
724.000000	0.300747
725.000000	0.300861
726.000000	0.301011
727.000000	0.301164
728.000000	0.301304
729.000000	0.301437
730.000000	0.301540
731.000000	0.301736
732.000000	0.301902
733.000000	0.302006
734.000000	0.302008
735.000000	0.302117
736.000000	0.302398
737.000000	0.302593
738.000000	0.302639
739.000000	0.302732
740.000000	0.302849
741.000000	0.302941
742.000000	0.303106
743.000000	0.303309
744.000000	0.303456
745.000000	0.303544
746.000000	0.303626
747.000000	0.303681
748.000000	0.303782
749.000000	0.303904
750.000000	0.303970
751.000000	0.303904
752.000000	0.303890
753.000000	0.303968
754.000000	0.304034
755.000000	0.304155
756.000000	0.304324
757.000000	0.304467
758.000000	0.304604
759.000000	0.304712
760.000000	0.304728
761.000000	0.304777
762.000000	0.304854
763.000000	0.304911
764.000000	0.304950
765.000000	0.305051
766.000000	0.305158
767.000000	0.305200
768.000000	0.305224
769.000000	0.305177
770.000000	0.305093
771.000000	0.305132
772.000000	0.305227
773.000000	0.305295
774.000000	0.305369
775.000000	0.305412
776.000000	0.305503
777.000000	0.305656
778.000000	0.305762
779.000000	0.305679
780.000000	0.305484
781.000000	0.305449
782.000000	0.305406
783.000000	0.305419
784.000000	0.305415
785.000000	0.305425
786.000000	0.305452
787.000000	0.305493
788.000000	0.305556
789.000000	0.305608
790.000000	0.305634
791.000000	0.305681
792.000000	0.305833
793.000000	0.305946
794.000000	0.305916
795.000000	0.305878
796.000000	0.305798
797.000000	0.305684
798.000000	0.305597
799.000000	0.305615
800.000000	0.305630
801.000000	0.305515
802.000000	0.305411
803.000000	0.305330
804.000000	0.305319
805.000000	0.305415
806.000000	0.305406
807.000000	0.305414
808.000000	0.305552
809.000000	0.305497
810.000000	0.305474
811.000000	0.305605
812.000000	0.305501
813.000000	0.305390
814.000000	0.305329
815.000000	0.305250
816.000000	0.305321
817.000000	0.305409
818.000000	0.305291
819.000000	0.305233
820.000000	0.305244
821.000000	0.305211
822.000000	0.305005
823.000000	0.304923
824.000000	0.304942
825.000000	0.305016
826.000000	0.304945
827.000000	0.304845
828.000000	0.304834
829.000000	0.304802
830.000000	0.304723
831.000000	0.304680
832.000000	0.304650
833.000000	0.304639
834.000000	0.304599
835.000000	0.304540
836.000000	0.304539
837.000000	0.304452
838.000000	0.304311
839.000000	0.304237
840.000000	0.304200
841.000000	0.304190
842.000000	0.304149
843.000000	0.304064
844.000000	0.303936
845.000000	0.303758
846.000000	0.303597
847.000000	0.303496
848.000000	0.303413
849.000000	0.303333
850.000000	0.303318
851.000000	0.303272
852.000000	0.303207
853.000000	0.303172
854.000000	0.303030
855.000000	0.302939
856.000000	0.302920
857.000000	0.302798
858.000000	0.302720
859.000000	0.302652
860.000000	0.302466
861.000000	0.302383
862.000000	0.302403
863.000000	0.302360
864.000000	0.302210
865.000000	0.302050
866.000000	0.301957
867.000000	0.301854
868.000000	0.301917
869.000000	0.301925
870.000000	0.301662
871.000000	0.301458
872.000000	0.301347
873.000000	0.301251
874.000000	0.301168
875.000000	0.301020
876.000000	0.300807
877.000000	0.300527
878.000000	0.300486
879.000000	0.300485
880.000000	0.300269
881.000000	0.300069
882.000000	0.299869
883.000000	0.299651
884.000000	0.299342
885.000000	0.299104
886.000000	0.298990
887.000000	0.298945
888.000000	0.298637
889.000000	0.298441
890.000000	0.298326
891.000000	0.298293
892.000000	0.298075
893.000000	0.297757
894.000000	0.297528
895.000000	0.297318
896.000000	0.297068
897.000000	0.296863
898.000000	0.296775
899.000000	0.296486
900.000000	0.296271
901.000000	0.296159
902.000000	0.295917
903.000000	0.295719
904.000000	0.295574
905.000000	0.295378
906.000000	0.295400
907.000000	0.295387
908.000000	0.295289
909.000000	0.295126
910.000000	0.294751
911.000000	0.294302
912.000000	0.293986
913.000000	0.293910
914.000000	0.293885
915.000000	0.293863
916.000000	0.293746
917.000000	0.293497
918.000000	0.293161
919.000000	0.292795
920.000000	0.292506
921.000000	0.292280
922.000000	0.292075
923.000000	0.291823
924.000000	0.291705
925.000000	0.291547
926.000000	0.291272
927.000000	0.290922
928.000000	0.290564
929.000000	0.290303
930.000000	0.290189
931.000000	0.289947
932.000000	0.289618
933.000000	0.289278
934.000000	0.288926
935.000000	0.288615
936.000000	0.288441
937.000000	0.288357
938.000000	0.288343
939.000000	0.288190
940.000000	0.287873
941.000000	0.287650
942.000000	0.287500
943.000000	0.287377
944.000000	0.287127
945.000000	0.286814
946.000000	0.286497
947.000000	0.286296
948.000000	0.286189
949.000000	0.285789
950.000000	0.285625
951.000000	0.285667
952.000000	0.285451
953.000000	0.285309
954.000000	0.285092
955.000000	0.284673
956.000000	0.284428
957.000000	0.284353
958.000000	0.284191
959.000000	0.283781
960.000000	0.283529
961.000000	0.283428
962.000000	0.283264
963.000000	0.282704
964.000000	0.282486
965.000000	0.282470
966.000000	0.282312
967.000000	0.282216
968.000000	0.281963
969.000000	0.281508
970.000000	0.281066
971.000000	0.281032
972.000000	0.281087
973.000000	0.280948
974.000000	0.280653
975.000000	0.280322
976.000000	0.280075
977.000000	0.279898
978.000000	0.279411
979.000000	0.279554
980.000000	0.279632
981.000000	0.278970
982.000000	0.278991
983.000000	0.279004
984.000000	0.278778
985.000000	0.278578
986.000000	0.278351
987.000000	0.278289
988.000000	0.278346
989.000000	0.278258
990.000000	0.278327
991.000000	0.278024
992.000000	0.277043
993.000000	0.277207
994.000000	0.277335
995.000000	0.277079
996.000000	0.276532
997.000000	0.276650
998.000000	0.276693
999.000000	0.276390
1000.000000	0.276241
1001.000000	0.276355
1002.000000	0.276595
1003.000000	0.276374
1004.000000	0.276002
1005.000000	0.275173
1006.000000	0.274680
1007.000000	0.273928
1008.000000	0.273873
1009.000000	0.274758
1010.000000	0.275184
1011.000000	0.274791
1012.000000	0.274140
1013.000000	0.273195
1014.000000	0.272886
1015.000000	0.273133
1016.000000	0.273177
1017.000000	0.272957
1018.000000	0.272678
1019.000000	0.272788
1020.000000	0.273836
1021.000000	0.273891
1022.000000	0.273502
1023.000000	0.273724
1024.000000	0.273895
1025.000000	0.273713
1026.000000	0.274056
1027.000000	0.274040
1028.000000	0.273141
1029.000000	0.272644
1030.000000	0.271977
1031.000000	0.271784
1032.000000	0.272640
1033.000000	0.272827
1034.000000	0.272960
1035.000000	0.273347
1036.000000	0.273617
1037.000000	0.273540
1038.000000	0.273485
1039.000000	0.273821
1040.000000	0.273482
1041.000000	0.273173
1042.000000	0.273522
1043.000000	0.273890
1044.000000	0.274040
1045.000000	0.274030
1046.000000	0.273729
1047.000000	0.273930
1048.000000	0.274531
1049.000000	0.274666
1050.000000	0.274591
1051.000000	0.274873
1052.000000	0.275117
1053.000000	0.275067
1054.000000	0.275363
1055.000000	0.275859
1056.000000	0.276357
1057.000000	0.276384
1058.000000	0.276706
1059.000000	0.276548
1060.000000	0.276011
1061.000000	0.275933
1062.000000	0.276312
1063.000000	0.276918
1064.000000	0.277539
1065.000000	0.278429
1066.000000	0.278839
1067.000000	0.279295
1068.000000	0.279368
1069.000000	0.278683
1070.000000	0.278441
1071.000000	0.278103
1072.000000	0.278094
1073.000000	0.278303
1074.000000	0.278933
1075.000000	0.279315
1076.000000	0.279887
1077.000000	0.280110
1078.000000	0.279866
1079.000000	0.280020
1080.000000	0.280173
1081.000000	0.280445
1082.000000	0.281217
1083.000000	0.281508
1084.000000	0.281559
1085.000000	0.281717
1086.000000	0.281606
1087.000000	0.281704
1088.000000	0.281930
1089.000000	0.282149
1090.000000	0.282324
1091.000000	0.282595
1092.000000	0.282928
1093.000000	0.283182
1094.000000	0.283430
1095.000000	0.283581
1096.000000	0.283815
1097.000000	0.284043
1098.000000	0.284367
1099.000000	0.284778
1100.000000	0.285086
1101.000000	0.285365
1102.000000	0.285566
1103.000000	0.285653
1104.000000	0.285787
1105.000000	0.285818
1106.000000	0.285968
1107.000000	0.285975
1108.000000	0.286212
1109.000000	0.286604
1110.000000	0.287401
1111.000000	0.287622
1112.000000	0.287719
1113.000000	0.287979
1114.000000	0.287987
1115.000000	0.288195
1116.000000	0.288730
1117.000000	0.289046
1118.000000	0.289227
1119.000000	0.289346
1120.000000	0.289425
1121.000000	0.289552
1122.000000	0.289539
1123.000000	0.289914
1124.000000	0.290492
1125.000000	0.290850
1126.000000	0.291152
1127.000000	0.291404
1128.000000	0.291569
1129.000000	0.291550
1130.000000	0.291700
1131.000000	0.291972
1132.000000	0.292062
1133.000000	0.292170
1134.000000	0.292206
1135.000000	0.291955
1136.000000	0.292010
1137.000000	0.292240
1138.000000	0.292293
1139.000000	0.292474
1140.000000	0.292692
1141.000000	0.292666
1142.000000	0.292830
1143.000000	0.293224
1144.000000	0.293532
1145.000000	0.293676
1146.000000	0.293857
1147.000000	0.293747
1148.000000	0.293123
1149.000000	0.293240
1150.000000	0.293561
1151.000000	0.293803
1152.000000	0.294441
1153.000000	0.294728
1154.000000	0.294734
1155.000000	0.294712
1156.000000	0.294586
1157.000000	0.294580
1158.000000	0.294383
1159.000000	0.294345
1160.000000	0.294637
1161.000000	0.294684
1162.000000	0.294693
1163.000000	0.294706
1164.000000	0.294724
1165.000000	0.294572
1166.000000	0.294638
1167.000000	0.294872
1168.000000	0.294858
1169.000000	0.294794
1170.000000	0.294779
1171.000000	0.294608
1172.000000	0.294681
1173.000000	0.294974
1174.000000	0.295104
1175.000000	0.295238
1176.000000	0.295295
1177.000000	0.295241
1178.000000	0.295299
1179.000000	0.295521
1180.000000	0.295530
1181.000000	0.295557
1182.000000	0.295483
1183.000000	0.295500
1184.000000	0.295571
1185.000000	0.295680
1186.000000	0.296011
1187.000000	0.296077
1188.000000	0.296006
1189.000000	0.295942
1190.000000	0.295844
1191.000000	0.295782
1192.000000	0.295758
1193.000000	0.295858
1194.000000	0.295904
1195.000000	0.295984
1196.000000	0.296121
1197.000000	0.296207
1198.000000	0.296302
1199.000000	0.296361
1200.000000	0.296355
1201.000000	0.296402
1202.000000	0.296386
1203.000000	0.296355
1204.000000	0.296282
1205.000000	0.296206
1206.000000	0.296196
1207.000000	0.296332
1208.000000	0.296344
1209.000000	0.296442
1210.000000	0.296437
1211.000000	0.296300
1212.000000	0.296232
1213.000000	0.296251
1214.000000	0.296208
1215.000000	0.296092
1216.000000	0.296046
1217.000000	0.295940
1218.000000	0.295850
1219.000000	0.295790
1220.000000	0.295875
1221.000000	0.295920
1222.000000	0.296000
1223.000000	0.296161
1224.000000	0.296231
1225.000000	0.296167
1226.000000	0.296178
1227.000000	0.296085
1228.000000	0.296011
1229.000000	0.296048
1230.000000	0.296140
1231.000000	0.296214
1232.000000	0.296546
1233.000000	0.296740
1234.000000	0.296875
1235.000000	0.296888
1236.000000	0.296682
1237.000000	0.296648
1238.000000	0.296580
1239.000000	0.296481
1240.000000	0.296440
1241.000000	0.296344
1242.000000	0.296249
1243.000000	0.296212
1244.000000	0.296162
1245.000000	0.296260
1246.000000	0.296362
1247.000000	0.296392
1248.000000	0.296404
1249.000000	0.296383
1250.000000	0.296401
1251.000000	0.296390
1252.000000	0.296333
1253.000000	0.296370
1254.000000	0.296347
1255.000000	0.296145
1256.000000	0.296087
1257.000000	0.296154
1258.000000	0.296247
1259.000000	0.296424
1260.000000	0.296464
1261.000000	0.296336
1262.000000	0.296299
1263.000000	0.296243
1264.000000	0.296083
1265.000000	0.296211
1266.000000	0.296429
1267.000000	0.296523
1268.000000	0.296560
1269.000000	0.296373
1270.000000	0.296203
1271.000000	0.296068
1272.000000	0.296075
1273.000000	0.296310
1274.000000	0.296429
1275.000000	0.296458
1276.000000	0.296487
1277.000000	0.296481
1278.000000	0.296228
1279.000000	0.296174
1280.000000	0.296115
1281.000000	0.296028
1282.000000	0.296019
1283.000000	0.296116
1284.000000	0.296255
1285.000000	0.296249
1286.000000	0.296176
1287.000000	0.296213
1288.000000	0.296151
1289.000000	0.296072
1290.000000	0.296202
1291.000000	0.296247
1292.000000	0.296127
1293.000000	0.296062
1294.000000	0.295925
1295.000000	0.295784
1296.000000	0.295738
1297.000000	0.295698
1298.000000	0.295743
1299.000000	0.295831
1300.000000	0.295916
1301.000000	0.296000
1302.000000	0.295971
1303.000000	0.295937
1304.000000	0.295906
1305.000000	0.295872
1306.000000	0.295877
1307.000000	0.296106
1308.000000	0.296138
1309.000000	0.296042
1310.000000	0.295989
1311.000000	0.295904
1312.000000	0.295662
1313.000000	0.295638
1314.000000	0.295624
1315.000000	0.295593
1316.000000	0.295733
1317.000000	0.295700
1318.000000	0.295655
1319.000000	0.295685
1320.000000	0.295679
1321.000000	0.295753
1322.000000	0.295826
1323.000000	0.295753
1324.000000	0.295659
1325.000000	0.295552
1326.000000	0.295384
1327.000000	0.295274
1328.000000	0.295360
1329.000000	0.295317
1330.000000	0.295184
1331.000000	0.295200
1332.000000	0.295372
1333.000000	0.295375
1334.000000	0.295493
1335.000000	0.295544
1336.000000	0.295396
1337.000000	0.295338
1338.000000	0.295247
1339.000000	0.295212
1340.000000	0.295155
1341.000000	0.295059
1342.000000	0.295002
1343.000000	0.294906
1344.000000	0.294879
1345.000000	0.295125
1346.000000	0.295381
1347.000000	0.295326
1348.000000	0.295373
1349.000000	0.295340
1350.000000	0.295138
1351.000000	0.295105
1352.000000	0.295214
1353.000000	0.295084
1354.000000	0.294907
1355.000000	0.294983
1356.000000	0.295041
1357.000000	0.294913
1358.000000	0.295029
1359.000000	0.295061
1360.000000	0.294967
1361.000000	0.294749
1362.000000	0.294711
1363.000000	0.294588
1364.000000	0.294557
1365.000000	0.294709
1366.000000	0.294690
1367.000000	0.294558
1368.000000	0.294521
1369.000000	0.294565
1370.000000	0.294449
1371.000000	0.294486
1372.000000	0.294587
1373.000000	0.294600
1374.000000	0.294639
1375.000000	0.294577
1376.000000	0.294541
1377.000000	0.294589
1378.000000	0.294588
1379.000000	0.294614
1380.000000	0.294643
1381.000000	0.294443
1382.000000	0.294345
1383.000000	0.294452
1384.000000	0.294280
1385.000000	0.294058
1386.000000	0.294015
1387.000000	0.293847
1388.000000	0.293769
1389.000000	0.293799
1390.000000	0.293670
1391.000000	0.293563
1392.000000	0.293462
1393.000000	0.293311
1394.000000	0.293281
1395.000000	0.293179
1396.000000	0.292889
1397.000000	0.292742
1398.000000	0.292656
1399.000000	0.292564
1400.000000	0.292511
1401.000000	0.292391
1402.000000	0.292312
1403.000000	0.292121
1404.000000	0.291960
1405.000000	0.291876
1406.000000	0.291758
1407.000000	0.291664
1408.000000	0.291481
1409.000000	0.291338
1410.000000	0.291386
1411.000000	0.291377
1412.000000	0.291276
1413.000000	0.291238
1414.000000	0.291113
1415.000000	0.290944
1416.000000	0.290965
1417.000000	0.291105
1418.000000	0.291120
1419.000000	0.291187
1420.000000	0.291207
1421.000000	0.291161
1422.000000	0.291210
1423.000000	0.291374
1424.000000	0.291269
1425.000000	0.291214
1426.000000	0.291217
1427.000000	0.291065
1428.000000	0.291072
1429.000000	0.291119
1430.000000	0.291075
1431.000000	0.291091
1432.000000	0.291048
1433.000000	0.290964
1434.000000	0.290972
1435.000000	0.291030
1436.000000	0.291128
1437.000000	0.291431
1438.000000	0.291497
1439.000000	0.291468
1440.000000	0.291533
1441.000000	0.291503
1442.000000	0.291539
1443.000000	0.291593
1444.000000	0.291732
1445.000000	0.291799
1446.000000	0.291857
1447.000000	0.291940
1448.000000	0.291988
1449.000000	0.292020
1450.000000	0.292107
1451.000000	0.292219
1452.000000	0.292265
1453.000000	0.292293
1454.000000	0.292314
1455.000000	0.292302
1456.000000	0.292320
1457.000000	0.292353
1458.000000	0.292349
1459.000000	0.292300
1460.000000	0.292275
1461.000000	0.292303
1462.000000	0.292248
1463.000000	0.292143
1464.000000	0.292079
1465.000000	0.292012
1466.000000	0.291989
1467.000000	0.292028
1468.000000	0.292116
1469.000000	0.292194
1470.000000	0.292128
1471.000000	0.292156
1472.000000	0.292256
1473.000000	0.292498
1474.000000	0.292656
1475.000000	0.292656
1476.000000	0.292604
1477.000000	0.292533
1478.000000	0.292468
1479.000000	0.292309
1480.000000	0.292276
1481.000000	0.292248
1482.000000	0.292182
1483.000000	0.292162
1484.000000	0.292257
1485.000000	0.292284
1486.000000	0.292254
1487.000000	0.292251
1488.000000	0.292321
1489.000000	0.292397
1490.000000	0.292295
1491.000000	0.292305
1492.000000	0.292359
1493.000000	0.292408
1494.000000	0.292416
1495.000000	0.292457
1496.000000	0.292531
1497.000000	0.292592
1498.000000	0.292660
1499.000000	0.292775
1500.000000	0.292835
1501.000000	0.292866
1502.000000	0.292937
1503.000000	0.292969
1504.000000	0.292899
1505.000000	0.292887
1506.000000	0.292854
1507.000000	0.292808
1508.000000	0.293003
1509.000000	0.293081
1510.000000	0.292952
1511.000000	0.292875
1512.000000	0.292587
1513.000000	0.292365
1514.000000	0.292398
1515.000000	0.292291
1516.000000	0.292313
1517.000000	0.292362
1518.000000	0.292344
1519.000000	0.292424
1520.000000	0.292481
1521.000000	0.292494
1522.000000	0.292570
1523.000000	0.292600
1524.000000	0.292572
1525.000000	0.292611
1526.000000	0.292644
1527.000000	0.292642
1528.000000	0.292688
1529.000000	0.292755
1530.000000	0.292641
1531.000000	0.292618
1532.000000	0.292741
1533.000000	0.292810
1534.000000	0.292993
1535.000000	0.293187
1536.000000	0.293182
1537.000000	0.293196
1538.000000	0.293217
1539.000000	0.293165
1540.000000	0.293178
1541.000000	0.293245
1542.000000	0.293219
1543.000000	0.293127
1544.000000	0.293069
1545.000000	0.293093
1546.000000	0.293110
1547.000000	0.293081
1548.000000	0.292965
1549.000000	0.292743
1550.000000	0.292601
1551.000000	0.292570
1552.000000	0.292510
1553.000000	0.292435
1554.000000	0.292370
1555.000000	0.292338
1556.000000	0.292383
1557.000000	0.292450
1558.000000	0.292516
1559.000000	0.292518
1560.000000	0.292537
1561.000000	0.292630
1562.000000	0.292603
1563.000000	0.292547
1564.000000	0.292553
1565.000000	0.292521
1566.000000	0.292489
1567.000000	0.292603
1568.000000	0.292600
1569.000000	0.292545
1570.000000	0.292583
1571.000000	0.292677
1572.000000	0.292697
1573.000000	0.292782
1574.000000	0.292755
1575.000000	0.292607
1576.000000	0.292560
1577.000000	0.292514
1578.000000	0.292394
1579.000000	0.292321
1580.000000	0.292262
1581.000000	0.292216
1582.000000	0.292170
1583.000000	0.292124
1584.000000	0.292044
1585.000000	0.292026
1586.000000	0.292021
1587.000000	0.292071
1588.000000	0.292076
1589.000000	0.292069
1590.000000	0.292046
1591.000000	0.291961
1592.000000	0.291953
1593.000000	0.292011
1594.000000	0.291981
1595.000000	0.292054
1596.000000	0.292081
1597.000000	0.292035
1598.000000	0.292038
1599.000000	0.292116
1600.000000	0.292097
1601.000000	0.292085
1602.000000	0.292105
1603.000000	0.292153
1604.000000	0.292143
1605.000000	0.292201
1606.000000	0.292115
1607.000000	0.291888
1608.000000	0.291802
1609.000000	0.291798
1610.000000	0.291763
1611.000000	0.291811
1612.000000	0.291815
1613.000000	0.291841
1614.000000	0.291836
1615.000000	0.291936
1616.000000	0.292004
1617.000000	0.291993
1618.000000	0.291923
1619.000000	0.291773
1620.000000	0.291650
1621.000000	0.291452
1622.000000	0.291457
1623.000000	0.291606
1624.000000	0.291662
1625.000000	0.291630
1626.000000	0.291589
1627.000000	0.291490
1628.000000	0.291508
1629.000000	0.291608
1630.000000	0.291661
1631.000000	0.291676
1632.000000	0.291632
1633.000000	0.291535
1634.000000	0.291504
1635.000000	0.291481
1636.000000	0.291514
1637.000000	0.291656
1638.000000	0.291695
1639.000000	0.291782
1640.000000	0.291791
1641.000000	0.291779
1642.000000	0.291753
1643.000000	0.291730
1644.000000	0.291716
1645.000000	0.291711
1646.000000	0.291602
1647.000000	0.291414
1648.000000	0.291377
1649.000000	0.291435
1650.000000	0.291503
1651.000000	0.291816
1652.000000	0.291839
1653.000000	0.291601
1654.000000	0.291572
1655.000000	0.291422
1656.000000	0.291329
1657.000000	0.291486
1658.000000	0.291486
1659.000000	0.291509
1660.000000	0.291534
1661.000000	0.291410
1662.000000	0.291393
1663.000000	0.291441
1664.000000	0.291313
1665.000000	0.291137
1666.000000	0.291169
1667.000000	0.291053
1668.000000	0.291017
1669.000000	0.291154
1670.000000	0.291130
1671.000000	0.291111
1672.000000	0.291091
1673.000000	0.291087
1674.000000	0.290943
1675.000000	0.290752
1676.000000	0.290778
1677.000000	0.290900
1678.000000	0.290940
1679.000000	0.290922
1680.000000	0.290695
1681.000000	0.290590
1682.000000	0.290635
1683.000000	0.290744
1684.000000	0.290991
1685.000000	0.291082
1686.000000	0.291037
1687.000000	0.290981
1688.000000	0.290769
1689.000000	0.290672
1690.000000	0.290680
1691.000000	0.290764
1692.000000	0.290831
1693.000000	0.290745
1694.000000	0.290510
1695.000000	0.290453
1696.000000	0.290746
1697.000000	0.290766
1698.000000	0.290789
1699.000000	0.290838
1700.000000	0.290660
1701.000000	0.290668
1702.000000	0.290677
1703.000000	0.290722
1704.000000	0.290977
1705.000000	0.291042
1706.000000	0.291077
1707.000000	0.291146
1708.000000	0.291035
1709.000000	0.290973
1710.000000	0.291181
1711.000000	0.291222
1712.000000	0.291160
1713.000000	0.291117
1714.000000	0.291016
1715.000000	0.290996
1716.000000	0.291070
1717.000000	0.291079
1718.000000	0.291072
1719.000000	0.291039
1720.000000	0.290981
1721.000000	0.290969
1722.000000	0.290996
1723.000000	0.291017
1724.000000	0.291111
1725.000000	0.291122
1726.000000	0.290978
1727.000000	0.290941
1728.000000	0.290888
1729.000000	0.290722
1730.000000	0.290697
1731.000000	0.290559
1732.000000	0.290173
1733.000000	0.290203
1734.000000	0.290307
1735.000000	0.290400
1736.000000	0.290724
1737.000000	0.290761
1738.000000	0.290612
1739.000000	0.290622
1740.000000	0.290585
1741.000000	0.290613
1742.000000	0.290769
1743.000000	0.290827
1744.000000	0.290846
1745.000000	0.290778
1746.000000	0.290629
1747.000000	0.290475
1748.000000	0.290377
1749.000000	0.290457
1750.000000	0.290396
1751.000000	0.290421
1752.000000	0.290471
1753.000000	0.290319
1754.000000	0.290187
1755.000000	0.290003
1756.000000	0.289847
1757.000000	0.289589
1758.000000	0.289531
1759.000000	0.289696
1760.000000	0.289695
1761.000000	0.289638
1762.000000	0.289654
1763.000000	0.289612
1764.000000	0.289615
1765.000000	0.289716
1766.000000	0.289783
1767.000000	0.289773
1768.000000	0.289687
1769.000000	0.289669
1770.000000	0.289666
1771.000000	0.289491
1772.000000	0.289458
1773.000000	0.289534
1774.000000	0.289504
1775.000000	0.289495
1776.000000	0.289523
1777.000000	0.289439
1778.000000	0.289496
1779.000000	0.289725
1780.000000	0.289734
1781.000000	0.289601
1782.000000	0.289713
1783.000000	0.289842
1784.000000	0.290216
1785.000000	0.290476
1786.000000	0.290310
1787.000000	0.290241
1788.000000	0.290115
1789.000000	0.289838
1790.000000	0.289977
1791.000000	0.289973
1792.000000	0.290137
1793.000000	0.290130
1794.000000	0.289905
1795.000000	0.289795
1796.000000	0.289576
1797.000000	0.289518
1798.000000	0.289616
1799.000000	0.289680
1800.000000	0.289893
1801.000000	0.289375
1802.000000	0.289591
1803.000000	0.290223
1804.000000	0.290595
1805.000000	0.290820
1806.000000	0.291003
1807.000000	0.291574
1808.000000	0.291454
1809.000000	0.290458
1810.000000	0.290018
1811.000000	0.289725
1812.000000	0.289134
1813.000000	0.289189
1814.000000	0.290305
1815.000000	0.290437
1816.000000	0.290482
1817.000000	0.290118
1818.000000	0.289092
1819.000000	0.288269
1820.000000	0.287808
1821.000000	0.287645
1822.000000	0.287768
1823.000000	0.288734
1824.000000	0.288703
1825.000000	0.288415
1826.000000	0.288173
1827.000000	0.287325
1828.000000	0.286455
1829.000000	0.286814
1830.000000	0.287342
1831.000000	0.287721
1832.000000	0.288611
1833.000000	0.289254
1834.000000	0.289931
1835.000000	0.290091
1836.000000	0.290081
1837.000000	0.290061
1838.000000	0.289719
1839.000000	0.288521
1840.000000	0.288234
1841.000000	0.288025
1842.000000	0.288092
1843.000000	0.288257
1844.000000	0.288784
1845.000000	0.290076
1846.000000	0.290629
1847.000000	0.290768
1848.000000	0.291268
1849.000000	0.291039
1850.000000	0.290482
1851.000000	0.290584
1852.000000	0.291154
1853.000000	0.291068
1854.000000	0.290770
1855.000000	0.290472
1856.000000	0.289907
1857.000000	0.288694
1858.000000	0.288163
1859.000000	0.288693
1860.000000	0.288497
1861.000000	0.288545
1862.000000	0.288432
1863.000000	0.288019
1864.000000	0.287882
1865.000000	0.288110
1866.000000	0.288061
1867.000000	0.287946
1868.000000	0.287971
1869.000000	0.287617
1870.000000	0.287122
1871.000000	0.287265
1872.000000	0.287438
1873.000000	0.287621
1874.000000	0.288362
1875.000000	0.288402
1876.000000	0.287703
1877.000000	0.287109
1878.000000	0.286959
1879.000000	0.286087
1880.000000	0.286320
1881.000000	0.286880
1882.000000	0.286741
1883.000000	0.286893
1884.000000	0.287011
1885.000000	0.286979
1886.000000	0.286505
1887.000000	0.285742
1888.000000	0.285238
1889.000000	0.284315
1890.000000	0.283628
1891.000000	0.283159
1892.000000	0.282188
1893.000000	0.281816
1894.000000	0.281641
1895.000000	0.281232
1896.000000	0.281134
1897.000000	0.281394
1898.000000	0.280852
1899.000000	0.280148
1900.000000	0.279901
1901.000000	0.280065
1902.000000	0.280515
1903.000000	0.280899
1904.000000	0.281466
1905.000000	0.281258
1906.000000	0.280660
1907.000000	0.279301
1908.000000	0.278492
1909.000000	0.278041
1910.000000	0.278053
1911.000000	0.278228
1912.000000	0.278293
1913.000000	0.278158
1914.000000	0.277653
1915.000000	0.277516
1916.000000	0.277981
1917.000000	0.278262
1918.000000	0.278721
1919.000000	0.279291
1920.000000	0.279403
1921.000000	0.279393
1922.000000	0.279790
1923.000000	0.279585
1924.000000	0.279358
1925.000000	0.279012
1926.000000	0.278169
1927.000000	0.278604
1928.000000	0.278840
1929.000000	0.279653
1930.000000	0.279986
1931.000000	0.280313
1932.000000	0.279528
1933.000000	0.279017
1934.000000	0.279472
1935.000000	0.279689
1936.000000	0.280408
1937.000000	0.280897
1938.000000	0.280774
1939.000000	0.280743
1940.000000	0.280770
1941.000000	0.280243
1942.000000	0.279865
1943.000000	0.279912
1944.000000	0.279610
1945.000000	0.279784
1946.000000	0.279905
1947.000000	0.279464
1948.000000	0.279330
1949.000000	0.279160
1950.000000	0.279168
1951.000000	0.279242
1952.000000	0.279618
1953.000000	0.279929
1954.000000	0.280348
1955.000000	0.280817
1956.000000	0.281197
1957.000000	0.280845
1958.000000	0.280794
1959.000000	0.280893
1960.000000	0.280264
1961.000000	0.280488
1962.000000	0.280817
1963.000000	0.281465
1964.000000	0.281529
1965.000000	0.282124
1966.000000	0.282322
1967.000000	0.281601
1968.000000	0.281298
1969.000000	0.280830
1970.000000	0.280622
1971.000000	0.281285
1972.000000	0.281664
1973.000000	0.281812
1974.000000	0.282218
1975.000000	0.282350
1976.000000	0.282050
1977.000000	0.281986
1978.000000	0.282105
1979.000000	0.282881
1980.000000	0.283331
1981.000000	0.283506
1982.000000	0.283625
1983.000000	0.283604
1984.000000	0.283540
1985.000000	0.283437
1986.000000	0.283294
1987.000000	0.283229
1988.000000	0.283090
1989.000000	0.282498
1990.000000	0.282071
1991.000000	0.282002
1992.000000	0.281774
1993.000000	0.282122
1994.000000	0.283063
1995.000000	0.283426
1996.000000	0.283997
1997.000000	0.284198
1998.000000	0.284134
1999.000000	0.283978
2000.000000	0.283698
2001.000000	0.283083
2002.000000	0.282795
2003.000000	0.282604
2004.000000	0.282340
2005.000000	0.282284
2006.000000	0.282131
2007.000000	0.282147
2008.000000	0.282391
2009.000000	0.283074
2010.000000	0.283430
2011.000000	0.283724
2012.000000	0.283798
2013.000000	0.283746
2014.000000	0.283374
2015.000000	0.282732
2016.000000	0.282493
2017.000000	0.282186
2018.000000	0.282033
2019.000000	0.282337
2020.000000	0.282352
2021.000000	0.282349
2022.000000	0.282508
2023.000000	0.282223
2024.000000	0.281313
2025.000000	0.281089
2026.000000	0.280671
2027.000000	0.280704
2028.000000	0.281357
2029.000000	0.281837
2030.000000	0.282373
2031.000000	0.282769
2032.000000	0.282774
2033.000000	0.283529
2034.000000	0.284023
2035.000000	0.284649
2036.000000	0.284839
2037.000000	0.285214
2038.000000	0.285113
2039.000000	0.284596
2040.000000	0.284233
2041.000000	0.283430
2042.000000	0.283124
2043.000000	0.282908
2044.000000	0.282602
2045.000000	0.282626
2046.000000	0.282090
2047.000000	0.281992
2048.000000	0.282015
2049.000000	0.282170
2050.000000	0.282207
2051.000000	0.282336
2052.000000	0.282609
2053.000000	0.282502
2054.000000	0.282503
2055.000000	0.282411
2056.000000	0.282379
2057.000000	0.282293
2058.000000	0.282009
2059.000000	0.282506
2060.000000	0.282738
2061.000000	0.282882
2062.000000	0.282834
2063.000000	0.282872
2064.000000	0.282589
2065.000000	0.282148
2066.000000	0.281922
2067.000000	0.281757
2068.000000	0.282154
2069.000000	0.282937
2070.000000	0.282947
2071.000000	0.282812
2072.000000	0.282894
2073.000000	0.282327
2074.000000	0.282102
2075.000000	0.281896
2076.000000	0.281859
2077.000000	0.281604
2078.000000	0.281155
2079.000000	0.280823
2080.000000	0.280520
2081.000000	0.280360
2082.000000	0.280326
2083.000000	0.280478
2084.000000	0.280287
2085.000000	0.280093
2086.000000	0.280238
2087.000000	0.280053
2088.000000	0.280235
2089.000000	0.281095
2090.000000	0.281450
2091.000000	0.281929
2092.000000	0.282034
2093.000000	0.281693
2094.000000	0.281369
2095.000000	0.280383
2096.000000	0.280290
2097.000000	0.280582
2098.000000	0.281300
2099.000000	0.281495
2100.000000	0.281395
2101.000000	0.280707
2102.000000	0.280061
2103.000000	0.280185
2104.000000	0.280831
2105.000000	0.280831
2106.000000	0.280495
2107.000000	0.280704
2108.000000	0.280583
2109.000000	0.280980
2110.000000	0.282271
2111.000000	0.282813
2112.000000	0.283003
2113.000000	0.283182
2114.000000	0.282800
2115.000000	0.282979
2116.000000	0.282608
2117.000000	0.281518
2118.000000	0.281249
2119.000000	0.280653
2120.000000	0.280409
2121.000000	0.280669
2122.000000	0.280825
2123.000000	0.281103
2124.000000	0.281078
2125.000000	0.281269
2126.000000	0.281105
2127.000000	0.280382
2128.000000	0.279885
2129.000000	0.279568
2130.000000	0.278343
2131.000000	0.277541
2132.000000	0.277928
2133.000000	0.278000
2134.000000	0.278805
2135.000000	0.279907
2136.000000	0.279461
2137.000000	0.279341
2138.000000	0.278670
2139.000000	0.279003
2140.000000	0.279720
2141.000000	0.280511
2142.000000	0.282462
2143.000000	0.283041
2144.000000	0.282778
2145.000000	0.282754
2146.000000	0.282347
2147.000000	0.282286
2148.000000	0.283118
2149.000000	0.283735
2150.000000	0.282679
2151.000000	0.282230
2152.000000	0.281143
2153.000000	0.279691
2154.000000	0.279155
2155.000000	0.279868
2156.000000	0.279827
2157.000000	0.279534
2158.000000	0.279569
2159.000000	0.279895
2160.000000	0.280036
2161.000000	0.280342
2162.000000	0.280638
2163.000000	0.280583
2164.000000	0.280734
2165.000000	0.281163
2166.000000	0.281276
2167.000000	0.281467
2168.000000	0.281100
2169.000000	0.281044
2170.000000	0.281432
2171.000000	0.281159
2172.000000	0.280935
2173.000000	0.280625
2174.000000	0.279444
2175.000000	0.278938
2176.000000	0.279012
2177.000000	0.278793
2178.000000	0.278444
2179.000000	0.278536
2180.000000	0.278673
2181.000000	0.279131
2182.000000	0.279145
2183.000000	0.280455
2184.000000	0.280798
2185.000000	0.280441
2186.000000	0.280401
2187.000000	0.279303
2188.000000	0.278364
2189.000000	0.278019
2190.000000	0.278103
2191.000000	0.278611
2192.000000	0.277726
2193.000000	0.275812
2194.000000	0.274949
2195.000000	0.272743
2196.000000	0.272208
2197.000000	0.274053
2198.000000	0.275139
2199.000000	0.276934
2200.000000	0.278314
2201.000000	0.280260
2202.000000	0.280602
2203.000000	0.279582
2204.000000	0.277536
2205.000000	0.276638
2206.000000	0.274730
2207.000000	0.274649
2208.000000	0.275716
2209.000000	0.274032
2210.000000	0.273881
2211.000000	0.273355
2212.000000	0.273918
2213.000000	0.274404
2214.000000	0.276197
2215.000000	0.276404
2216.000000	0.275345
2217.000000	0.275262
2218.000000	0.275267
2219.000000	0.275167
2220.000000	0.276568
2221.000000	0.275500
2222.000000	0.271420
2223.000000	0.270126
2224.000000	0.267928
2225.000000	0.268628
2226.000000	0.271632
2227.000000	0.274020
2228.000000	0.275129
2229.000000	0.275495
2230.000000	0.276619
2231.000000	0.276812
2232.000000	0.277646
2233.000000	0.278987
2234.000000	0.278545
2235.000000	0.279984
2236.000000	0.280148
2237.000000	0.280017
2238.000000	0.279279
2239.000000	0.277323
2240.000000	0.275819
2241.000000	0.273593
2242.000000	0.273019
2243.000000	0.273263
2244.000000	0.274336
2245.000000	0.277390
2246.000000	0.278994
2247.000000	0.280607
2248.000000	0.281345
2249.000000	0.281769
2250.000000	0.280666
2251.000000	0.278475
2252.000000	0.277875
2253.000000	0.276294
2254.000000	0.275179
2255.000000	0.276825
2256.000000	0.279372
2257.000000	0.281329
2258.000000	0.282464
2259.000000	0.282366
2260.000000	0.278215
2261.000000	0.276056
2262.000000	0.273367
2263.000000	0.271771
2264.000000	0.271240
2265.000000	0.271752
2266.000000	0.272405
2267.000000	0.273765
2268.000000	0.277046
2269.000000	0.277780
2270.000000	0.277546
2271.000000	0.278012
2272.000000	0.278035
2273.000000	0.277964
2274.000000	0.278862
2275.000000	0.278384
2276.000000	0.276552
2277.000000	0.274585
2278.000000	0.272834
2279.000000	0.271548
2280.000000	0.273249
2281.000000	0.274054
2282.000000	0.273791
2283.000000	0.273671
2284.000000	0.271273
2285.000000	0.269489
2286.000000	0.269352
2287.000000	0.268181
2288.000000	0.268705
2289.000000	0.268118
2290.000000	0.266438
2291.000000	0.266148
2292.000000	0.263908
2293.000000	0.263510
2294.000000	0.263789
2295.000000	0.264604
2296.000000	0.266150
2297.000000	0.269444
2298.000000	0.271186
2299.000000	0.272989
2300.000000	0.274003
2301.000000	0.274279
2302.000000	0.274251
2303.000000	0.273706
2304.000000	0.273668
2305.000000	0.273033
2306.000000	0.273193
2307.000000	0.274292
2308.000000	0.274308
2309.000000	0.274056
2310.000000	0.272859
2311.000000	0.272637
2312.000000	0.272736
2313.000000	0.272154
2314.000000	0.272173
2315.000000	0.270224
2316.000000	0.268630
2317.000000	0.269405
2318.000000	0.270923
2319.000000	0.273174
2320.000000	0.274264
2321.000000	0.273833
2322.000000	0.274448
2323.000000	0.273670
2324.000000	0.271828
2325.000000	0.272748
2326.000000	0.271214
2327.000000	0.269676
2328.000000	0.270594
2329.000000	0.267509
2330.000000	0.266437
2331.000000	0.268370
2332.000000	0.268110
2333.000000	0.270450
2334.000000	0.272721
2335.000000	0.274183
2336.000000	0.274965
2337.000000	0.274629
2338.000000	0.273322
2339.000000	0.272187
2340.000000	0.268244
2341.000000	0.267777
2342.000000	0.269498
2343.000000	0.270290
2344.000000	0.273002
2345.000000	0.274685
2346.000000	0.275732
2347.000000	0.276517
2348.000000	0.277880
2349.000000	0.275969
2350.000000	0.274004
2351.000000	0.272600
2352.000000	0.271554
2353.000000	0.274060
2354.000000	0.274994
2355.000000	0.275224
2356.000000	0.272800
2357.000000	0.266985
2358.000000	0.263672
2359.000000	0.261321
2360.000000	0.260264
2361.000000	0.262874
2362.000000	0.264788
2363.000000	0.266574
2364.000000	0.267484
2365.000000	0.266645
2366.000000	0.267527
2367.000000	0.267460
2368.000000	0.270315
2369.000000	0.273779
2370.000000	0.272486
2371.000000	0.272273
2372.000000	0.271407
2373.000000	0.270598
2374.000000	0.270164
2375.000000	0.270342
2376.000000	0.267484
2377.000000	0.264287
2378.000000	0.269134
2379.000000	0.273408
2380.000000	0.279597
2381.000000	0.282939
2382.000000	0.279637
2383.000000	0.278046
2384.000000	0.275598
2385.000000	0.274291
2386.000000	0.274623
2387.000000	0.272756
2388.000000	0.269669
2389.000000	0.266658
2390.000000	0.263109
2391.000000	0.258733
2392.000000	0.258596
2393.000000	0.261233
2394.000000	0.260123
2395.000000	0.262254
2396.000000	0.261147
2397.000000	0.257103
2398.000000	0.260961
2399.000000	0.269237
2400.000000	0.277977
2401.000000	0.280055
2402.000000	0.282091
2403.000000	0.278633
2404.000000	0.265382
2405.000000	0.261022
2406.000000	0.256853
2407.000000	0.248105
2408.000000	0.251535
2409.000000	0.258748
2410.000000	0.260058
2411.000000	0.259685
2412.000000	0.254110
2413.000000	0.246264
2414.000000	0.239628
2415.000000	0.239945
2416.000000	0.246512
2417.000000	0.248876
2418.000000	0.250428
2419.000000	0.251746
2420.000000	0.251068
2421.000000	0.246088
2422.000000	0.242604
2423.000000	0.245710
2424.000000	0.245347
2425.000000	0.247904
2426.000000	0.252709
2427.000000	0.256157
2428.000000	0.256146
2429.000000	0.255793
2430.000000	0.268738
2431.000000	0.276317
2432.000000	0.282019
2433.000000	0.290990
2434.000000	0.286963
2435.000000	0.279626
2436.000000	0.267895
2437.000000	0.258268
2438.000000	0.247967
2439.000000	0.232138
2440.000000	0.221212
2441.000000	0.210769
2442.000000	0.223893
2443.000000	0.243996
2444.000000	0.246595
2445.000000	0.262105
2446.000000	0.270198
2447.000000	0.266297
2448.000000	0.282412
2449.000000	0.284000
2450.000000	0.264324
2451.000000	0.256875
2452.000000	0.240775
2453.000000	0.212030
2454.000000	0.202747
2455.000000	0.185505
2456.000000	0.164047
2457.000000	0.178690
2458.000000	0.191761
2459.000000	0.200731
2460.000000	0.223131
2461.000000	0.223523
2462.000000	0.209514
2463.000000	0.197703
2464.000000	0.191402
2465.000000	0.196535
2466.000000	0.198548
2467.000000	0.199692
2468.000000	0.210205
2469.000000	0.214108
2470.000000	0.214411
2471.000000	0.216653
2472.000000	0.216165
2473.000000	0.203980
2474.000000	0.194086
2475.000000	0.204176
2476.000000	0.186420
2477.000000	0.184924
2478.000000	0.201603
2479.000000	0.200500
2480.000000	0.231292
2481.000000	0.250223
2482.000000	0.262546
2483.000000	0.266725
2484.000000	0.260920
2485.000000	0.273111
2486.000000	0.264333
2487.000000	0.282223
2488.000000	0.283500
2489.000000	0.249905
2490.000000	0.224786
2491.000000	0.177348
2492.000000	0.158244
2493.000000	0.173654
2494.000000	0.179985
2495.000000	0.194730
2496.000000	0.198352
2497.000000	0.174936
2498.000000	0.165808
2499.000000	0.184860
2500.000000	0.181513
