# Wavelength	NAu-1-10_HEX-20_FV7-70_00002.asd.rts.txt
350.000000	0.178865
351.000000	0.182869
352.000000	0.174218
353.000000	0.173894
354.000000	0.188531
355.000000	0.192006
356.000000	0.183194
357.000000	0.174207
358.000000	0.185930
359.000000	0.185415
360.000000	0.175350
361.000000	0.167487
362.000000	0.173770
363.000000	0.184315
364.000000	0.188395
365.000000	0.177650
366.000000	0.174525
367.000000	0.180326
368.000000	0.178781
369.000000	0.182077
370.000000	0.182937
371.000000	0.172416
372.000000	0.173099
373.000000	0.179999
374.000000	0.185708
375.000000	0.184062
376.000000	0.182137
377.000000	0.182639
378.000000	0.184882
379.000000	0.185811
380.000000	0.186810
381.000000	0.190235
382.000000	0.185631
383.000000	0.182571
384.000000	0.187064
385.000000	0.189490
386.000000	0.189768
387.000000	0.189075
388.000000	0.189693
389.000000	0.189816
390.000000	0.189934
391.000000	0.191005
392.000000	0.193569
393.000000	0.194811
394.000000	0.193477
395.000000	0.194385
396.000000	0.195648
397.000000	0.196317
398.000000	0.196864
399.000000	0.196958
400.000000	0.196750
401.000000	0.196537
402.000000	0.197428
403.000000	0.198902
404.000000	0.200191
405.000000	0.200007
406.000000	0.200268
407.000000	0.201384
408.000000	0.200868
409.000000	0.201049
410.000000	0.202012
411.000000	0.202599
412.000000	0.203393
413.000000	0.203725
414.000000	0.203098
415.000000	0.203249
416.000000	0.203613
417.000000	0.203923
418.000000	0.205165
419.000000	0.205491
420.000000	0.205003
421.000000	0.205451
422.000000	0.205982
423.000000	0.206452
424.000000	0.206943
425.000000	0.207239
426.000000	0.207457
427.000000	0.207640
428.000000	0.207462
429.000000	0.207467
430.000000	0.207842
431.000000	0.208364
432.000000	0.208502
433.000000	0.208454
434.000000	0.208852
435.000000	0.209352
436.000000	0.209519
437.000000	0.209155
438.000000	0.209289
439.000000	0.209407
440.000000	0.209415
441.000000	0.209986
442.000000	0.210116
443.000000	0.209795
444.000000	0.209847
445.000000	0.209838
446.000000	0.209840
447.000000	0.209932
448.000000	0.210618
449.000000	0.211214
450.000000	0.211349
451.000000	0.211722
452.000000	0.212280
453.000000	0.212921
454.000000	0.213687
455.000000	0.214359
456.000000	0.214956
457.000000	0.215467
458.000000	0.216207
459.000000	0.216943
460.000000	0.217474
461.000000	0.217899
462.000000	0.218229
463.000000	0.218490
464.000000	0.219307
465.000000	0.219658
466.000000	0.219725
467.000000	0.220576
468.000000	0.220877
469.000000	0.220878
470.000000	0.221278
471.000000	0.221561
472.000000	0.221740
473.000000	0.221952
474.000000	0.222474
475.000000	0.222736
476.000000	0.222825
477.000000	0.223256
478.000000	0.223570
479.000000	0.223842
480.000000	0.224033
481.000000	0.224154
482.000000	0.224337
483.000000	0.224507
484.000000	0.224725
485.000000	0.225121
486.000000	0.225739
487.000000	0.225910
488.000000	0.226157
489.000000	0.226528
490.000000	0.226759
491.000000	0.226897
492.000000	0.227154
493.000000	0.227609
494.000000	0.228018
495.000000	0.228296
496.000000	0.228444
497.000000	0.228779
498.000000	0.229198
499.000000	0.229632
500.000000	0.229847
501.000000	0.230177
502.000000	0.230556
503.000000	0.230687
504.000000	0.230963
505.000000	0.231390
506.000000	0.231872
507.000000	0.232178
508.000000	0.232529
509.000000	0.232947
510.000000	0.233095
511.000000	0.233389
512.000000	0.233860
513.000000	0.234188
514.000000	0.234601
515.000000	0.235044
516.000000	0.235342
517.000000	0.235655
518.000000	0.236054
519.000000	0.236486
520.000000	0.236944
521.000000	0.237267
522.000000	0.237482
523.000000	0.237912
524.000000	0.238256
525.000000	0.238535
526.000000	0.238974
527.000000	0.239341
528.000000	0.239638
529.000000	0.239976
530.000000	0.240465
531.000000	0.240925
532.000000	0.241214
533.000000	0.241646
534.000000	0.242062
535.000000	0.242417
536.000000	0.242797
537.000000	0.243164
538.000000	0.243510
539.000000	0.243837
540.000000	0.244249
541.000000	0.244630
542.000000	0.244922
543.000000	0.245276
544.000000	0.245663
545.000000	0.246015
546.000000	0.246434
547.000000	0.246886
548.000000	0.247345
549.000000	0.247700
550.000000	0.248072
551.000000	0.248457
552.000000	0.248780
553.000000	0.249097
554.000000	0.249499
555.000000	0.249996
556.000000	0.250340
557.000000	0.250628
558.000000	0.251027
559.000000	0.251490
560.000000	0.251870
561.000000	0.252241
562.000000	0.252642
563.000000	0.252990
564.000000	0.253417
565.000000	0.253922
566.000000	0.254245
567.000000	0.254563
568.000000	0.254956
569.000000	0.255321
570.000000	0.255668
571.000000	0.255996
572.000000	0.256323
573.000000	0.256631
574.000000	0.256929
575.000000	0.257283
576.000000	0.257668
577.000000	0.257993
578.000000	0.258265
579.000000	0.258576
580.000000	0.258913
581.000000	0.259234
582.000000	0.259439
583.000000	0.259696
584.000000	0.259984
585.000000	0.260182
586.000000	0.260409
587.000000	0.260703
588.000000	0.261061
589.000000	0.261376
590.000000	0.261644
591.000000	0.261873
592.000000	0.262074
593.000000	0.262321
594.000000	0.262602
595.000000	0.262814
596.000000	0.262997
597.000000	0.263191
598.000000	0.263347
599.000000	0.263499
600.000000	0.263705
601.000000	0.263917
602.000000	0.264066
603.000000	0.264160
604.000000	0.264262
605.000000	0.264516
606.000000	0.264691
607.000000	0.264754
608.000000	0.264799
609.000000	0.265015
610.000000	0.265295
611.000000	0.265474
612.000000	0.265675
613.000000	0.265829
614.000000	0.265929
615.000000	0.265991
616.000000	0.266162
617.000000	0.266394
618.000000	0.266535
619.000000	0.266657
620.000000	0.266766
621.000000	0.266899
622.000000	0.266987
623.000000	0.267055
624.000000	0.267149
625.000000	0.267378
626.000000	0.267549
627.000000	0.267617
628.000000	0.267767
629.000000	0.268011
630.000000	0.268218
631.000000	0.268421
632.000000	0.268511
633.000000	0.268561
634.000000	0.268655
635.000000	0.268814
636.000000	0.268974
637.000000	0.269086
638.000000	0.269197
639.000000	0.269351
640.000000	0.269560
641.000000	0.269646
642.000000	0.269810
643.000000	0.270004
644.000000	0.270123
645.000000	0.270276
646.000000	0.270441
647.000000	0.270579
648.000000	0.270746
649.000000	0.270933
650.000000	0.271113
651.000000	0.271297
652.000000	0.271424
653.000000	0.271568
654.000000	0.271773
655.000000	0.271871
656.000000	0.271938
657.000000	0.272028
658.000000	0.272201
659.000000	0.272371
660.000000	0.272500
661.000000	0.272695
662.000000	0.272831
663.000000	0.272962
664.000000	0.273142
665.000000	0.273300
666.000000	0.273469
667.000000	0.273658
668.000000	0.273797
669.000000	0.273979
670.000000	0.274229
671.000000	0.274381
672.000000	0.274542
673.000000	0.274742
674.000000	0.274970
675.000000	0.275197
676.000000	0.275410
677.000000	0.275624
678.000000	0.275872
679.000000	0.276066
680.000000	0.276176
681.000000	0.276311
682.000000	0.276465
683.000000	0.276600
684.000000	0.276848
685.000000	0.277024
686.000000	0.277161
687.000000	0.277314
688.000000	0.277487
689.000000	0.277659
690.000000	0.277835
691.000000	0.277957
692.000000	0.278115
693.000000	0.278373
694.000000	0.278600
695.000000	0.278798
696.000000	0.279014
697.000000	0.279308
698.000000	0.279505
699.000000	0.279661
700.000000	0.279850
701.000000	0.280035
702.000000	0.280250
703.000000	0.280463
704.000000	0.280598
705.000000	0.280736
706.000000	0.280891
707.000000	0.281128
708.000000	0.281341
709.000000	0.281534
710.000000	0.281731
711.000000	0.281849
712.000000	0.281993
713.000000	0.282224
714.000000	0.282491
715.000000	0.282731
716.000000	0.282950
717.000000	0.283161
718.000000	0.283268
719.000000	0.283377
720.000000	0.283583
721.000000	0.283763
722.000000	0.283850
723.000000	0.283927
724.000000	0.284116
725.000000	0.284363
726.000000	0.284640
727.000000	0.284780
728.000000	0.284969
729.000000	0.285180
730.000000	0.285311
731.000000	0.285376
732.000000	0.285415
733.000000	0.285491
734.000000	0.285591
735.000000	0.285731
736.000000	0.285955
737.000000	0.286074
738.000000	0.286100
739.000000	0.286189
740.000000	0.286297
741.000000	0.286453
742.000000	0.286593
743.000000	0.286706
744.000000	0.286920
745.000000	0.287041
746.000000	0.287128
747.000000	0.287223
748.000000	0.287352
749.000000	0.287493
750.000000	0.287598
751.000000	0.287707
752.000000	0.287770
753.000000	0.287816
754.000000	0.287913
755.000000	0.288036
756.000000	0.288112
757.000000	0.288057
758.000000	0.288163
759.000000	0.288313
760.000000	0.288379
761.000000	0.288527
762.000000	0.288679
763.000000	0.288791
764.000000	0.288907
765.000000	0.289006
766.000000	0.289089
767.000000	0.289151
768.000000	0.289183
769.000000	0.289218
770.000000	0.289265
771.000000	0.289286
772.000000	0.289337
773.000000	0.289356
774.000000	0.289363
775.000000	0.289319
776.000000	0.289298
777.000000	0.289326
778.000000	0.289297
779.000000	0.289327
780.000000	0.289405
781.000000	0.289390
782.000000	0.289484
783.000000	0.289645
784.000000	0.289636
785.000000	0.289694
786.000000	0.289746
787.000000	0.289740
788.000000	0.289709
789.000000	0.289706
790.000000	0.289709
791.000000	0.289700
792.000000	0.289702
793.000000	0.289749
794.000000	0.289848
795.000000	0.289908
796.000000	0.289875
797.000000	0.289765
798.000000	0.289682
799.000000	0.289642
800.000000	0.289668
801.000000	0.289762
802.000000	0.289840
803.000000	0.289836
804.000000	0.289791
805.000000	0.289825
806.000000	0.289752
807.000000	0.289657
808.000000	0.289615
809.000000	0.289683
810.000000	0.289771
811.000000	0.289786
812.000000	0.289748
813.000000	0.289660
814.000000	0.289564
815.000000	0.289551
816.000000	0.289499
817.000000	0.289410
818.000000	0.289257
819.000000	0.289217
820.000000	0.289195
821.000000	0.289117
822.000000	0.289100
823.000000	0.289140
824.000000	0.289134
825.000000	0.289077
826.000000	0.289021
827.000000	0.288954
828.000000	0.288917
829.000000	0.288934
830.000000	0.288970
831.000000	0.288997
832.000000	0.288844
833.000000	0.288734
834.000000	0.288698
835.000000	0.288738
836.000000	0.288752
837.000000	0.288708
838.000000	0.288627
839.000000	0.288531
840.000000	0.288411
841.000000	0.288338
842.000000	0.288328
843.000000	0.288344
844.000000	0.288370
845.000000	0.288320
846.000000	0.288103
847.000000	0.288006
848.000000	0.287951
849.000000	0.287816
850.000000	0.287619
851.000000	0.287426
852.000000	0.287318
853.000000	0.287300
854.000000	0.287183
855.000000	0.287095
856.000000	0.287056
857.000000	0.286934
858.000000	0.286934
859.000000	0.287013
860.000000	0.286931
861.000000	0.286776
862.000000	0.286631
863.000000	0.286502
864.000000	0.286443
865.000000	0.286370
866.000000	0.286275
867.000000	0.286235
868.000000	0.286126
869.000000	0.285937
870.000000	0.285813
871.000000	0.285706
872.000000	0.285625
873.000000	0.285519
874.000000	0.285432
875.000000	0.285191
876.000000	0.284931
877.000000	0.284808
878.000000	0.284538
879.000000	0.284345
880.000000	0.284208
881.000000	0.283986
882.000000	0.283969
883.000000	0.284030
884.000000	0.283848
885.000000	0.283761
886.000000	0.283668
887.000000	0.283504
888.000000	0.283247
889.000000	0.283044
890.000000	0.282844
891.000000	0.282726
892.000000	0.282666
893.000000	0.282537
894.000000	0.282405
895.000000	0.282291
896.000000	0.282142
897.000000	0.281899
898.000000	0.281543
899.000000	0.281292
900.000000	0.281060
901.000000	0.280779
902.000000	0.280555
903.000000	0.280313
904.000000	0.280180
905.000000	0.280157
906.000000	0.280021
907.000000	0.279828
908.000000	0.279630
909.000000	0.279300
910.000000	0.279208
911.000000	0.279160
912.000000	0.278955
913.000000	0.278799
914.000000	0.278626
915.000000	0.278451
916.000000	0.278200
917.000000	0.277959
918.000000	0.277782
919.000000	0.277649
920.000000	0.277448
921.000000	0.277158
922.000000	0.276883
923.000000	0.276739
924.000000	0.276561
925.000000	0.276338
926.000000	0.276090
927.000000	0.275724
928.000000	0.275530
929.000000	0.275439
930.000000	0.275259
931.000000	0.274906
932.000000	0.274598
933.000000	0.274394
934.000000	0.274069
935.000000	0.273796
936.000000	0.273549
937.000000	0.273203
938.000000	0.272890
939.000000	0.272760
940.000000	0.272748
941.000000	0.272754
942.000000	0.272197
943.000000	0.271885
944.000000	0.272086
945.000000	0.272195
946.000000	0.272059
947.000000	0.271846
948.000000	0.271696
949.000000	0.271293
950.000000	0.270963
951.000000	0.270719
952.000000	0.270369
953.000000	0.270015
954.000000	0.269889
955.000000	0.269941
956.000000	0.269595
957.000000	0.269330
958.000000	0.269187
959.000000	0.269120
960.000000	0.269004
961.000000	0.268918
962.000000	0.268774
963.000000	0.268342
964.000000	0.268003
965.000000	0.267813
966.000000	0.267648
967.000000	0.267603
968.000000	0.267329
969.000000	0.266906
970.000000	0.266709
971.000000	0.266559
972.000000	0.266496
973.000000	0.266443
974.000000	0.266344
975.000000	0.266109
976.000000	0.265966
977.000000	0.265981
978.000000	0.265545
979.000000	0.265481
980.000000	0.265565
981.000000	0.265529
982.000000	0.265085
983.000000	0.264717
984.000000	0.264639
985.000000	0.264567
986.000000	0.264340
987.000000	0.264112
988.000000	0.263891
989.000000	0.263575
990.000000	0.263477
991.000000	0.263420
992.000000	0.263220
993.000000	0.263336
994.000000	0.263132
995.000000	0.262758
996.000000	0.262609
997.000000	0.262853
998.000000	0.262975
999.000000	0.262789
1000.000000	0.262502
1001.000000	0.263449
1002.000000	0.262771
1003.000000	0.262045
1004.000000	0.261896
1005.000000	0.262867
1006.000000	0.262544
1007.000000	0.261795
1008.000000	0.261282
1009.000000	0.260957
1010.000000	0.260974
1011.000000	0.262137
1012.000000	0.263308
1013.000000	0.263017
1014.000000	0.262842
1015.000000	0.262786
1016.000000	0.262279
1017.000000	0.262041
1018.000000	0.261739
1019.000000	0.261642
1020.000000	0.261694
1021.000000	0.261461
1022.000000	0.261752
1023.000000	0.261706
1024.000000	0.260969
1025.000000	0.260572
1026.000000	0.261233
1027.000000	0.261588
1028.000000	0.261654
1029.000000	0.262234
1030.000000	0.262302
1031.000000	0.261633
1032.000000	0.261913
1033.000000	0.262710
1034.000000	0.262703
1035.000000	0.262048
1036.000000	0.262147
1037.000000	0.262110
1038.000000	0.261916
1039.000000	0.262150
1040.000000	0.262446
1041.000000	0.262012
1042.000000	0.262243
1043.000000	0.262215
1044.000000	0.262168
1045.000000	0.262517
1046.000000	0.262554
1047.000000	0.262676
1048.000000	0.263055
1049.000000	0.263195
1050.000000	0.262977
1051.000000	0.263063
1052.000000	0.263132
1053.000000	0.263349
1054.000000	0.264133
1055.000000	0.264518
1056.000000	0.264951
1057.000000	0.265080
1058.000000	0.265064
1059.000000	0.264886
1060.000000	0.265026
1061.000000	0.265447
1062.000000	0.265805
1063.000000	0.266020
1064.000000	0.266251
1065.000000	0.266318
1066.000000	0.266654
1067.000000	0.267179
1068.000000	0.267416
1069.000000	0.267527
1070.000000	0.267656
1071.000000	0.267811
1072.000000	0.267817
1073.000000	0.267597
1074.000000	0.267872
1075.000000	0.268298
1076.000000	0.268062
1077.000000	0.268005
1078.000000	0.268371
1079.000000	0.268570
1080.000000	0.268560
1081.000000	0.268777
1082.000000	0.269364
1083.000000	0.269707
1084.000000	0.269857
1085.000000	0.270337
1086.000000	0.271110
1087.000000	0.271547
1088.000000	0.272066
1089.000000	0.272289
1090.000000	0.272100
1091.000000	0.271771
1092.000000	0.272095
1093.000000	0.272238
1094.000000	0.272204
1095.000000	0.272158
1096.000000	0.272327
1097.000000	0.272260
1098.000000	0.272423
1099.000000	0.272923
1100.000000	0.273323
1101.000000	0.273666
1102.000000	0.273876
1103.000000	0.274034
1104.000000	0.274330
1105.000000	0.274591
1106.000000	0.274755
1107.000000	0.274900
1108.000000	0.275170
1109.000000	0.275574
1110.000000	0.275641
1111.000000	0.275784
1112.000000	0.276055
1113.000000	0.276245
1114.000000	0.276210
1115.000000	0.276394
1116.000000	0.276820
1117.000000	0.277058
1118.000000	0.277181
1119.000000	0.277328
1120.000000	0.277470
1121.000000	0.277599
1122.000000	0.277738
1123.000000	0.278092
1124.000000	0.278322
1125.000000	0.278616
1126.000000	0.279033
1127.000000	0.279305
1128.000000	0.279512
1129.000000	0.279688
1130.000000	0.279860
1131.000000	0.280007
1132.000000	0.280053
1133.000000	0.280068
1134.000000	0.280158
1135.000000	0.280175
1136.000000	0.280172
1137.000000	0.280256
1138.000000	0.280199
1139.000000	0.279893
1140.000000	0.279998
1141.000000	0.280307
1142.000000	0.280511
1143.000000	0.280881
1144.000000	0.281204
1145.000000	0.281348
1146.000000	0.281189
1147.000000	0.281303
1148.000000	0.281396
1149.000000	0.281531
1150.000000	0.281782
1151.000000	0.281931
1152.000000	0.281958
1153.000000	0.282092
1154.000000	0.282279
1155.000000	0.282340
1156.000000	0.282354
1157.000000	0.282408
1158.000000	0.282316
1159.000000	0.282306
1160.000000	0.282351
1161.000000	0.282439
1162.000000	0.282627
1163.000000	0.282914
1164.000000	0.282970
1165.000000	0.282969
1166.000000	0.283039
1167.000000	0.282965
1168.000000	0.282926
1169.000000	0.282972
1170.000000	0.283091
1171.000000	0.283228
1172.000000	0.283332
1173.000000	0.283559
1174.000000	0.283640
1175.000000	0.283501
1176.000000	0.283467
1177.000000	0.283537
1178.000000	0.283555
1179.000000	0.283554
1180.000000	0.283554
1181.000000	0.283649
1182.000000	0.283675
1183.000000	0.283760
1184.000000	0.283779
1185.000000	0.283830
1186.000000	0.283872
1187.000000	0.283895
1188.000000	0.283934
1189.000000	0.283894
1190.000000	0.283824
1191.000000	0.283777
1192.000000	0.283772
1193.000000	0.283896
1194.000000	0.284000
1195.000000	0.284064
1196.000000	0.284120
1197.000000	0.284157
1198.000000	0.284119
1199.000000	0.284163
1200.000000	0.284224
1201.000000	0.284385
1202.000000	0.284474
1203.000000	0.284446
1204.000000	0.284431
1205.000000	0.284403
1206.000000	0.284344
1207.000000	0.284367
1208.000000	0.284338
1209.000000	0.284278
1210.000000	0.284298
1211.000000	0.284382
1212.000000	0.284445
1213.000000	0.284583
1214.000000	0.284653
1215.000000	0.284701
1216.000000	0.284699
1217.000000	0.284598
1218.000000	0.284547
1219.000000	0.284552
1220.000000	0.284482
1221.000000	0.284381
1222.000000	0.284249
1223.000000	0.284165
1224.000000	0.284091
1225.000000	0.284052
1226.000000	0.284081
1227.000000	0.284048
1228.000000	0.284076
1229.000000	0.284059
1230.000000	0.284031
1231.000000	0.283988
1232.000000	0.284006
1233.000000	0.284139
1234.000000	0.284333
1235.000000	0.284431
1236.000000	0.284512
1237.000000	0.284559
1238.000000	0.284524
1239.000000	0.284444
1240.000000	0.284312
1241.000000	0.284114
1242.000000	0.284102
1243.000000	0.284156
1244.000000	0.284226
1245.000000	0.284497
1246.000000	0.284718
1247.000000	0.284728
1248.000000	0.284656
1249.000000	0.284670
1250.000000	0.284520
1251.000000	0.284258
1252.000000	0.284189
1253.000000	0.284318
1254.000000	0.284325
1255.000000	0.284386
1256.000000	0.284418
1257.000000	0.284448
1258.000000	0.284522
1259.000000	0.284460
1260.000000	0.284517
1261.000000	0.284656
1262.000000	0.284683
1263.000000	0.284685
1264.000000	0.284814
1265.000000	0.284718
1266.000000	0.284451
1267.000000	0.284404
1268.000000	0.284361
1269.000000	0.284287
1270.000000	0.284457
1271.000000	0.284431
1272.000000	0.284347
1273.000000	0.284334
1274.000000	0.284178
1275.000000	0.284084
1276.000000	0.283924
1277.000000	0.283979
1278.000000	0.284129
1279.000000	0.284233
1280.000000	0.284410
1281.000000	0.284433
1282.000000	0.284345
1283.000000	0.284381
1284.000000	0.284371
1285.000000	0.284391
1286.000000	0.284447
1287.000000	0.284477
1288.000000	0.284597
1289.000000	0.284585
1290.000000	0.284449
1291.000000	0.284488
1292.000000	0.284561
1293.000000	0.284584
1294.000000	0.284685
1295.000000	0.284858
1296.000000	0.284919
1297.000000	0.284947
1298.000000	0.284939
1299.000000	0.284819
1300.000000	0.284766
1301.000000	0.284821
1302.000000	0.284832
1303.000000	0.285081
1304.000000	0.285155
1305.000000	0.285232
1306.000000	0.285195
1307.000000	0.285137
1308.000000	0.285128
1309.000000	0.285065
1310.000000	0.284979
1311.000000	0.284926
1312.000000	0.284837
1313.000000	0.284698
1314.000000	0.284534
1315.000000	0.284412
1316.000000	0.284385
1317.000000	0.284440
1318.000000	0.284465
1319.000000	0.284454
1320.000000	0.284473
1321.000000	0.284302
1322.000000	0.284156
1323.000000	0.284088
1324.000000	0.283921
1325.000000	0.283948
1326.000000	0.283927
1327.000000	0.283799
1328.000000	0.283932
1329.000000	0.283924
1330.000000	0.283841
1331.000000	0.283813
1332.000000	0.283852
1333.000000	0.283832
1334.000000	0.283826
1335.000000	0.283805
1336.000000	0.283729
1337.000000	0.283716
1338.000000	0.283631
1339.000000	0.283744
1340.000000	0.283711
1341.000000	0.283675
1342.000000	0.283780
1343.000000	0.283675
1344.000000	0.283556
1345.000000	0.283696
1346.000000	0.283690
1347.000000	0.283502
1348.000000	0.283642
1349.000000	0.283665
1350.000000	0.283596
1351.000000	0.283604
1352.000000	0.283527
1353.000000	0.283432
1354.000000	0.283471
1355.000000	0.283496
1356.000000	0.283442
1357.000000	0.283333
1358.000000	0.283174
1359.000000	0.283016
1360.000000	0.282917
1361.000000	0.282939
1362.000000	0.282893
1363.000000	0.282811
1364.000000	0.282761
1365.000000	0.282655
1366.000000	0.282627
1367.000000	0.282623
1368.000000	0.282711
1369.000000	0.282798
1370.000000	0.282744
1371.000000	0.282588
1372.000000	0.282342
1373.000000	0.282189
1374.000000	0.282157
1375.000000	0.282138
1376.000000	0.282265
1377.000000	0.282276
1378.000000	0.282132
1379.000000	0.282063
1380.000000	0.282056
1381.000000	0.282007
1382.000000	0.282063
1383.000000	0.282095
1384.000000	0.281864
1385.000000	0.281648
1386.000000	0.281542
1387.000000	0.281474
1388.000000	0.281298
1389.000000	0.281138
1390.000000	0.281041
1391.000000	0.280761
1392.000000	0.280550
1393.000000	0.280290
1394.000000	0.279970
1395.000000	0.279742
1396.000000	0.279549
1397.000000	0.279278
1398.000000	0.279027
1399.000000	0.278728
1400.000000	0.278314
1401.000000	0.278042
1402.000000	0.277887
1403.000000	0.277583
1404.000000	0.277480
1405.000000	0.277327
1406.000000	0.276979
1407.000000	0.276764
1408.000000	0.276478
1409.000000	0.276180
1410.000000	0.276116
1411.000000	0.275922
1412.000000	0.275659
1413.000000	0.275500
1414.000000	0.275227
1415.000000	0.274957
1416.000000	0.274766
1417.000000	0.274566
1418.000000	0.274336
1419.000000	0.274322
1420.000000	0.274282
1421.000000	0.274171
1422.000000	0.274002
1423.000000	0.273776
1424.000000	0.273485
1425.000000	0.273224
1426.000000	0.273037
1427.000000	0.272800
1428.000000	0.272594
1429.000000	0.272530
1430.000000	0.272378
1431.000000	0.272293
1432.000000	0.272171
1433.000000	0.272034
1434.000000	0.271874
1435.000000	0.271768
1436.000000	0.271703
1437.000000	0.271688
1438.000000	0.271583
1439.000000	0.271477
1440.000000	0.271377
1441.000000	0.271199
1442.000000	0.271164
1443.000000	0.271166
1444.000000	0.271214
1445.000000	0.271277
1446.000000	0.271262
1447.000000	0.271160
1448.000000	0.271135
1449.000000	0.271148
1450.000000	0.271193
1451.000000	0.271376
1452.000000	0.271370
1453.000000	0.271229
1454.000000	0.271243
1455.000000	0.271198
1456.000000	0.271197
1457.000000	0.271282
1458.000000	0.271213
1459.000000	0.271214
1460.000000	0.271213
1461.000000	0.271099
1462.000000	0.271077
1463.000000	0.270888
1464.000000	0.270719
1465.000000	0.270825
1466.000000	0.270814
1467.000000	0.270805
1468.000000	0.270789
1469.000000	0.270689
1470.000000	0.270641
1471.000000	0.270734
1472.000000	0.270908
1473.000000	0.271083
1474.000000	0.271158
1475.000000	0.271130
1476.000000	0.271031
1477.000000	0.270972
1478.000000	0.270963
1479.000000	0.271063
1480.000000	0.271183
1481.000000	0.271237
1482.000000	0.271318
1483.000000	0.271434
1484.000000	0.271562
1485.000000	0.271634
1486.000000	0.271669
1487.000000	0.271789
1488.000000	0.271897
1489.000000	0.272002
1490.000000	0.272058
1491.000000	0.272206
1492.000000	0.272341
1493.000000	0.272458
1494.000000	0.272628
1495.000000	0.272725
1496.000000	0.272718
1497.000000	0.272771
1498.000000	0.272831
1499.000000	0.272957
1500.000000	0.273125
1501.000000	0.273181
1502.000000	0.273169
1503.000000	0.273198
1504.000000	0.273168
1505.000000	0.273084
1506.000000	0.273210
1507.000000	0.273315
1508.000000	0.273371
1509.000000	0.273504
1510.000000	0.273574
1511.000000	0.273668
1512.000000	0.273756
1513.000000	0.273848
1514.000000	0.273978
1515.000000	0.273967
1516.000000	0.274016
1517.000000	0.274106
1518.000000	0.274014
1519.000000	0.273994
1520.000000	0.274157
1521.000000	0.274169
1522.000000	0.274228
1523.000000	0.274327
1524.000000	0.274281
1525.000000	0.274319
1526.000000	0.274393
1527.000000	0.274408
1528.000000	0.274399
1529.000000	0.274304
1530.000000	0.274117
1531.000000	0.274065
1532.000000	0.274073
1533.000000	0.274052
1534.000000	0.274047
1535.000000	0.274019
1536.000000	0.273997
1537.000000	0.274067
1538.000000	0.274181
1539.000000	0.274157
1540.000000	0.274043
1541.000000	0.274042
1542.000000	0.274024
1543.000000	0.274071
1544.000000	0.274196
1545.000000	0.274303
1546.000000	0.274374
1547.000000	0.274374
1548.000000	0.274435
1549.000000	0.274414
1550.000000	0.274296
1551.000000	0.274232
1552.000000	0.274210
1553.000000	0.274211
1554.000000	0.274260
1555.000000	0.274413
1556.000000	0.274451
1557.000000	0.274305
1558.000000	0.274266
1559.000000	0.274155
1560.000000	0.274118
1561.000000	0.274207
1562.000000	0.274209
1563.000000	0.274233
1564.000000	0.274162
1565.000000	0.273972
1566.000000	0.273879
1567.000000	0.273894
1568.000000	0.273853
1569.000000	0.273885
1570.000000	0.273952
1571.000000	0.274002
1572.000000	0.274001
1573.000000	0.274069
1574.000000	0.274065
1575.000000	0.273942
1576.000000	0.273970
1577.000000	0.274093
1578.000000	0.274084
1579.000000	0.274149
1580.000000	0.274094
1581.000000	0.273933
1582.000000	0.273866
1583.000000	0.273769
1584.000000	0.273669
1585.000000	0.273683
1586.000000	0.273717
1587.000000	0.273785
1588.000000	0.273791
1589.000000	0.273773
1590.000000	0.273773
1591.000000	0.273813
1592.000000	0.273803
1593.000000	0.273807
1594.000000	0.273780
1595.000000	0.273663
1596.000000	0.273672
1597.000000	0.273850
1598.000000	0.273888
1599.000000	0.273990
1600.000000	0.273940
1601.000000	0.273728
1602.000000	0.273659
1603.000000	0.273582
1604.000000	0.273590
1605.000000	0.273820
1606.000000	0.273880
1607.000000	0.273957
1608.000000	0.273991
1609.000000	0.273950
1610.000000	0.273879
1611.000000	0.273743
1612.000000	0.273770
1613.000000	0.273988
1614.000000	0.274052
1615.000000	0.274266
1616.000000	0.274346
1617.000000	0.274176
1618.000000	0.274083
1619.000000	0.273973
1620.000000	0.273935
1621.000000	0.273935
1622.000000	0.273944
1623.000000	0.273919
1624.000000	0.274018
1625.000000	0.274130
1626.000000	0.274085
1627.000000	0.274076
1628.000000	0.274129
1629.000000	0.274003
1630.000000	0.274049
1631.000000	0.274261
1632.000000	0.274315
1633.000000	0.274394
1634.000000	0.274341
1635.000000	0.274178
1636.000000	0.274095
1637.000000	0.273942
1638.000000	0.273851
1639.000000	0.273915
1640.000000	0.273867
1641.000000	0.273743
1642.000000	0.273777
1643.000000	0.273986
1644.000000	0.274041
1645.000000	0.274137
1646.000000	0.274101
1647.000000	0.273875
1648.000000	0.273804
1649.000000	0.273865
1650.000000	0.273909
1651.000000	0.274025
1652.000000	0.274111
1653.000000	0.274127
1654.000000	0.274211
1655.000000	0.274319
1656.000000	0.274265
1657.000000	0.274207
1658.000000	0.274213
1659.000000	0.274208
1660.000000	0.274331
1661.000000	0.274540
1662.000000	0.274641
1663.000000	0.274694
1664.000000	0.274781
1665.000000	0.274829
1666.000000	0.274980
1667.000000	0.275149
1668.000000	0.275236
1669.000000	0.275330
1670.000000	0.275304
1671.000000	0.275239
1672.000000	0.275297
1673.000000	0.275290
1674.000000	0.275483
1675.000000	0.275688
1676.000000	0.275800
1677.000000	0.275839
1678.000000	0.275635
1679.000000	0.275456
1680.000000	0.275335
1681.000000	0.275250
1682.000000	0.275280
1683.000000	0.275334
1684.000000	0.275379
1685.000000	0.275361
1686.000000	0.275271
1687.000000	0.275247
1688.000000	0.275150
1689.000000	0.275085
1690.000000	0.275098
1691.000000	0.275220
1692.000000	0.275306
1693.000000	0.275432
1694.000000	0.275680
1695.000000	0.275755
1696.000000	0.275752
1697.000000	0.275718
1698.000000	0.275532
1699.000000	0.275496
1700.000000	0.275622
1701.000000	0.275676
1702.000000	0.275563
1703.000000	0.275487
1704.000000	0.275425
1705.000000	0.275376
1706.000000	0.275375
1707.000000	0.275422
1708.000000	0.275514
1709.000000	0.275489
1710.000000	0.275510
1711.000000	0.275614
1712.000000	0.275791
1713.000000	0.275779
1714.000000	0.275776
1715.000000	0.275757
1716.000000	0.275478
1717.000000	0.275449
1718.000000	0.275676
1719.000000	0.275684
1720.000000	0.275672
1721.000000	0.275697
1722.000000	0.275613
1723.000000	0.275646
1724.000000	0.275854
1725.000000	0.275956
1726.000000	0.275969
1727.000000	0.275980
1728.000000	0.275933
1729.000000	0.275791
1730.000000	0.275656
1731.000000	0.275589
1732.000000	0.275531
1733.000000	0.275481
1734.000000	0.275341
1735.000000	0.275308
1736.000000	0.275229
1737.000000	0.275232
1738.000000	0.275368
1739.000000	0.275499
1740.000000	0.275652
1741.000000	0.275688
1742.000000	0.275761
1743.000000	0.275802
1744.000000	0.275718
1745.000000	0.275636
1746.000000	0.275563
1747.000000	0.275432
1748.000000	0.275358
1749.000000	0.275545
1750.000000	0.275505
1751.000000	0.275410
1752.000000	0.275441
1753.000000	0.275188
1754.000000	0.275142
1755.000000	0.275316
1756.000000	0.275382
1757.000000	0.275475
1758.000000	0.275573
1759.000000	0.275616
1760.000000	0.275663
1761.000000	0.275699
1762.000000	0.275736
1763.000000	0.275761
1764.000000	0.275807
1765.000000	0.275896
1766.000000	0.275899
1767.000000	0.275756
1768.000000	0.275664
1769.000000	0.275604
1770.000000	0.275617
1771.000000	0.275642
1772.000000	0.275713
1773.000000	0.275826
1774.000000	0.275830
1775.000000	0.275871
1776.000000	0.275913
1777.000000	0.275837
1778.000000	0.275821
1779.000000	0.275865
1780.000000	0.275875
1781.000000	0.275799
1782.000000	0.275836
1783.000000	0.276018
1784.000000	0.275957
1785.000000	0.275883
1786.000000	0.275827
1787.000000	0.275638
1788.000000	0.275570
1789.000000	0.275598
1790.000000	0.275729
1791.000000	0.275757
1792.000000	0.275934
1793.000000	0.275978
1794.000000	0.275826
1795.000000	0.275800
1796.000000	0.275777
1797.000000	0.275792
1798.000000	0.275881
1799.000000	0.275898
1800.000000	0.275987
1801.000000	0.275529
1802.000000	0.275841
1803.000000	0.276396
1804.000000	0.276000
1805.000000	0.274134
1806.000000	0.273777
1807.000000	0.273518
1808.000000	0.273438
1809.000000	0.274323
1810.000000	0.275284
1811.000000	0.275250
1812.000000	0.274474
1813.000000	0.274101
1814.000000	0.273370
1815.000000	0.272955
1816.000000	0.272705
1817.000000	0.272442
1818.000000	0.272437
1819.000000	0.272357
1820.000000	0.271952
1821.000000	0.270935
1822.000000	0.270561
1823.000000	0.269755
1824.000000	0.269495
1825.000000	0.269950
1826.000000	0.270372
1827.000000	0.270542
1828.000000	0.271177
1829.000000	0.272651
1830.000000	0.273171
1831.000000	0.273341
1832.000000	0.273053
1833.000000	0.272941
1834.000000	0.272379
1835.000000	0.272062
1836.000000	0.271859
1837.000000	0.271705
1838.000000	0.271367
1839.000000	0.270863
1840.000000	0.270948
1841.000000	0.271465
1842.000000	0.271476
1843.000000	0.271336
1844.000000	0.271384
1845.000000	0.271124
1846.000000	0.271078
1847.000000	0.271191
1848.000000	0.271298
1849.000000	0.271219
1850.000000	0.271279
1851.000000	0.271290
1852.000000	0.271178
1853.000000	0.271274
1854.000000	0.271283
1855.000000	0.271220
1856.000000	0.271121
1857.000000	0.271332
1858.000000	0.270830
1859.000000	0.270570
1860.000000	0.270847
1861.000000	0.270787
1862.000000	0.270410
1863.000000	0.270051
1864.000000	0.269699
1865.000000	0.268584
1866.000000	0.268273
1867.000000	0.268604
1868.000000	0.268867
1869.000000	0.268395
1870.000000	0.268274
1871.000000	0.268228
1872.000000	0.267539
1873.000000	0.267268
1874.000000	0.267660
1875.000000	0.267167
1876.000000	0.265956
1877.000000	0.264850
1878.000000	0.263575
1879.000000	0.262715
1880.000000	0.262218
1881.000000	0.261886
1882.000000	0.260949
1883.000000	0.259771
1884.000000	0.259252
1885.000000	0.258711
1886.000000	0.258278
1887.000000	0.258461
1888.000000	0.258319
1889.000000	0.258038
1890.000000	0.256930
1891.000000	0.255883
1892.000000	0.255392
1893.000000	0.253735
1894.000000	0.252335
1895.000000	0.250925
1896.000000	0.249603
1897.000000	0.247848
1898.000000	0.246608
1899.000000	0.245850
1900.000000	0.245301
1901.000000	0.244468
1902.000000	0.243452
1903.000000	0.242324
1904.000000	0.241112
1905.000000	0.240022
1906.000000	0.239031
1907.000000	0.238226
1908.000000	0.237773
1909.000000	0.237127
1910.000000	0.235986
1911.000000	0.235032
1912.000000	0.234035
1913.000000	0.233065
1914.000000	0.232651
1915.000000	0.232594
1916.000000	0.232607
1917.000000	0.232314
1918.000000	0.232031
1919.000000	0.231724
1920.000000	0.231613
1921.000000	0.231855
1922.000000	0.231954
1923.000000	0.232076
1924.000000	0.231668
1925.000000	0.230881
1926.000000	0.230824
1927.000000	0.230882
1928.000000	0.230911
1929.000000	0.231402
1930.000000	0.231470
1931.000000	0.230898
1932.000000	0.230861
1933.000000	0.230575
1934.000000	0.230320
1935.000000	0.230628
1936.000000	0.230771
1937.000000	0.231044
1938.000000	0.231307
1939.000000	0.231165
1940.000000	0.230741
1941.000000	0.230045
1942.000000	0.229430
1943.000000	0.229160
1944.000000	0.229628
1945.000000	0.230668
1946.000000	0.231332
1947.000000	0.231805
1948.000000	0.231899
1949.000000	0.231334
1950.000000	0.230818
1951.000000	0.230262
1952.000000	0.229496
1953.000000	0.228954
1954.000000	0.228839
1955.000000	0.228698
1956.000000	0.229138
1957.000000	0.229144
1958.000000	0.228870
1959.000000	0.229074
1960.000000	0.229027
1961.000000	0.229311
1962.000000	0.229307
1963.000000	0.229421
1964.000000	0.228998
1965.000000	0.228968
1966.000000	0.228658
1967.000000	0.228205
1968.000000	0.228916
1969.000000	0.229200
1970.000000	0.229280
1971.000000	0.229874
1972.000000	0.229998
1973.000000	0.229949
1974.000000	0.229453
1975.000000	0.229534
1976.000000	0.229879
1977.000000	0.230097
1978.000000	0.230256
1979.000000	0.230858
1980.000000	0.230628
1981.000000	0.230586
1982.000000	0.230393
1983.000000	0.230144
1984.000000	0.230206
1985.000000	0.230358
1986.000000	0.230537
1987.000000	0.231006
1988.000000	0.231604
1989.000000	0.232209
1990.000000	0.232754
1991.000000	0.233021
1992.000000	0.233023
1993.000000	0.232766
1994.000000	0.232579
1995.000000	0.232509
1996.000000	0.233323
1997.000000	0.233614
1998.000000	0.233749
1999.000000	0.233934
2000.000000	0.234279
2001.000000	0.233986
2002.000000	0.233412
2003.000000	0.233872
2004.000000	0.234161
2005.000000	0.233854
2006.000000	0.234427
2007.000000	0.234941
2008.000000	0.235328
2009.000000	0.235702
2010.000000	0.236124
2011.000000	0.236269
2012.000000	0.236571
2013.000000	0.236826
2014.000000	0.237235
2015.000000	0.237728
2016.000000	0.238359
2017.000000	0.238802
2018.000000	0.239015
2019.000000	0.239139
2020.000000	0.238972
2021.000000	0.239056
2022.000000	0.239275
2023.000000	0.239411
2024.000000	0.239589
2025.000000	0.239933
2026.000000	0.240428
2027.000000	0.240165
2028.000000	0.240492
2029.000000	0.240768
2030.000000	0.240284
2031.000000	0.240267
2032.000000	0.240558
2033.000000	0.240933
2034.000000	0.241278
2035.000000	0.242222
2036.000000	0.242470
2037.000000	0.242411
2038.000000	0.242367
2039.000000	0.242056
2040.000000	0.242164
2041.000000	0.242097
2042.000000	0.242345
2043.000000	0.242722
2044.000000	0.243137
2045.000000	0.243678
2046.000000	0.243984
2047.000000	0.244337
2048.000000	0.244469
2049.000000	0.245010
2050.000000	0.245487
2051.000000	0.245868
2052.000000	0.246473
2053.000000	0.246688
2054.000000	0.246758
2055.000000	0.246944
2056.000000	0.247117
2057.000000	0.247254
2058.000000	0.247165
2059.000000	0.247592
2060.000000	0.247695
2061.000000	0.247517
2062.000000	0.247543
2063.000000	0.247737
2064.000000	0.247544
2065.000000	0.247497
2066.000000	0.247289
2067.000000	0.246777
2068.000000	0.246908
2069.000000	0.247372
2070.000000	0.247808
2071.000000	0.248473
2072.000000	0.248588
2073.000000	0.248456
2074.000000	0.248302
2075.000000	0.248570
2076.000000	0.249354
2077.000000	0.249685
2078.000000	0.250132
2079.000000	0.250329
2080.000000	0.250144
2081.000000	0.250070
2082.000000	0.249806
2083.000000	0.249943
2084.000000	0.250308
2085.000000	0.250639
2086.000000	0.251194
2087.000000	0.251404
2088.000000	0.250800
2089.000000	0.250159
2090.000000	0.249787
2091.000000	0.249085
2092.000000	0.249186
2093.000000	0.249936
2094.000000	0.250526
2095.000000	0.251915
2096.000000	0.252518
2097.000000	0.252628
2098.000000	0.252830
2099.000000	0.252729
2100.000000	0.252686
2101.000000	0.252917
2102.000000	0.253286
2103.000000	0.253188
2104.000000	0.252632
2105.000000	0.252669
2106.000000	0.252789
2107.000000	0.252741
2108.000000	0.252918
2109.000000	0.253347
2110.000000	0.253493
2111.000000	0.253874
2112.000000	0.255117
2113.000000	0.255063
2114.000000	0.254868
2115.000000	0.254962
2116.000000	0.254712
2117.000000	0.255097
2118.000000	0.255895
2119.000000	0.256369
2120.000000	0.256258
2121.000000	0.255639
2122.000000	0.255512
2123.000000	0.254842
2124.000000	0.254707
2125.000000	0.255286
2126.000000	0.255450
2127.000000	0.255512
2128.000000	0.255486
2129.000000	0.255075
2130.000000	0.255556
2131.000000	0.254758
2132.000000	0.254643
2133.000000	0.255040
2134.000000	0.254751
2135.000000	0.255228
2136.000000	0.256038
2137.000000	0.256139
2138.000000	0.255797
2139.000000	0.255719
2140.000000	0.254934
2141.000000	0.254973
2142.000000	0.256216
2143.000000	0.256065
2144.000000	0.255819
2145.000000	0.255514
2146.000000	0.254418
2147.000000	0.253417
2148.000000	0.253317
2149.000000	0.253373
2150.000000	0.253503
2151.000000	0.253541
2152.000000	0.252887
2153.000000	0.251882
2154.000000	0.251949
2155.000000	0.252537
2156.000000	0.252798
2157.000000	0.253911
2158.000000	0.254701
2159.000000	0.255012
2160.000000	0.255271
2161.000000	0.256045
2162.000000	0.256073
2163.000000	0.255090
2164.000000	0.254599
2165.000000	0.254062
2166.000000	0.253242
2167.000000	0.253385
2168.000000	0.253618
2169.000000	0.253924
2170.000000	0.254624
2171.000000	0.255118
2172.000000	0.255764
2173.000000	0.255844
2174.000000	0.255970
2175.000000	0.255540
2176.000000	0.253563
2177.000000	0.253240
2178.000000	0.253392
2179.000000	0.253798
2180.000000	0.255461
2181.000000	0.256848
2182.000000	0.257650
2183.000000	0.258920
2184.000000	0.259711
2185.000000	0.260176
2186.000000	0.260986
2187.000000	0.260253
2188.000000	0.258639
2189.000000	0.257105
2190.000000	0.254378
2191.000000	0.252475
2192.000000	0.252178
2193.000000	0.254163
2194.000000	0.254618
2195.000000	0.256569
2196.000000	0.256898
2197.000000	0.254601
2198.000000	0.254324
2199.000000	0.255552
2200.000000	0.255116
2201.000000	0.255074
2202.000000	0.254249
2203.000000	0.251274
2204.000000	0.248068
2205.000000	0.246784
2206.000000	0.245856
2207.000000	0.246629
2208.000000	0.248347
2209.000000	0.248326
2210.000000	0.250253
2211.000000	0.252557
2212.000000	0.252563
2213.000000	0.252589
2214.000000	0.252969
2215.000000	0.251367
2216.000000	0.246410
2217.000000	0.245929
2218.000000	0.246585
2219.000000	0.247781
2220.000000	0.252301
2221.000000	0.254696
2222.000000	0.256069
2223.000000	0.257229
2224.000000	0.258210
2225.000000	0.258728
2226.000000	0.259211
2227.000000	0.258347
2228.000000	0.257170
2229.000000	0.255445
2230.000000	0.253247
2231.000000	0.252279
2232.000000	0.250593
2233.000000	0.249475
2234.000000	0.249730
2235.000000	0.250381
2236.000000	0.250965
2237.000000	0.253349
2238.000000	0.253755
2239.000000	0.252929
2240.000000	0.252037
2241.000000	0.249899
2242.000000	0.249328
2243.000000	0.248356
2244.000000	0.249032
2245.000000	0.252763
2246.000000	0.254024
2247.000000	0.254949
2248.000000	0.255315
2249.000000	0.255068
2250.000000	0.252909
2251.000000	0.250331
2252.000000	0.248857
2253.000000	0.247938
2254.000000	0.247134
2255.000000	0.249538
2256.000000	0.252907
2257.000000	0.255026
2258.000000	0.258286
2259.000000	0.258036
2260.000000	0.255823
2261.000000	0.254162
2262.000000	0.250378
2263.000000	0.248708
2264.000000	0.247340
2265.000000	0.247946
2266.000000	0.250458
2267.000000	0.251725
2268.000000	0.254889
2269.000000	0.256029
2270.000000	0.255671
2271.000000	0.254911
2272.000000	0.253101
2273.000000	0.251872
2274.000000	0.249445
2275.000000	0.248321
2276.000000	0.248248
2277.000000	0.248148
2278.000000	0.248240
2279.000000	0.246885
2280.000000	0.244372
2281.000000	0.241555
2282.000000	0.239203
2283.000000	0.240331
2284.000000	0.243897
2285.000000	0.246555
2286.000000	0.248444
2287.000000	0.248793
2288.000000	0.247056
2289.000000	0.246041
2290.000000	0.244534
2291.000000	0.243089
2292.000000	0.241904
2293.000000	0.240167
2294.000000	0.240122
2295.000000	0.240643
2296.000000	0.242522
2297.000000	0.246679
2298.000000	0.249096
2299.000000	0.252371
2300.000000	0.253924
2301.000000	0.254722
2302.000000	0.254140
2303.000000	0.251845
2304.000000	0.250131
2305.000000	0.246708
2306.000000	0.244735
2307.000000	0.243843
2308.000000	0.242183
2309.000000	0.241603
2310.000000	0.240041
2311.000000	0.239569
2312.000000	0.241095
2313.000000	0.243622
2314.000000	0.246749
2315.000000	0.249098
2316.000000	0.248627
2317.000000	0.244930
2318.000000	0.242680
2319.000000	0.239745
2320.000000	0.237466
2321.000000	0.239268
2322.000000	0.240328
2323.000000	0.242038
2324.000000	0.245134
2325.000000	0.246064
2326.000000	0.246443
2327.000000	0.247923
2328.000000	0.248746
2329.000000	0.248541
2330.000000	0.247910
2331.000000	0.245895
2332.000000	0.245401
2333.000000	0.247814
2334.000000	0.248360
2335.000000	0.248465
2336.000000	0.248378
2337.000000	0.247361
2338.000000	0.244673
2339.000000	0.242707
2340.000000	0.240320
2341.000000	0.239550
2342.000000	0.239412
2343.000000	0.238992
2344.000000	0.239657
2345.000000	0.239805
2346.000000	0.238177
2347.000000	0.237766
2348.000000	0.238433
2349.000000	0.240501
2350.000000	0.239772
2351.000000	0.242084
2352.000000	0.242074
2353.000000	0.238922
2354.000000	0.237792
2355.000000	0.234296
2356.000000	0.232495
2357.000000	0.234037
2358.000000	0.234294
2359.000000	0.236154
2360.000000	0.235764
2361.000000	0.232178
2362.000000	0.231151
2363.000000	0.231637
2364.000000	0.232688
2365.000000	0.235291
2366.000000	0.235145
2367.000000	0.234215
2368.000000	0.236708
2369.000000	0.240202
2370.000000	0.241499
2371.000000	0.239945
2372.000000	0.236186
2373.000000	0.230328
2374.000000	0.227935
2375.000000	0.226072
2376.000000	0.222683
2377.000000	0.222543
2378.000000	0.219298
2379.000000	0.216813
2380.000000	0.219249
2381.000000	0.221187
2382.000000	0.221819
2383.000000	0.223965
2384.000000	0.230135
2385.000000	0.231103
2386.000000	0.233863
2387.000000	0.242496
2388.000000	0.239171
2389.000000	0.237520
2390.000000	0.236814
2391.000000	0.226537
2392.000000	0.224208
2393.000000	0.217981
2394.000000	0.213470
2395.000000	0.219672
2396.000000	0.219530
2397.000000	0.219572
2398.000000	0.218992
2399.000000	0.213606
2400.000000	0.213251
2401.000000	0.220176
2402.000000	0.225083
2403.000000	0.228105
2404.000000	0.225712
2405.000000	0.214350
2406.000000	0.208265
2407.000000	0.208382
2408.000000	0.210569
2409.000000	0.209621
2410.000000	0.211501
2411.000000	0.210612
2412.000000	0.201930
2413.000000	0.208016
2414.000000	0.212574
2415.000000	0.211121
2416.000000	0.219480
2417.000000	0.224612
2418.000000	0.224913
2419.000000	0.222422
2420.000000	0.219223
2421.000000	0.214750
2422.000000	0.208053
2423.000000	0.210984
2424.000000	0.215514
2425.000000	0.213189
2426.000000	0.216082
2427.000000	0.220084
2428.000000	0.222740
2429.000000	0.232427
2430.000000	0.232888
2431.000000	0.224413
2432.000000	0.225969
2433.000000	0.221553
2434.000000	0.216437
2435.000000	0.219898
2436.000000	0.211326
2437.000000	0.202463
2438.000000	0.204793
2439.000000	0.203240
2440.000000	0.200395
2441.000000	0.202132
2442.000000	0.196896
2443.000000	0.189326
2444.000000	0.190061
2445.000000	0.196410
2446.000000	0.206888
2447.000000	0.216043
2448.000000	0.229631
2449.000000	0.238700
2450.000000	0.236150
2451.000000	0.240518
2452.000000	0.232677
2453.000000	0.208872
2454.000000	0.189117
2455.000000	0.178658
2456.000000	0.187087
2457.000000	0.202094
2458.000000	0.219969
2459.000000	0.223936
2460.000000	0.201439
2461.000000	0.198283
2462.000000	0.195640
2463.000000	0.189659
2464.000000	0.204579
2465.000000	0.203679
2466.000000	0.206797
2467.000000	0.216271
2468.000000	0.215571
2469.000000	0.203104
2470.000000	0.187749
2471.000000	0.174353
2472.000000	0.148439
2473.000000	0.137250
2474.000000	0.137376
2475.000000	0.136507
2476.000000	0.143531
2477.000000	0.157906
2478.000000	0.166288
2479.000000	0.160852
2480.000000	0.176752
2481.000000	0.197860
2482.000000	0.197465
2483.000000	0.204852
2484.000000	0.213004
2485.000000	0.201036
2486.000000	0.203481
2487.000000	0.206924
2488.000000	0.206867
2489.000000	0.199191
2490.000000	0.155859
2491.000000	0.154168
2492.000000	0.145998
2493.000000	0.169180
2494.000000	0.184630
2495.000000	0.159582
2496.000000	0.159681
2497.000000	0.179680
2498.000000	0.191682
2499.000000	0.237326
2500.000000	0.256020
