# Wavelength	NAu-1-20_HEX-10_FV7-70_00002.asd.rts.txt
350.000000	0.196423
351.000000	0.200111
352.000000	0.187710
353.000000	0.181925
354.000000	0.189572
355.000000	0.179501
356.000000	0.171706
357.000000	0.173599
358.000000	0.182319
359.000000	0.174367
360.000000	0.163853
361.000000	0.168807
362.000000	0.165112
363.000000	0.167552
364.000000	0.180738
365.000000	0.179516
366.000000	0.176496
367.000000	0.175289
368.000000	0.172902
369.000000	0.173639
370.000000	0.176611
371.000000	0.178711
372.000000	0.171779
373.000000	0.169250
374.000000	0.177065
375.000000	0.174630
376.000000	0.172840
377.000000	0.174849
378.000000	0.177208
379.000000	0.180734
380.000000	0.183089
381.000000	0.182106
382.000000	0.177775
383.000000	0.176905
384.000000	0.182096
385.000000	0.183027
386.000000	0.181167
387.000000	0.179825
388.000000	0.184845
389.000000	0.185436
390.000000	0.183668
391.000000	0.185378
392.000000	0.187137
393.000000	0.187266
394.000000	0.185733
395.000000	0.186515
396.000000	0.189241
397.000000	0.192146
398.000000	0.191476
399.000000	0.190859
400.000000	0.191124
401.000000	0.191889
402.000000	0.192800
403.000000	0.193583
404.000000	0.194304
405.000000	0.195727
406.000000	0.196455
407.000000	0.196187
408.000000	0.196225
409.000000	0.196815
410.000000	0.197751
411.000000	0.198461
412.000000	0.199048
413.000000	0.199690
414.000000	0.200499
415.000000	0.200955
416.000000	0.200935
417.000000	0.200770
418.000000	0.201801
419.000000	0.202722
420.000000	0.203006
421.000000	0.202635
422.000000	0.203057
423.000000	0.203709
424.000000	0.203569
425.000000	0.203240
426.000000	0.203240
427.000000	0.203756
428.000000	0.204224
429.000000	0.204145
430.000000	0.203781
431.000000	0.204470
432.000000	0.205015
433.000000	0.205220
434.000000	0.205391
435.000000	0.205516
436.000000	0.205517
437.000000	0.205374
438.000000	0.205543
439.000000	0.205585
440.000000	0.205425
441.000000	0.205487
442.000000	0.205436
443.000000	0.205321
444.000000	0.205593
445.000000	0.205658
446.000000	0.205738
447.000000	0.206076
448.000000	0.206595
449.000000	0.206984
450.000000	0.207167
451.000000	0.207699
452.000000	0.208564
453.000000	0.209615
454.000000	0.210765
455.000000	0.211591
456.000000	0.212376
457.000000	0.213539
458.000000	0.214838
459.000000	0.216009
460.000000	0.216881
461.000000	0.217382
462.000000	0.217954
463.000000	0.218660
464.000000	0.219351
465.000000	0.220078
466.000000	0.220742
467.000000	0.221276
468.000000	0.221793
469.000000	0.222179
470.000000	0.222483
471.000000	0.223099
472.000000	0.223496
473.000000	0.223455
474.000000	0.223639
475.000000	0.224039
476.000000	0.224575
477.000000	0.224712
478.000000	0.225010
479.000000	0.225533
480.000000	0.225843
481.000000	0.226042
482.000000	0.226306
483.000000	0.226588
484.000000	0.226975
485.000000	0.227393
486.000000	0.227869
487.000000	0.228050
488.000000	0.228381
489.000000	0.228849
490.000000	0.229114
491.000000	0.229493
492.000000	0.229875
493.000000	0.229995
494.000000	0.230397
495.000000	0.230909
496.000000	0.231348
497.000000	0.231946
498.000000	0.232323
499.000000	0.232527
500.000000	0.232957
501.000000	0.233375
502.000000	0.233763
503.000000	0.234111
504.000000	0.234404
505.000000	0.234812
506.000000	0.235426
507.000000	0.235825
508.000000	0.236211
509.000000	0.236668
510.000000	0.237119
511.000000	0.237462
512.000000	0.237807
513.000000	0.238405
514.000000	0.238854
515.000000	0.239251
516.000000	0.239758
517.000000	0.240104
518.000000	0.240520
519.000000	0.241085
520.000000	0.241583
521.000000	0.241981
522.000000	0.242344
523.000000	0.242886
524.000000	0.243372
525.000000	0.243790
526.000000	0.244280
527.000000	0.244709
528.000000	0.245150
529.000000	0.245738
530.000000	0.246314
531.000000	0.246854
532.000000	0.247300
533.000000	0.247791
534.000000	0.248344
535.000000	0.248895
536.000000	0.249312
537.000000	0.249734
538.000000	0.250221
539.000000	0.250780
540.000000	0.251283
541.000000	0.251779
542.000000	0.252341
543.000000	0.252825
544.000000	0.253270
545.000000	0.253689
546.000000	0.254289
547.000000	0.254796
548.000000	0.255254
549.000000	0.255839
550.000000	0.256401
551.000000	0.256909
552.000000	0.257325
553.000000	0.257765
554.000000	0.258285
555.000000	0.258887
556.000000	0.259433
557.000000	0.259879
558.000000	0.260359
559.000000	0.260901
560.000000	0.261391
561.000000	0.261885
562.000000	0.262375
563.000000	0.262859
564.000000	0.263377
565.000000	0.263856
566.000000	0.264308
567.000000	0.264760
568.000000	0.265212
569.000000	0.265710
570.000000	0.266082
571.000000	0.266347
572.000000	0.266727
573.000000	0.267101
574.000000	0.267477
575.000000	0.267940
576.000000	0.268325
577.000000	0.268652
578.000000	0.269021
579.000000	0.269381
580.000000	0.269783
581.000000	0.270205
582.000000	0.270514
583.000000	0.270811
584.000000	0.271102
585.000000	0.271342
586.000000	0.271540
587.000000	0.271774
588.000000	0.272108
589.000000	0.272398
590.000000	0.272627
591.000000	0.272815
592.000000	0.273027
593.000000	0.273316
594.000000	0.273655
595.000000	0.273926
596.000000	0.274125
597.000000	0.274321
598.000000	0.274518
599.000000	0.274702
600.000000	0.274887
601.000000	0.275024
602.000000	0.275239
603.000000	0.275394
604.000000	0.275478
605.000000	0.275706
606.000000	0.275840
607.000000	0.275853
608.000000	0.275847
609.000000	0.276008
610.000000	0.276189
611.000000	0.276212
612.000000	0.276367
613.000000	0.276533
614.000000	0.276640
615.000000	0.276677
616.000000	0.276785
617.000000	0.276948
618.000000	0.277087
619.000000	0.277290
620.000000	0.277500
621.000000	0.277674
622.000000	0.277836
623.000000	0.277954
624.000000	0.278033
625.000000	0.278262
626.000000	0.278490
627.000000	0.278640
628.000000	0.278751
629.000000	0.278899
630.000000	0.279008
631.000000	0.279192
632.000000	0.279345
633.000000	0.279452
634.000000	0.279518
635.000000	0.279614
636.000000	0.279725
637.000000	0.279820
638.000000	0.279913
639.000000	0.279972
640.000000	0.280068
641.000000	0.280204
642.000000	0.280352
643.000000	0.280561
644.000000	0.280873
645.000000	0.281016
646.000000	0.281097
647.000000	0.281209
648.000000	0.281353
649.000000	0.281572
650.000000	0.281808
651.000000	0.281928
652.000000	0.281991
653.000000	0.282101
654.000000	0.282301
655.000000	0.282485
656.000000	0.282705
657.000000	0.282949
658.000000	0.283137
659.000000	0.283302
660.000000	0.283464
661.000000	0.283677
662.000000	0.283803
663.000000	0.283925
664.000000	0.284157
665.000000	0.284325
666.000000	0.284477
667.000000	0.284657
668.000000	0.284764
669.000000	0.284921
670.000000	0.285176
671.000000	0.285361
672.000000	0.285567
673.000000	0.285816
674.000000	0.286097
675.000000	0.286364
676.000000	0.286604
677.000000	0.286835
678.000000	0.287053
679.000000	0.287264
680.000000	0.287470
681.000000	0.287608
682.000000	0.287775
683.000000	0.287959
684.000000	0.288265
685.000000	0.288487
686.000000	0.288668
687.000000	0.288881
688.000000	0.289071
689.000000	0.289247
690.000000	0.289445
691.000000	0.289606
692.000000	0.289794
693.000000	0.290080
694.000000	0.290385
695.000000	0.290627
696.000000	0.290859
697.000000	0.291175
698.000000	0.291380
699.000000	0.291567
700.000000	0.291831
701.000000	0.292072
702.000000	0.292305
703.000000	0.292524
704.000000	0.292757
705.000000	0.293001
706.000000	0.293206
707.000000	0.293395
708.000000	0.293613
709.000000	0.293833
710.000000	0.294040
711.000000	0.294195
712.000000	0.294370
713.000000	0.294635
714.000000	0.295007
715.000000	0.295333
716.000000	0.295609
717.000000	0.295874
718.000000	0.296074
719.000000	0.296295
720.000000	0.296593
721.000000	0.296761
722.000000	0.296844
723.000000	0.296957
724.000000	0.297128
725.000000	0.297302
726.000000	0.297521
727.000000	0.297702
728.000000	0.297955
729.000000	0.298233
730.000000	0.298441
731.000000	0.298675
732.000000	0.298830
733.000000	0.298947
734.000000	0.299146
735.000000	0.299336
736.000000	0.299561
737.000000	0.299668
738.000000	0.299729
739.000000	0.299863
740.000000	0.299984
741.000000	0.300160
742.000000	0.300342
743.000000	0.300500
744.000000	0.300723
745.000000	0.300791
746.000000	0.300816
747.000000	0.300910
748.000000	0.301051
749.000000	0.301177
750.000000	0.301251
751.000000	0.301464
752.000000	0.301636
753.000000	0.301741
754.000000	0.301852
755.000000	0.301977
756.000000	0.302075
757.000000	0.302078
758.000000	0.302204
759.000000	0.302390
760.000000	0.302512
761.000000	0.302634
762.000000	0.302738
763.000000	0.302805
764.000000	0.302894
765.000000	0.302963
766.000000	0.303027
767.000000	0.303089
768.000000	0.303066
769.000000	0.303050
770.000000	0.303089
771.000000	0.303154
772.000000	0.303249
773.000000	0.303296
774.000000	0.303321
775.000000	0.303310
776.000000	0.303276
777.000000	0.303213
778.000000	0.303082
779.000000	0.303026
780.000000	0.303055
781.000000	0.303027
782.000000	0.303105
783.000000	0.303237
784.000000	0.303174
785.000000	0.303132
786.000000	0.303128
787.000000	0.303143
788.000000	0.303132
789.000000	0.303139
790.000000	0.303140
791.000000	0.303128
792.000000	0.303086
793.000000	0.303033
794.000000	0.303001
795.000000	0.303033
796.000000	0.302998
797.000000	0.302901
798.000000	0.302906
799.000000	0.302866
800.000000	0.302845
801.000000	0.302938
802.000000	0.303017
803.000000	0.303038
804.000000	0.303046
805.000000	0.303117
806.000000	0.303075
807.000000	0.303012
808.000000	0.302994
809.000000	0.302938
810.000000	0.302847
811.000000	0.302722
812.000000	0.302579
813.000000	0.302394
814.000000	0.302245
815.000000	0.302324
816.000000	0.302289
817.000000	0.302185
818.000000	0.302058
819.000000	0.301981
820.000000	0.301880
821.000000	0.301718
822.000000	0.301672
823.000000	0.301644
824.000000	0.301565
825.000000	0.301501
826.000000	0.301448
827.000000	0.301359
828.000000	0.301274
829.000000	0.301265
830.000000	0.301260
831.000000	0.301246
832.000000	0.301081
833.000000	0.300926
834.000000	0.300777
835.000000	0.300635
836.000000	0.300428
837.000000	0.300248
838.000000	0.300119
839.000000	0.299967
840.000000	0.299831
841.000000	0.299775
842.000000	0.299773
843.000000	0.299627
844.000000	0.299587
845.000000	0.299626
846.000000	0.299486
847.000000	0.299339
848.000000	0.299246
849.000000	0.299228
850.000000	0.299043
851.000000	0.298866
852.000000	0.298811
853.000000	0.298787
854.000000	0.298624
855.000000	0.298482
856.000000	0.298396
857.000000	0.298157
858.000000	0.298009
859.000000	0.297966
860.000000	0.297856
861.000000	0.297789
862.000000	0.297762
863.000000	0.297654
864.000000	0.297484
865.000000	0.297263
866.000000	0.297032
867.000000	0.296792
868.000000	0.296620
869.000000	0.296443
870.000000	0.296254
871.000000	0.296168
872.000000	0.296049
873.000000	0.295806
874.000000	0.295698
875.000000	0.295561
876.000000	0.295393
877.000000	0.295190
878.000000	0.294918
879.000000	0.294711
880.000000	0.294503
881.000000	0.294304
882.000000	0.294210
883.000000	0.294140
884.000000	0.293904
885.000000	0.293723
886.000000	0.293554
887.000000	0.293377
888.000000	0.293172
889.000000	0.293029
890.000000	0.292851
891.000000	0.292692
892.000000	0.292508
893.000000	0.292273
894.000000	0.292114
895.000000	0.292030
896.000000	0.291853
897.000000	0.291567
898.000000	0.291245
899.000000	0.291044
900.000000	0.290921
901.000000	0.290787
902.000000	0.290638
903.000000	0.290401
904.000000	0.290205
905.000000	0.290072
906.000000	0.289872
907.000000	0.289723
908.000000	0.289620
909.000000	0.289256
910.000000	0.288919
911.000000	0.288727
912.000000	0.288685
913.000000	0.288500
914.000000	0.288299
915.000000	0.288112
916.000000	0.287745
917.000000	0.287470
918.000000	0.287318
919.000000	0.287239
920.000000	0.287209
921.000000	0.286943
922.000000	0.286584
923.000000	0.286431
924.000000	0.286179
925.000000	0.285947
926.000000	0.285836
927.000000	0.285730
928.000000	0.285571
929.000000	0.285366
930.000000	0.285139
931.000000	0.284814
932.000000	0.284447
933.000000	0.284147
934.000000	0.283964
935.000000	0.283810
936.000000	0.283687
937.000000	0.283493
938.000000	0.283192
939.000000	0.282943
940.000000	0.282790
941.000000	0.282805
942.000000	0.282436
943.000000	0.282092
944.000000	0.281917
945.000000	0.281781
946.000000	0.281471
947.000000	0.281182
948.000000	0.281107
949.000000	0.281086
950.000000	0.280976
951.000000	0.280737
952.000000	0.280536
953.000000	0.279986
954.000000	0.279642
955.000000	0.279755
956.000000	0.279643
957.000000	0.279532
958.000000	0.279353
959.000000	0.279105
960.000000	0.279065
961.000000	0.279008
962.000000	0.278819
963.000000	0.278621
964.000000	0.278466
965.000000	0.278288
966.000000	0.277970
967.000000	0.277842
968.000000	0.277604
969.000000	0.277218
970.000000	0.276924
971.000000	0.276889
972.000000	0.276919
973.000000	0.276791
974.000000	0.276489
975.000000	0.276331
976.000000	0.276261
977.000000	0.276127
978.000000	0.275766
979.000000	0.275803
980.000000	0.275819
981.000000	0.275510
982.000000	0.275345
983.000000	0.275230
984.000000	0.275185
985.000000	0.275214
986.000000	0.275013
987.000000	0.274861
988.000000	0.274809
989.000000	0.274530
990.000000	0.274296
991.000000	0.274241
992.000000	0.274399
993.000000	0.274388
994.000000	0.274186
995.000000	0.273986
996.000000	0.273770
997.000000	0.273825
998.000000	0.274010
999.000000	0.274123
1000.000000	0.273739
1001.000000	0.274670
1002.000000	0.273932
1003.000000	0.273270
1004.000000	0.273406
1005.000000	0.274451
1006.000000	0.274347
1007.000000	0.274204
1008.000000	0.274837
1009.000000	0.273844
1010.000000	0.273193
1011.000000	0.273846
1012.000000	0.273173
1013.000000	0.272422
1014.000000	0.272868
1015.000000	0.272746
1016.000000	0.272300
1017.000000	0.272793
1018.000000	0.273128
1019.000000	0.273312
1020.000000	0.274094
1021.000000	0.274036
1022.000000	0.273316
1023.000000	0.273268
1024.000000	0.272981
1025.000000	0.273107
1026.000000	0.273697
1027.000000	0.273663
1028.000000	0.273862
1029.000000	0.273814
1030.000000	0.273287
1031.000000	0.273163
1032.000000	0.273466
1033.000000	0.273911
1034.000000	0.274134
1035.000000	0.274969
1036.000000	0.275104
1037.000000	0.274182
1038.000000	0.274038
1039.000000	0.274320
1040.000000	0.274468
1041.000000	0.274588
1042.000000	0.274665
1043.000000	0.274498
1044.000000	0.274387
1045.000000	0.274811
1046.000000	0.275345
1047.000000	0.275713
1048.000000	0.276349
1049.000000	0.276350
1050.000000	0.275906
1051.000000	0.275787
1052.000000	0.275241
1053.000000	0.275174
1054.000000	0.275723
1055.000000	0.275873
1056.000000	0.275945
1057.000000	0.276320
1058.000000	0.276288
1059.000000	0.276777
1060.000000	0.277484
1061.000000	0.277927
1062.000000	0.278264
1063.000000	0.278284
1064.000000	0.278660
1065.000000	0.279178
1066.000000	0.279433
1067.000000	0.279756
1068.000000	0.280000
1069.000000	0.279755
1070.000000	0.279838
1071.000000	0.280429
1072.000000	0.280575
1073.000000	0.280298
1074.000000	0.280580
1075.000000	0.281054
1076.000000	0.281255
1077.000000	0.281810
1078.000000	0.282294
1079.000000	0.282356
1080.000000	0.281713
1081.000000	0.282000
1082.000000	0.282697
1083.000000	0.283006
1084.000000	0.283739
1085.000000	0.284169
1086.000000	0.283858
1087.000000	0.284180
1088.000000	0.285034
1089.000000	0.285407
1090.000000	0.285487
1091.000000	0.285949
1092.000000	0.286204
1093.000000	0.286294
1094.000000	0.286365
1095.000000	0.286413
1096.000000	0.286567
1097.000000	0.286555
1098.000000	0.286754
1099.000000	0.287198
1100.000000	0.287474
1101.000000	0.287573
1102.000000	0.287836
1103.000000	0.288258
1104.000000	0.288509
1105.000000	0.288668
1106.000000	0.288903
1107.000000	0.289067
1108.000000	0.289159
1109.000000	0.289151
1110.000000	0.289423
1111.000000	0.289756
1112.000000	0.290165
1113.000000	0.290393
1114.000000	0.290695
1115.000000	0.291004
1116.000000	0.291109
1117.000000	0.291380
1118.000000	0.291885
1119.000000	0.292211
1120.000000	0.292353
1121.000000	0.292647
1122.000000	0.293172
1123.000000	0.293689
1124.000000	0.294078
1125.000000	0.294415
1126.000000	0.294582
1127.000000	0.294730
1128.000000	0.294840
1129.000000	0.294902
1130.000000	0.295080
1131.000000	0.295362
1132.000000	0.295410
1133.000000	0.295402
1134.000000	0.295540
1135.000000	0.295603
1136.000000	0.295609
1137.000000	0.295593
1138.000000	0.295732
1139.000000	0.295893
1140.000000	0.296165
1141.000000	0.296798
1142.000000	0.297115
1143.000000	0.297070
1144.000000	0.297302
1145.000000	0.297533
1146.000000	0.297487
1147.000000	0.297515
1148.000000	0.297489
1149.000000	0.297533
1150.000000	0.297532
1151.000000	0.297602
1152.000000	0.297711
1153.000000	0.297861
1154.000000	0.298002
1155.000000	0.298055
1156.000000	0.298170
1157.000000	0.298236
1158.000000	0.298052
1159.000000	0.298066
1160.000000	0.298149
1161.000000	0.298261
1162.000000	0.298511
1163.000000	0.298947
1164.000000	0.299042
1165.000000	0.298972
1166.000000	0.299034
1167.000000	0.298901
1168.000000	0.298921
1169.000000	0.299126
1170.000000	0.299270
1171.000000	0.299463
1172.000000	0.299543
1173.000000	0.299611
1174.000000	0.299624
1175.000000	0.299341
1176.000000	0.299331
1177.000000	0.299602
1178.000000	0.299707
1179.000000	0.299965
1180.000000	0.299985
1181.000000	0.299794
1182.000000	0.299646
1183.000000	0.299836
1184.000000	0.299923
1185.000000	0.300032
1186.000000	0.300361
1187.000000	0.300424
1188.000000	0.300273
1189.000000	0.300241
1190.000000	0.300258
1191.000000	0.300244
1192.000000	0.300227
1193.000000	0.300429
1194.000000	0.300729
1195.000000	0.300840
1196.000000	0.300885
1197.000000	0.300998
1198.000000	0.301004
1199.000000	0.301021
1200.000000	0.301159
1201.000000	0.301241
1202.000000	0.301079
1203.000000	0.301143
1204.000000	0.301174
1205.000000	0.301084
1206.000000	0.301049
1207.000000	0.301096
1208.000000	0.301092
1209.000000	0.301158
1210.000000	0.301216
1211.000000	0.301239
1212.000000	0.301264
1213.000000	0.301340
1214.000000	0.301459
1215.000000	0.301598
1216.000000	0.301695
1217.000000	0.301834
1218.000000	0.301855
1219.000000	0.301778
1220.000000	0.301779
1221.000000	0.301728
1222.000000	0.301562
1223.000000	0.301594
1224.000000	0.301679
1225.000000	0.301614
1226.000000	0.301667
1227.000000	0.301760
1228.000000	0.301883
1229.000000	0.301948
1230.000000	0.302117
1231.000000	0.302171
1232.000000	0.302149
1233.000000	0.302335
1234.000000	0.302677
1235.000000	0.302819
1236.000000	0.302866
1237.000000	0.302921
1238.000000	0.302814
1239.000000	0.302795
1240.000000	0.302845
1241.000000	0.302826
1242.000000	0.302758
1243.000000	0.302693
1244.000000	0.302612
1245.000000	0.302550
1246.000000	0.302442
1247.000000	0.302334
1248.000000	0.302280
1249.000000	0.302258
1250.000000	0.302251
1251.000000	0.302160
1252.000000	0.302136
1253.000000	0.302149
1254.000000	0.302156
1255.000000	0.302244
1256.000000	0.302253
1257.000000	0.302185
1258.000000	0.302189
1259.000000	0.302096
1260.000000	0.302137
1261.000000	0.302292
1262.000000	0.302324
1263.000000	0.302326
1264.000000	0.302341
1265.000000	0.302440
1266.000000	0.302461
1267.000000	0.302501
1268.000000	0.302533
1269.000000	0.302490
1270.000000	0.302569
1271.000000	0.302661
1272.000000	0.302846
1273.000000	0.302973
1274.000000	0.302907
1275.000000	0.302916
1276.000000	0.302922
1277.000000	0.303023
1278.000000	0.303191
1279.000000	0.303169
1280.000000	0.303025
1281.000000	0.302820
1282.000000	0.302378
1283.000000	0.302285
1284.000000	0.302346
1285.000000	0.302324
1286.000000	0.302427
1287.000000	0.302375
1288.000000	0.302194
1289.000000	0.302160
1290.000000	0.302114
1291.000000	0.302119
1292.000000	0.302180
1293.000000	0.302098
1294.000000	0.302043
1295.000000	0.302120
1296.000000	0.302147
1297.000000	0.302073
1298.000000	0.302135
1299.000000	0.302237
1300.000000	0.302244
1301.000000	0.302161
1302.000000	0.302088
1303.000000	0.301990
1304.000000	0.301968
1305.000000	0.302125
1306.000000	0.302231
1307.000000	0.302429
1308.000000	0.302504
1309.000000	0.302511
1310.000000	0.302557
1311.000000	0.302601
1312.000000	0.302565
1313.000000	0.302646
1314.000000	0.302696
1315.000000	0.302589
1316.000000	0.302528
1317.000000	0.302462
1318.000000	0.302341
1319.000000	0.302214
1320.000000	0.302131
1321.000000	0.301954
1322.000000	0.301897
1323.000000	0.302011
1324.000000	0.302013
1325.000000	0.302042
1326.000000	0.302063
1327.000000	0.301965
1328.000000	0.301922
1329.000000	0.301731
1330.000000	0.301282
1331.000000	0.301219
1332.000000	0.301390
1333.000000	0.301406
1334.000000	0.301747
1335.000000	0.301780
1336.000000	0.301334
1337.000000	0.301276
1338.000000	0.301274
1339.000000	0.301346
1340.000000	0.301575
1341.000000	0.301691
1342.000000	0.301525
1343.000000	0.301280
1344.000000	0.301123
1345.000000	0.301106
1346.000000	0.301275
1347.000000	0.301406
1348.000000	0.301452
1349.000000	0.301394
1350.000000	0.301283
1351.000000	0.301100
1352.000000	0.300971
1353.000000	0.300899
1354.000000	0.300901
1355.000000	0.300911
1356.000000	0.301039
1357.000000	0.301045
1358.000000	0.300845
1359.000000	0.300725
1360.000000	0.300612
1361.000000	0.300386
1362.000000	0.300327
1363.000000	0.300474
1364.000000	0.300417
1365.000000	0.300273
1366.000000	0.300220
1367.000000	0.300114
1368.000000	0.299962
1369.000000	0.300184
1370.000000	0.300192
1371.000000	0.299998
1372.000000	0.299905
1373.000000	0.299667
1374.000000	0.299453
1375.000000	0.299353
1376.000000	0.299244
1377.000000	0.299280
1378.000000	0.299299
1379.000000	0.298905
1380.000000	0.298806
1381.000000	0.298761
1382.000000	0.298403
1383.000000	0.298404
1384.000000	0.298222
1385.000000	0.297754
1386.000000	0.297467
1387.000000	0.297214
1388.000000	0.296979
1389.000000	0.296825
1390.000000	0.296648
1391.000000	0.296417
1392.000000	0.296261
1393.000000	0.295995
1394.000000	0.295641
1395.000000	0.295441
1396.000000	0.295320
1397.000000	0.295016
1398.000000	0.294650
1399.000000	0.294375
1400.000000	0.293978
1401.000000	0.293666
1402.000000	0.293545
1403.000000	0.293336
1404.000000	0.292962
1405.000000	0.292533
1406.000000	0.292208
1407.000000	0.292010
1408.000000	0.291852
1409.000000	0.291696
1410.000000	0.291462
1411.000000	0.291114
1412.000000	0.290863
1413.000000	0.290733
1414.000000	0.290568
1415.000000	0.290556
1416.000000	0.290512
1417.000000	0.290399
1418.000000	0.290393
1419.000000	0.290360
1420.000000	0.290214
1421.000000	0.290237
1422.000000	0.290291
1423.000000	0.290434
1424.000000	0.290474
1425.000000	0.290362
1426.000000	0.290196
1427.000000	0.289946
1428.000000	0.289761
1429.000000	0.289749
1430.000000	0.289749
1431.000000	0.289669
1432.000000	0.289581
1433.000000	0.289533
1434.000000	0.289432
1435.000000	0.289302
1436.000000	0.289310
1437.000000	0.289358
1438.000000	0.289379
1439.000000	0.289472
1440.000000	0.289657
1441.000000	0.289951
1442.000000	0.290163
1443.000000	0.290335
1444.000000	0.290583
1445.000000	0.290786
1446.000000	0.290876
1447.000000	0.291083
1448.000000	0.291204
1449.000000	0.291199
1450.000000	0.291290
1451.000000	0.291412
1452.000000	0.291397
1453.000000	0.291339
1454.000000	0.291271
1455.000000	0.291182
1456.000000	0.291259
1457.000000	0.291352
1458.000000	0.291415
1459.000000	0.291483
1460.000000	0.291411
1461.000000	0.291319
1462.000000	0.291306
1463.000000	0.291196
1464.000000	0.291165
1465.000000	0.291316
1466.000000	0.291289
1467.000000	0.291302
1468.000000	0.291502
1469.000000	0.291635
1470.000000	0.291610
1471.000000	0.291662
1472.000000	0.291726
1473.000000	0.291780
1474.000000	0.291933
1475.000000	0.292155
1476.000000	0.292270
1477.000000	0.292334
1478.000000	0.292363
1479.000000	0.292375
1480.000000	0.292398
1481.000000	0.292432
1482.000000	0.292566
1483.000000	0.292728
1484.000000	0.292935
1485.000000	0.293039
1486.000000	0.293072
1487.000000	0.293148
1488.000000	0.293241
1489.000000	0.293351
1490.000000	0.293376
1491.000000	0.293446
1492.000000	0.293463
1493.000000	0.293460
1494.000000	0.293417
1495.000000	0.293461
1496.000000	0.293506
1497.000000	0.293559
1498.000000	0.293660
1499.000000	0.293784
1500.000000	0.294006
1501.000000	0.294161
1502.000000	0.294267
1503.000000	0.294486
1504.000000	0.294569
1505.000000	0.294566
1506.000000	0.294666
1507.000000	0.294771
1508.000000	0.294919
1509.000000	0.295108
1510.000000	0.295286
1511.000000	0.295404
1512.000000	0.295414
1513.000000	0.295460
1514.000000	0.295521
1515.000000	0.295490
1516.000000	0.295475
1517.000000	0.295361
1518.000000	0.295299
1519.000000	0.295301
1520.000000	0.295321
1521.000000	0.295345
1522.000000	0.295331
1523.000000	0.295309
1524.000000	0.295285
1525.000000	0.295284
1526.000000	0.295188
1527.000000	0.295059
1528.000000	0.295076
1529.000000	0.295125
1530.000000	0.295120
1531.000000	0.295268
1532.000000	0.295374
1533.000000	0.295366
1534.000000	0.295386
1535.000000	0.295427
1536.000000	0.295433
1537.000000	0.295472
1538.000000	0.295575
1539.000000	0.295628
1540.000000	0.295705
1541.000000	0.295794
1542.000000	0.295822
1543.000000	0.295862
1544.000000	0.295767
1545.000000	0.295649
1546.000000	0.295662
1547.000000	0.295702
1548.000000	0.295767
1549.000000	0.295902
1550.000000	0.296009
1551.000000	0.296025
1552.000000	0.295989
1553.000000	0.295944
1554.000000	0.295933
1555.000000	0.295960
1556.000000	0.296106
1557.000000	0.296240
1558.000000	0.296313
1559.000000	0.296326
1560.000000	0.296262
1561.000000	0.296078
1562.000000	0.295991
1563.000000	0.295923
1564.000000	0.295933
1565.000000	0.296048
1566.000000	0.296023
1567.000000	0.296077
1568.000000	0.296008
1569.000000	0.295889
1570.000000	0.295863
1571.000000	0.295789
1572.000000	0.295794
1573.000000	0.295910
1574.000000	0.295910
1575.000000	0.295929
1576.000000	0.295924
1577.000000	0.295821
1578.000000	0.295804
1579.000000	0.295892
1580.000000	0.295869
1581.000000	0.295854
1582.000000	0.295880
1583.000000	0.295876
1584.000000	0.295864
1585.000000	0.295983
1586.000000	0.296063
1587.000000	0.296104
1588.000000	0.296140
1589.000000	0.296193
1590.000000	0.296257
1591.000000	0.296332
1592.000000	0.296378
1593.000000	0.296493
1594.000000	0.296501
1595.000000	0.296401
1596.000000	0.296492
1597.000000	0.296746
1598.000000	0.296791
1599.000000	0.296838
1600.000000	0.296831
1601.000000	0.296744
1602.000000	0.296646
1603.000000	0.296616
1604.000000	0.296606
1605.000000	0.296529
1606.000000	0.296437
1607.000000	0.296504
1608.000000	0.296408
1609.000000	0.296234
1610.000000	0.296084
1611.000000	0.295921
1612.000000	0.295719
1613.000000	0.295505
1614.000000	0.295399
1615.000000	0.295387
1616.000000	0.295415
1617.000000	0.295506
1618.000000	0.295502
1619.000000	0.295488
1620.000000	0.295485
1621.000000	0.295477
1622.000000	0.295544
1623.000000	0.295547
1624.000000	0.295614
1625.000000	0.295668
1626.000000	0.295661
1627.000000	0.295704
1628.000000	0.295739
1629.000000	0.295662
1630.000000	0.295675
1631.000000	0.295700
1632.000000	0.295665
1633.000000	0.295655
1634.000000	0.295639
1635.000000	0.295588
1636.000000	0.295602
1637.000000	0.295747
1638.000000	0.295669
1639.000000	0.295579
1640.000000	0.295457
1641.000000	0.295167
1642.000000	0.295079
1643.000000	0.295134
1644.000000	0.295116
1645.000000	0.295235
1646.000000	0.295116
1647.000000	0.294794
1648.000000	0.294712
1649.000000	0.294696
1650.000000	0.294719
1651.000000	0.295021
1652.000000	0.295153
1653.000000	0.295092
1654.000000	0.295171
1655.000000	0.295242
1656.000000	0.295245
1657.000000	0.295336
1658.000000	0.295365
1659.000000	0.295467
1660.000000	0.295500
1661.000000	0.295398
1662.000000	0.295391
1663.000000	0.295289
1664.000000	0.295331
1665.000000	0.295539
1666.000000	0.295625
1667.000000	0.295671
1668.000000	0.295637
1669.000000	0.295415
1670.000000	0.295353
1671.000000	0.295423
1672.000000	0.295474
1673.000000	0.295554
1674.000000	0.295625
1675.000000	0.295773
1676.000000	0.295963
1677.000000	0.296127
1678.000000	0.296137
1679.000000	0.296131
1680.000000	0.296112
1681.000000	0.296106
1682.000000	0.296047
1683.000000	0.296076
1684.000000	0.296243
1685.000000	0.296147
1686.000000	0.296045
1687.000000	0.296108
1688.000000	0.295873
1689.000000	0.295765
1690.000000	0.295973
1691.000000	0.296096
1692.000000	0.296137
1693.000000	0.296353
1694.000000	0.296316
1695.000000	0.296143
1696.000000	0.296193
1697.000000	0.296115
1698.000000	0.296101
1699.000000	0.296069
1700.000000	0.295864
1701.000000	0.295846
1702.000000	0.295798
1703.000000	0.295702
1704.000000	0.295768
1705.000000	0.295734
1706.000000	0.295613
1707.000000	0.295565
1708.000000	0.295431
1709.000000	0.295376
1710.000000	0.295583
1711.000000	0.295642
1712.000000	0.295677
1713.000000	0.295730
1714.000000	0.295772
1715.000000	0.295796
1716.000000	0.295853
1717.000000	0.295898
1718.000000	0.295846
1719.000000	0.295831
1720.000000	0.295913
1721.000000	0.295977
1722.000000	0.296033
1723.000000	0.296104
1724.000000	0.296257
1725.000000	0.296318
1726.000000	0.296210
1727.000000	0.296240
1728.000000	0.296263
1729.000000	0.296176
1730.000000	0.296292
1731.000000	0.296198
1732.000000	0.295869
1733.000000	0.295812
1734.000000	0.295671
1735.000000	0.295621
1736.000000	0.295698
1737.000000	0.295686
1738.000000	0.295692
1739.000000	0.295615
1740.000000	0.295451
1741.000000	0.295401
1742.000000	0.295304
1743.000000	0.295443
1744.000000	0.295793
1745.000000	0.295865
1746.000000	0.295918
1747.000000	0.295886
1748.000000	0.295808
1749.000000	0.295800
1750.000000	0.295719
1751.000000	0.295621
1752.000000	0.295633
1753.000000	0.295510
1754.000000	0.295492
1755.000000	0.295619
1756.000000	0.295564
1757.000000	0.295421
1758.000000	0.295359
1759.000000	0.295227
1760.000000	0.295053
1761.000000	0.294781
1762.000000	0.294723
1763.000000	0.294744
1764.000000	0.294750
1765.000000	0.294954
1766.000000	0.295046
1767.000000	0.294904
1768.000000	0.294847
1769.000000	0.294918
1770.000000	0.295036
1771.000000	0.295147
1772.000000	0.295228
1773.000000	0.295362
1774.000000	0.295362
1775.000000	0.295280
1776.000000	0.295275
1777.000000	0.295252
1778.000000	0.295126
1779.000000	0.294952
1780.000000	0.294826
1781.000000	0.294566
1782.000000	0.294465
1783.000000	0.294562
1784.000000	0.294355
1785.000000	0.294237
1786.000000	0.294257
1787.000000	0.294314
1788.000000	0.294551
1789.000000	0.294698
1790.000000	0.294750
1791.000000	0.294715
1792.000000	0.294687
1793.000000	0.294625
1794.000000	0.294480
1795.000000	0.294382
1796.000000	0.294241
1797.000000	0.294166
1798.000000	0.294163
1799.000000	0.294093
1800.000000	0.294085
1801.000000	0.294525
1802.000000	0.294481
1803.000000	0.293335
1804.000000	0.293417
1805.000000	0.293300
1806.000000	0.293571
1807.000000	0.294992
1808.000000	0.295756
1809.000000	0.296439
1810.000000	0.296535
1811.000000	0.296741
1812.000000	0.297071
1813.000000	0.296964
1814.000000	0.296739
1815.000000	0.296000
1816.000000	0.294414
1817.000000	0.293394
1818.000000	0.291629
1819.000000	0.291193
1820.000000	0.291778
1821.000000	0.292107
1822.000000	0.292583
1823.000000	0.293729
1824.000000	0.293973
1825.000000	0.293798
1826.000000	0.293595
1827.000000	0.292429
1828.000000	0.292272
1829.000000	0.292039
1830.000000	0.292174
1831.000000	0.292434
1832.000000	0.293046
1833.000000	0.293232
1834.000000	0.293576
1835.000000	0.293673
1836.000000	0.293471
1837.000000	0.293492
1838.000000	0.293317
1839.000000	0.293220
1840.000000	0.293253
1841.000000	0.292644
1842.000000	0.292537
1843.000000	0.292388
1844.000000	0.292517
1845.000000	0.293137
1846.000000	0.293337
1847.000000	0.293383
1848.000000	0.293166
1849.000000	0.293118
1850.000000	0.293110
1851.000000	0.293131
1852.000000	0.293208
1853.000000	0.293541
1854.000000	0.294320
1855.000000	0.294188
1856.000000	0.293805
1857.000000	0.293187
1858.000000	0.292336
1859.000000	0.291000
1860.000000	0.290636
1861.000000	0.290978
1862.000000	0.290622
1863.000000	0.289755
1864.000000	0.289563
1865.000000	0.289559
1866.000000	0.289552
1867.000000	0.289991
1868.000000	0.290372
1869.000000	0.290270
1870.000000	0.289684
1871.000000	0.288796
1872.000000	0.288035
1873.000000	0.287589
1874.000000	0.287516
1875.000000	0.287021
1876.000000	0.286227
1877.000000	0.285498
1878.000000	0.284658
1879.000000	0.283273
1880.000000	0.282706
1881.000000	0.282677
1882.000000	0.282688
1883.000000	0.282614
1884.000000	0.282315
1885.000000	0.281727
1886.000000	0.280943
1887.000000	0.279904
1888.000000	0.278606
1889.000000	0.277275
1890.000000	0.276268
1891.000000	0.275100
1892.000000	0.274468
1893.000000	0.273574
1894.000000	0.272258
1895.000000	0.270850
1896.000000	0.269448
1897.000000	0.267546
1898.000000	0.265867
1899.000000	0.264748
1900.000000	0.264003
1901.000000	0.263527
1902.000000	0.263105
1903.000000	0.262503
1904.000000	0.261302
1905.000000	0.260026
1906.000000	0.259137
1907.000000	0.258292
1908.000000	0.257774
1909.000000	0.257542
1910.000000	0.257496
1911.000000	0.256963
1912.000000	0.256064
1913.000000	0.256177
1914.000000	0.256126
1915.000000	0.256023
1916.000000	0.256633
1917.000000	0.256601
1918.000000	0.256164
1919.000000	0.255873
1920.000000	0.255908
1921.000000	0.255711
1922.000000	0.255885
1923.000000	0.255922
1924.000000	0.255608
1925.000000	0.255482
1926.000000	0.255534
1927.000000	0.255807
1928.000000	0.255853
1929.000000	0.256091
1930.000000	0.255817
1931.000000	0.255414
1932.000000	0.255647
1933.000000	0.255804
1934.000000	0.256220
1935.000000	0.257292
1936.000000	0.258061
1937.000000	0.258619
1938.000000	0.258762
1939.000000	0.258862
1940.000000	0.258691
1941.000000	0.258219
1942.000000	0.257754
1943.000000	0.257961
1944.000000	0.257909
1945.000000	0.257432
1946.000000	0.257126
1947.000000	0.257123
1948.000000	0.257622
1949.000000	0.258501
1950.000000	0.259332
1951.000000	0.259656
1952.000000	0.259808
1953.000000	0.259252
1954.000000	0.258627
1955.000000	0.258393
1956.000000	0.258472
1957.000000	0.258860
1958.000000	0.259683
1959.000000	0.260458
1960.000000	0.260598
1961.000000	0.260801
1962.000000	0.260618
1963.000000	0.259879
1964.000000	0.259031
1965.000000	0.259174
1966.000000	0.259380
1967.000000	0.259806
1968.000000	0.260224
1969.000000	0.260029
1970.000000	0.260053
1971.000000	0.260038
1972.000000	0.260106
1973.000000	0.260120
1974.000000	0.260255
1975.000000	0.260260
1976.000000	0.260041
1977.000000	0.260377
1978.000000	0.260907
1979.000000	0.261180
1980.000000	0.261572
1981.000000	0.262019
1982.000000	0.262015
1983.000000	0.262212
1984.000000	0.262133
1985.000000	0.261657
1986.000000	0.261462
1987.000000	0.261384
1988.000000	0.261220
1989.000000	0.261173
1990.000000	0.261632
1991.000000	0.261484
1992.000000	0.261882
1993.000000	0.262491
1994.000000	0.262841
1995.000000	0.263566
1996.000000	0.264372
1997.000000	0.264779
1998.000000	0.265145
1999.000000	0.265315
2000.000000	0.265388
2001.000000	0.264594
2002.000000	0.264360
2003.000000	0.264213
2004.000000	0.263935
2005.000000	0.264171
2006.000000	0.264120
2007.000000	0.264508
2008.000000	0.265020
2009.000000	0.265796
2010.000000	0.266301
2011.000000	0.266810
2012.000000	0.267161
2013.000000	0.267029
2014.000000	0.267446
2015.000000	0.268174
2016.000000	0.268726
2017.000000	0.269329
2018.000000	0.269503
2019.000000	0.269314
2020.000000	0.269240
2021.000000	0.269362
2022.000000	0.269677
2023.000000	0.269847
2024.000000	0.270165
2025.000000	0.270256
2026.000000	0.270207
2027.000000	0.269622
2028.000000	0.269081
2029.000000	0.269237
2030.000000	0.268573
2031.000000	0.268313
2032.000000	0.269011
2033.000000	0.269238
2034.000000	0.269702
2035.000000	0.271247
2036.000000	0.271608
2037.000000	0.271301
2038.000000	0.271375
2039.000000	0.271393
2040.000000	0.271088
2041.000000	0.271272
2042.000000	0.271650
2043.000000	0.271930
2044.000000	0.272674
2045.000000	0.273118
2046.000000	0.273163
2047.000000	0.273364
2048.000000	0.273222
2049.000000	0.273469
2050.000000	0.273877
2051.000000	0.273822
2052.000000	0.273510
2053.000000	0.273253
2054.000000	0.272907
2055.000000	0.272607
2056.000000	0.272635
2057.000000	0.272393
2058.000000	0.272529
2059.000000	0.272642
2060.000000	0.272448
2061.000000	0.271971
2062.000000	0.272105
2063.000000	0.272353
2064.000000	0.272595
2065.000000	0.273850
2066.000000	0.274260
2067.000000	0.274662
2068.000000	0.274329
2069.000000	0.273632
2070.000000	0.273717
2071.000000	0.273533
2072.000000	0.273485
2073.000000	0.274336
2074.000000	0.274931
2075.000000	0.275344
2076.000000	0.275789
2077.000000	0.276026
2078.000000	0.275961
2079.000000	0.275894
2080.000000	0.275737
2081.000000	0.275861
2082.000000	0.276123
2083.000000	0.276065
2084.000000	0.276613
2085.000000	0.276646
2086.000000	0.276289
2087.000000	0.276254
2088.000000	0.275663
2089.000000	0.275470
2090.000000	0.275397
2091.000000	0.275452
2092.000000	0.275545
2093.000000	0.276171
2094.000000	0.276147
2095.000000	0.275697
2096.000000	0.275612
2097.000000	0.275248
2098.000000	0.275030
2099.000000	0.275448
2100.000000	0.276258
2101.000000	0.277113
2102.000000	0.277434
2103.000000	0.277624
2104.000000	0.277791
2105.000000	0.277985
2106.000000	0.278212
2107.000000	0.278454
2108.000000	0.278756
2109.000000	0.278754
2110.000000	0.278262
2111.000000	0.278064
2112.000000	0.277608
2113.000000	0.277394
2114.000000	0.277324
2115.000000	0.277557
2116.000000	0.278135
2117.000000	0.278708
2118.000000	0.279005
2119.000000	0.279007
2120.000000	0.278856
2121.000000	0.277684
2122.000000	0.277687
2123.000000	0.278522
2124.000000	0.278647
2125.000000	0.278941
2126.000000	0.279069
2127.000000	0.278473
2128.000000	0.278518
2129.000000	0.278833
2130.000000	0.279419
2131.000000	0.279861
2132.000000	0.280054
2133.000000	0.280449
2134.000000	0.280491
2135.000000	0.279710
2136.000000	0.279343
2137.000000	0.279030
2138.000000	0.278362
2139.000000	0.278130
2140.000000	0.278463
2141.000000	0.278410
2142.000000	0.278450
2143.000000	0.278087
2144.000000	0.277458
2145.000000	0.277318
2146.000000	0.277260
2147.000000	0.277271
2148.000000	0.277706
2149.000000	0.278278
2150.000000	0.279350
2151.000000	0.279941
2152.000000	0.280097
2153.000000	0.280103
2154.000000	0.279718
2155.000000	0.278292
2156.000000	0.277738
2157.000000	0.277437
2158.000000	0.277250
2159.000000	0.277154
2160.000000	0.277402
2161.000000	0.277984
2162.000000	0.278602
2163.000000	0.279770
2164.000000	0.280505
2165.000000	0.281460
2166.000000	0.281483
2167.000000	0.281106
2168.000000	0.280350
2169.000000	0.279261
2170.000000	0.278474
2171.000000	0.277539
2172.000000	0.276377
2173.000000	0.275680
2174.000000	0.275056
2175.000000	0.274724
2176.000000	0.274891
2177.000000	0.275225
2178.000000	0.276303
2179.000000	0.276270
2180.000000	0.275600
2181.000000	0.275637
2182.000000	0.274543
2183.000000	0.273962
2184.000000	0.274905
2185.000000	0.276051
2186.000000	0.277054
2187.000000	0.277430
2188.000000	0.277782
2189.000000	0.278018
2190.000000	0.277921
2191.000000	0.278972
2192.000000	0.278869
2193.000000	0.277980
2194.000000	0.277228
2195.000000	0.275960
2196.000000	0.275058
2197.000000	0.274372
2198.000000	0.274023
2199.000000	0.273600
2200.000000	0.273394
2201.000000	0.273513
2202.000000	0.273695
2203.000000	0.273688
2204.000000	0.274941
2205.000000	0.275115
2206.000000	0.275397
2207.000000	0.276232
2208.000000	0.276641
2209.000000	0.276565
2210.000000	0.277083
2211.000000	0.278532
2212.000000	0.279761
2213.000000	0.279088
2214.000000	0.278285
2215.000000	0.276769
2216.000000	0.271642
2217.000000	0.270178
2218.000000	0.270176
2219.000000	0.271086
2220.000000	0.274708
2221.000000	0.276217
2222.000000	0.277623
2223.000000	0.278492
2224.000000	0.278922
2225.000000	0.277961
2226.000000	0.275576
2227.000000	0.274676
2228.000000	0.273085
2229.000000	0.269500
2230.000000	0.269636
2231.000000	0.270802
2232.000000	0.269733
2233.000000	0.271750
2234.000000	0.271997
2235.000000	0.270763
2236.000000	0.270888
2237.000000	0.271548
2238.000000	0.271221
2239.000000	0.270519
2240.000000	0.271102
2241.000000	0.272261
2242.000000	0.273501
2243.000000	0.276110
2244.000000	0.277244
2245.000000	0.277474
2246.000000	0.276707
2247.000000	0.274219
2248.000000	0.273505
2249.000000	0.272429
2250.000000	0.273071
2251.000000	0.273841
2252.000000	0.272682
2253.000000	0.271905
2254.000000	0.270672
2255.000000	0.269656
2256.000000	0.272461
2257.000000	0.274195
2258.000000	0.273759
2259.000000	0.275398
2260.000000	0.276232
2261.000000	0.276176
2262.000000	0.276195
2263.000000	0.275232
2264.000000	0.272892
2265.000000	0.271198
2266.000000	0.268233
2267.000000	0.267460
2268.000000	0.268459
2269.000000	0.267630
2270.000000	0.267289
2271.000000	0.266444
2272.000000	0.262739
2273.000000	0.262508
2274.000000	0.265431
2275.000000	0.266321
2276.000000	0.268605
2277.000000	0.268171
2278.000000	0.266312
2279.000000	0.265554
2280.000000	0.265607
2281.000000	0.266633
2282.000000	0.266551
2283.000000	0.265983
2284.000000	0.265395
2285.000000	0.265615
2286.000000	0.267052
2287.000000	0.267779
2288.000000	0.268199
2289.000000	0.265809
2290.000000	0.262892
2291.000000	0.260665
2292.000000	0.257822
2293.000000	0.258191
2294.000000	0.257922
2295.000000	0.258069
2296.000000	0.258427
2297.000000	0.258818
2298.000000	0.259812
2299.000000	0.262000
2300.000000	0.263026
2301.000000	0.264276
2302.000000	0.264899
2303.000000	0.264382
2304.000000	0.264281
2305.000000	0.264282
2306.000000	0.263571
2307.000000	0.261487
2308.000000	0.262072
2309.000000	0.261834
2310.000000	0.262407
2311.000000	0.263805
2312.000000	0.264000
2313.000000	0.262823
2314.000000	0.262260
2315.000000	0.263412
2316.000000	0.262332
2317.000000	0.263229
2318.000000	0.266020
2319.000000	0.266771
2320.000000	0.269138
2321.000000	0.271236
2322.000000	0.268213
2323.000000	0.263132
2324.000000	0.258559
2325.000000	0.255016
2326.000000	0.254360
2327.000000	0.256657
2328.000000	0.258109
2329.000000	0.257437
2330.000000	0.256702
2331.000000	0.254230
2332.000000	0.255660
2333.000000	0.258824
2334.000000	0.260677
2335.000000	0.262582
2336.000000	0.263871
2337.000000	0.264723
2338.000000	0.265417
2339.000000	0.264457
2340.000000	0.263207
2341.000000	0.261677
2342.000000	0.257868
2343.000000	0.257306
2344.000000	0.258029
2345.000000	0.258205
2346.000000	0.260093
2347.000000	0.259795
2348.000000	0.257491
2349.000000	0.258666
2350.000000	0.257152
2351.000000	0.253690
2352.000000	0.253555
2353.000000	0.251610
2354.000000	0.250329
2355.000000	0.252741
2356.000000	0.253271
2357.000000	0.254765
2358.000000	0.256483
2359.000000	0.256317
2360.000000	0.256476
2361.000000	0.253882
2362.000000	0.253291
2363.000000	0.254529
2364.000000	0.254057
2365.000000	0.260048
2366.000000	0.264184
2367.000000	0.262188
2368.000000	0.257320
2369.000000	0.248645
2370.000000	0.244124
2371.000000	0.243546
2372.000000	0.248117
2373.000000	0.252716
2374.000000	0.249214
2375.000000	0.247355
2376.000000	0.246633
2377.000000	0.245058
2378.000000	0.245337
2379.000000	0.245157
2380.000000	0.242943
2381.000000	0.239073
2382.000000	0.238788
2383.000000	0.237905
2384.000000	0.237081
2385.000000	0.238830
2386.000000	0.238583
2387.000000	0.240349
2388.000000	0.240643
2389.000000	0.239175
2390.000000	0.242764
2391.000000	0.244601
2392.000000	0.245163
2393.000000	0.251300
2394.000000	0.252908
2395.000000	0.251865
2396.000000	0.254237
2397.000000	0.250640
2398.000000	0.245577
2399.000000	0.245449
2400.000000	0.242915
2401.000000	0.243916
2402.000000	0.249911
2403.000000	0.252663
2404.000000	0.254782
2405.000000	0.257120
2406.000000	0.257983
2407.000000	0.256631
2408.000000	0.256160
2409.000000	0.251493
2410.000000	0.239486
2411.000000	0.227621
2412.000000	0.217290
2413.000000	0.213075
2414.000000	0.219814
2415.000000	0.231669
2416.000000	0.239597
2417.000000	0.244691
2418.000000	0.243909
2419.000000	0.234394
2420.000000	0.233493
2421.000000	0.233396
2422.000000	0.231336
2423.000000	0.238243
2424.000000	0.238693
2425.000000	0.238298
2426.000000	0.242113
2427.000000	0.239815
2428.000000	0.235989
2429.000000	0.231899
2430.000000	0.229626
2431.000000	0.229210
2432.000000	0.232004
2433.000000	0.237475
2434.000000	0.238007
2435.000000	0.241618
2436.000000	0.241941
2437.000000	0.238913
2438.000000	0.230367
2439.000000	0.214154
2440.000000	0.207758
2441.000000	0.202302
2442.000000	0.209030
2443.000000	0.218790
2444.000000	0.225323
2445.000000	0.242468
2446.000000	0.243525
2447.000000	0.240189
2448.000000	0.243373
2449.000000	0.235241
2450.000000	0.233388
2451.000000	0.252411
2452.000000	0.249895
2453.000000	0.227012
2454.000000	0.219603
2455.000000	0.197728
2456.000000	0.185590
2457.000000	0.194347
2458.000000	0.187200
2459.000000	0.197122
2460.000000	0.205076
2461.000000	0.210895
2462.000000	0.238334
2463.000000	0.234768
2464.000000	0.218981
2465.000000	0.208640
2466.000000	0.184641
2467.000000	0.181853
2468.000000	0.183860
2469.000000	0.189573
2470.000000	0.222821
2471.000000	0.239097
2472.000000	0.247345
2473.000000	0.266476
2474.000000	0.245026
2475.000000	0.218670
2476.000000	0.222411
2477.000000	0.210902
2478.000000	0.201780
2479.000000	0.219033
2480.000000	0.231411
2481.000000	0.236607
2482.000000	0.239565
2483.000000	0.211693
2484.000000	0.195661
2485.000000	0.204248
2486.000000	0.221746
2487.000000	0.265255
2488.000000	0.254092
2489.000000	0.177336
2490.000000	0.123653
2491.000000	0.099711
2492.000000	0.099063
2493.000000	0.177470
2494.000000	0.213942
2495.000000	0.230541
2496.000000	0.245549
2497.000000	0.237571
2498.000000	0.232134
2499.000000	0.240277
2500.000000	0.227904
