# Wavelength	NAu-1-10_HEX-40_FV7-50_00001.asd.rts.txt
350.000000	0.172775
351.000000	0.196752
352.000000	0.192211
353.000000	0.175716
354.000000	0.166622
355.000000	0.184746
356.000000	0.192891
357.000000	0.186842
358.000000	0.178719
359.000000	0.176812
360.000000	0.182217
361.000000	0.191282
362.000000	0.190470
363.000000	0.187990
364.000000	0.189084
365.000000	0.188874
366.000000	0.189566
367.000000	0.192388
368.000000	0.198579
369.000000	0.197350
370.000000	0.194217
371.000000	0.197698
372.000000	0.197272
373.000000	0.195781
374.000000	0.195951
375.000000	0.194888
376.000000	0.193578
377.000000	0.192734
378.000000	0.193034
379.000000	0.194519
380.000000	0.196999
381.000000	0.200253
382.000000	0.196952
383.000000	0.194755
384.000000	0.198747
385.000000	0.202353
386.000000	0.204511
387.000000	0.204940
388.000000	0.203357
389.000000	0.203188
390.000000	0.204001
391.000000	0.203874
392.000000	0.204129
393.000000	0.205541
394.000000	0.207710
395.000000	0.206709
396.000000	0.205770
397.000000	0.206311
398.000000	0.207579
399.000000	0.209424
400.000000	0.210820
401.000000	0.210417
402.000000	0.210153
403.000000	0.210511
404.000000	0.211560
405.000000	0.212357
406.000000	0.213275
407.000000	0.214187
408.000000	0.213734
409.000000	0.213667
410.000000	0.214279
411.000000	0.215028
412.000000	0.216103
413.000000	0.216693
414.000000	0.216278
415.000000	0.217051
416.000000	0.217471
417.000000	0.217043
418.000000	0.218237
419.000000	0.219094
420.000000	0.219212
421.000000	0.219372
422.000000	0.220124
423.000000	0.220791
424.000000	0.220545
425.000000	0.220693
426.000000	0.221043
427.000000	0.221273
428.000000	0.221294
429.000000	0.221577
430.000000	0.222117
431.000000	0.222249
432.000000	0.222330
433.000000	0.222507
434.000000	0.222925
435.000000	0.222896
436.000000	0.223059
437.000000	0.223804
438.000000	0.223143
439.000000	0.223117
440.000000	0.224318
441.000000	0.223846
442.000000	0.223815
443.000000	0.224320
444.000000	0.224288
445.000000	0.224180
446.000000	0.224072
447.000000	0.223888
448.000000	0.224434
449.000000	0.225040
450.000000	0.225289
451.000000	0.225810
452.000000	0.226512
453.000000	0.227208
454.000000	0.227739
455.000000	0.228755
456.000000	0.229934
457.000000	0.230438
458.000000	0.231063
459.000000	0.231862
460.000000	0.232716
461.000000	0.233060
462.000000	0.233582
463.000000	0.234278
464.000000	0.234262
465.000000	0.234514
466.000000	0.235108
467.000000	0.235697
468.000000	0.236363
469.000000	0.236823
470.000000	0.236978
471.000000	0.237299
472.000000	0.237566
473.000000	0.237719
474.000000	0.238221
475.000000	0.238676
476.000000	0.239014
477.000000	0.239130
478.000000	0.239494
479.000000	0.239908
480.000000	0.239647
481.000000	0.239777
482.000000	0.240272
483.000000	0.240721
484.000000	0.241197
485.000000	0.241522
486.000000	0.241773
487.000000	0.241911
488.000000	0.242126
489.000000	0.242466
490.000000	0.242860
491.000000	0.243256
492.000000	0.243625
493.000000	0.243843
494.000000	0.244053
495.000000	0.244412
496.000000	0.244935
497.000000	0.245487
498.000000	0.245884
499.000000	0.246154
500.000000	0.246381
501.000000	0.246684
502.000000	0.247090
503.000000	0.247490
504.000000	0.247823
505.000000	0.248081
506.000000	0.248323
507.000000	0.248790
508.000000	0.249291
509.000000	0.249663
510.000000	0.249967
511.000000	0.250285
512.000000	0.250701
513.000000	0.251255
514.000000	0.251749
515.000000	0.252178
516.000000	0.252553
517.000000	0.253015
518.000000	0.253465
519.000000	0.253775
520.000000	0.254220
521.000000	0.254580
522.000000	0.254869
523.000000	0.255477
524.000000	0.255940
525.000000	0.256271
526.000000	0.256759
527.000000	0.257056
528.000000	0.257337
529.000000	0.257875
530.000000	0.258367
531.000000	0.258817
532.000000	0.259182
533.000000	0.259574
534.000000	0.260020
535.000000	0.260498
536.000000	0.260976
537.000000	0.261408
538.000000	0.261826
539.000000	0.262283
540.000000	0.262741
541.000000	0.263191
542.000000	0.263646
543.000000	0.263972
544.000000	0.264363
545.000000	0.264824
546.000000	0.265238
547.000000	0.265672
548.000000	0.266149
549.000000	0.266576
550.000000	0.267023
551.000000	0.267474
552.000000	0.267853
553.000000	0.268302
554.000000	0.268785
555.000000	0.269257
556.000000	0.269684
557.000000	0.270108
558.000000	0.270615
559.000000	0.270976
560.000000	0.271369
561.000000	0.271852
562.000000	0.272283
563.000000	0.272699
564.000000	0.273181
565.000000	0.273684
566.000000	0.274168
567.000000	0.274561
568.000000	0.274851
569.000000	0.275249
570.000000	0.275640
571.000000	0.275991
572.000000	0.276350
573.000000	0.276821
574.000000	0.277290
575.000000	0.277634
576.000000	0.277926
577.000000	0.278224
578.000000	0.278611
579.000000	0.278980
580.000000	0.279351
581.000000	0.279695
582.000000	0.279879
583.000000	0.280146
584.000000	0.280510
585.000000	0.280864
586.000000	0.281173
587.000000	0.281439
588.000000	0.281694
589.000000	0.282058
590.000000	0.282394
591.000000	0.282609
592.000000	0.282735
593.000000	0.282938
594.000000	0.283244
595.000000	0.283546
596.000000	0.283799
597.000000	0.284034
598.000000	0.284227
599.000000	0.284470
600.000000	0.284698
601.000000	0.284799
602.000000	0.285011
603.000000	0.285179
604.000000	0.285283
605.000000	0.285547
606.000000	0.285700
607.000000	0.285766
608.000000	0.285948
609.000000	0.286147
610.000000	0.286340
611.000000	0.286524
612.000000	0.286707
613.000000	0.286862
614.000000	0.287016
615.000000	0.287205
616.000000	0.287294
617.000000	0.287329
618.000000	0.287673
619.000000	0.287853
620.000000	0.287898
621.000000	0.288071
622.000000	0.288199
623.000000	0.288356
624.000000	0.288608
625.000000	0.288905
626.000000	0.289054
627.000000	0.289048
628.000000	0.289172
629.000000	0.289378
630.000000	0.289516
631.000000	0.289640
632.000000	0.289750
633.000000	0.289895
634.000000	0.290088
635.000000	0.290216
636.000000	0.290371
637.000000	0.290571
638.000000	0.290711
639.000000	0.290817
640.000000	0.290967
641.000000	0.291130
642.000000	0.291310
643.000000	0.291507
644.000000	0.291711
645.000000	0.291813
646.000000	0.291922
647.000000	0.292075
648.000000	0.292121
649.000000	0.292231
650.000000	0.292430
651.000000	0.292608
652.000000	0.292824
653.000000	0.293057
654.000000	0.293179
655.000000	0.293341
656.000000	0.293559
657.000000	0.293758
658.000000	0.293917
659.000000	0.294083
660.000000	0.294263
661.000000	0.294445
662.000000	0.294621
663.000000	0.294835
664.000000	0.295050
665.000000	0.295279
666.000000	0.295492
667.000000	0.295635
668.000000	0.295769
669.000000	0.295913
670.000000	0.296082
671.000000	0.296271
672.000000	0.296473
673.000000	0.296674
674.000000	0.296876
675.000000	0.297047
676.000000	0.297211
677.000000	0.297417
678.000000	0.297651
679.000000	0.297832
680.000000	0.297945
681.000000	0.298121
682.000000	0.298345
683.000000	0.298544
684.000000	0.298806
685.000000	0.298990
686.000000	0.299168
687.000000	0.299415
688.000000	0.299676
689.000000	0.299895
690.000000	0.300087
691.000000	0.300343
692.000000	0.300537
693.000000	0.300725
694.000000	0.301009
695.000000	0.301272
696.000000	0.301498
697.000000	0.301709
698.000000	0.301882
699.000000	0.302065
700.000000	0.302305
701.000000	0.302560
702.000000	0.302827
703.000000	0.303062
704.000000	0.303198
705.000000	0.303404
706.000000	0.303631
707.000000	0.303834
708.000000	0.304045
709.000000	0.304258
710.000000	0.304479
711.000000	0.304695
712.000000	0.304910
713.000000	0.305131
714.000000	0.305298
715.000000	0.305518
716.000000	0.305793
717.000000	0.306047
718.000000	0.306254
719.000000	0.306387
720.000000	0.306484
721.000000	0.306752
722.000000	0.306947
723.000000	0.307059
724.000000	0.307231
725.000000	0.307385
726.000000	0.307561
727.000000	0.307677
728.000000	0.307796
729.000000	0.307986
730.000000	0.308224
731.000000	0.308446
732.000000	0.308663
733.000000	0.308900
734.000000	0.309075
735.000000	0.309194
736.000000	0.309370
737.000000	0.309501
738.000000	0.309611
739.000000	0.309778
740.000000	0.309885
741.000000	0.310021
742.000000	0.310112
743.000000	0.310166
744.000000	0.310374
745.000000	0.310488
746.000000	0.310592
747.000000	0.310765
748.000000	0.310936
749.000000	0.311089
750.000000	0.311202
751.000000	0.311365
752.000000	0.311431
753.000000	0.311453
754.000000	0.311631
755.000000	0.311806
756.000000	0.311902
757.000000	0.311860
758.000000	0.311935
759.000000	0.312033
760.000000	0.312035
761.000000	0.312088
762.000000	0.312199
763.000000	0.312326
764.000000	0.312467
765.000000	0.312544
766.000000	0.312597
767.000000	0.312666
768.000000	0.312713
769.000000	0.312762
770.000000	0.312822
771.000000	0.312859
772.000000	0.312909
773.000000	0.312948
774.000000	0.313065
775.000000	0.313179
776.000000	0.313284
777.000000	0.313348
778.000000	0.313287
779.000000	0.313234
780.000000	0.313223
781.000000	0.313184
782.000000	0.313216
783.000000	0.313346
784.000000	0.313394
785.000000	0.313408
786.000000	0.313423
787.000000	0.313451
788.000000	0.313469
789.000000	0.313451
790.000000	0.313464
791.000000	0.313657
792.000000	0.313665
793.000000	0.313608
794.000000	0.313624
795.000000	0.313601
796.000000	0.313525
797.000000	0.313423
798.000000	0.313384
799.000000	0.313403
800.000000	0.313443
801.000000	0.313460
802.000000	0.313468
803.000000	0.313505
804.000000	0.313602
805.000000	0.313634
806.000000	0.313591
807.000000	0.313536
808.000000	0.313424
809.000000	0.313346
810.000000	0.313290
811.000000	0.313224
812.000000	0.313177
813.000000	0.313080
814.000000	0.312982
815.000000	0.313062
816.000000	0.313042
817.000000	0.312995
818.000000	0.312973
819.000000	0.313012
820.000000	0.313108
821.000000	0.313176
822.000000	0.313174
823.000000	0.313135
824.000000	0.313045
825.000000	0.312994
826.000000	0.312903
827.000000	0.312761
828.000000	0.312631
829.000000	0.312577
830.000000	0.312517
831.000000	0.312490
832.000000	0.312425
833.000000	0.312367
834.000000	0.312269
835.000000	0.312149
836.000000	0.312092
837.000000	0.312045
838.000000	0.312002
839.000000	0.311946
840.000000	0.311927
841.000000	0.311907
842.000000	0.311807
843.000000	0.311693
844.000000	0.311647
845.000000	0.311642
846.000000	0.311612
847.000000	0.311626
848.000000	0.311534
849.000000	0.311255
850.000000	0.311092
851.000000	0.311031
852.000000	0.311051
853.000000	0.311032
854.000000	0.310988
855.000000	0.311012
856.000000	0.310990
857.000000	0.310733
858.000000	0.310524
859.000000	0.310420
860.000000	0.310314
861.000000	0.310293
862.000000	0.310271
863.000000	0.310060
864.000000	0.309909
865.000000	0.309833
866.000000	0.309760
867.000000	0.309382
868.000000	0.309258
869.000000	0.309300
870.000000	0.309269
871.000000	0.309151
872.000000	0.309011
873.000000	0.308846
874.000000	0.308722
875.000000	0.308571
876.000000	0.308431
877.000000	0.308302
878.000000	0.308128
879.000000	0.307896
880.000000	0.307549
881.000000	0.307455
882.000000	0.307412
883.000000	0.307334
884.000000	0.307129
885.000000	0.306955
886.000000	0.306778
887.000000	0.306602
888.000000	0.306446
889.000000	0.306290
890.000000	0.306054
891.000000	0.305855
892.000000	0.305557
893.000000	0.305409
894.000000	0.305513
895.000000	0.305271
896.000000	0.305061
897.000000	0.304920
898.000000	0.304778
899.000000	0.304644
900.000000	0.304453
901.000000	0.304199
902.000000	0.304094
903.000000	0.304055
904.000000	0.303935
905.000000	0.303570
906.000000	0.303491
907.000000	0.303381
908.000000	0.303162
909.000000	0.302868
910.000000	0.302707
911.000000	0.302618
912.000000	0.302506
913.000000	0.302343
914.000000	0.302131
915.000000	0.301912
916.000000	0.301599
917.000000	0.301346
918.000000	0.301207
919.000000	0.301105
920.000000	0.300746
921.000000	0.300452
922.000000	0.300359
923.000000	0.300413
924.000000	0.300129
925.000000	0.299889
926.000000	0.299861
927.000000	0.299542
928.000000	0.299197
929.000000	0.298923
930.000000	0.298735
931.000000	0.298528
932.000000	0.298212
933.000000	0.297863
934.000000	0.297621
935.000000	0.297432
936.000000	0.297234
937.000000	0.296939
938.000000	0.296834
939.000000	0.296830
940.000000	0.296720
941.000000	0.296425
942.000000	0.296100
943.000000	0.295832
944.000000	0.295575
945.000000	0.295500
946.000000	0.295290
947.000000	0.295034
948.000000	0.294839
949.000000	0.294591
950.000000	0.294269
951.000000	0.293947
952.000000	0.293880
953.000000	0.293558
954.000000	0.293294
955.000000	0.293222
956.000000	0.292885
957.000000	0.292631
958.000000	0.292508
959.000000	0.292515
960.000000	0.292277
961.000000	0.292086
962.000000	0.291955
963.000000	0.291583
964.000000	0.291410
965.000000	0.291373
966.000000	0.291230
967.000000	0.291099
968.000000	0.290916
969.000000	0.290703
970.000000	0.290584
971.000000	0.290046
972.000000	0.289720
973.000000	0.289705
974.000000	0.289534
975.000000	0.289243
976.000000	0.288951
977.000000	0.288766
978.000000	0.288721
979.000000	0.288692
980.000000	0.288423
981.000000	0.288127
982.000000	0.287895
983.000000	0.287656
984.000000	0.287496
985.000000	0.287494
986.000000	0.287178
987.000000	0.287057
988.000000	0.287260
989.000000	0.287059
990.000000	0.286877
991.000000	0.286701
992.000000	0.286487
993.000000	0.286446
994.000000	0.286581
995.000000	0.286705
996.000000	0.286245
997.000000	0.286264
998.000000	0.286511
999.000000	0.286685
1000.000000	0.286435
1001.000000	0.286990
1002.000000	0.286708
1003.000000	0.285933
1004.000000	0.285714
1005.000000	0.285788
1006.000000	0.285476
1007.000000	0.285002
1008.000000	0.285553
1009.000000	0.285702
1010.000000	0.285155
1011.000000	0.285988
1012.000000	0.286761
1013.000000	0.285801
1014.000000	0.285399
1015.000000	0.285167
1016.000000	0.284212
1017.000000	0.284195
1018.000000	0.284674
1019.000000	0.284787
1020.000000	0.284768
1021.000000	0.284564
1022.000000	0.284399
1023.000000	0.284510
1024.000000	0.284328
1025.000000	0.284850
1026.000000	0.285173
1027.000000	0.285072
1028.000000	0.285353
1029.000000	0.285255
1030.000000	0.285289
1031.000000	0.285321
1032.000000	0.285137
1033.000000	0.285236
1034.000000	0.285354
1035.000000	0.285750
1036.000000	0.285943
1037.000000	0.286137
1038.000000	0.286028
1039.000000	0.285716
1040.000000	0.285619
1041.000000	0.285467
1042.000000	0.285747
1043.000000	0.286421
1044.000000	0.286766
1045.000000	0.287313
1046.000000	0.287550
1047.000000	0.287628
1048.000000	0.287416
1049.000000	0.287477
1050.000000	0.287537
1051.000000	0.287493
1052.000000	0.287510
1053.000000	0.287370
1054.000000	0.286897
1055.000000	0.286910
1056.000000	0.287015
1057.000000	0.287700
1058.000000	0.288152
1059.000000	0.288387
1060.000000	0.289138
1061.000000	0.289167
1062.000000	0.289051
1063.000000	0.289475
1064.000000	0.289858
1065.000000	0.290118
1066.000000	0.290505
1067.000000	0.291321
1068.000000	0.291647
1069.000000	0.291516
1070.000000	0.291525
1071.000000	0.291542
1072.000000	0.291538
1073.000000	0.291458
1074.000000	0.291656
1075.000000	0.291839
1076.000000	0.291776
1077.000000	0.291656
1078.000000	0.292043
1079.000000	0.292398
1080.000000	0.292888
1081.000000	0.293284
1082.000000	0.294066
1083.000000	0.294373
1084.000000	0.294230
1085.000000	0.294581
1086.000000	0.295085
1087.000000	0.295369
1088.000000	0.295883
1089.000000	0.296075
1090.000000	0.295853
1091.000000	0.295445
1092.000000	0.295531
1093.000000	0.295951
1094.000000	0.296385
1095.000000	0.297316
1096.000000	0.297557
1097.000000	0.297433
1098.000000	0.297601
1099.000000	0.297377
1100.000000	0.297705
1101.000000	0.298696
1102.000000	0.299028
1103.000000	0.299086
1104.000000	0.299352
1105.000000	0.299326
1106.000000	0.299491
1107.000000	0.300040
1108.000000	0.300319
1109.000000	0.300415
1110.000000	0.300590
1111.000000	0.300802
1112.000000	0.301021
1113.000000	0.301212
1114.000000	0.301504
1115.000000	0.301631
1116.000000	0.301605
1117.000000	0.301680
1118.000000	0.301694
1119.000000	0.301762
1120.000000	0.301861
1121.000000	0.302012
1122.000000	0.302200
1123.000000	0.302695
1124.000000	0.303384
1125.000000	0.303767
1126.000000	0.304105
1127.000000	0.304280
1128.000000	0.304280
1129.000000	0.303882
1130.000000	0.303961
1131.000000	0.304168
1132.000000	0.304314
1133.000000	0.304660
1134.000000	0.304921
1135.000000	0.305074
1136.000000	0.305236
1137.000000	0.305458
1138.000000	0.305561
1139.000000	0.305658
1140.000000	0.305793
1141.000000	0.305735
1142.000000	0.305890
1143.000000	0.306279
1144.000000	0.306475
1145.000000	0.306369
1146.000000	0.306416
1147.000000	0.306454
1148.000000	0.306182
1149.000000	0.306229
1150.000000	0.306575
1151.000000	0.306761
1152.000000	0.306882
1153.000000	0.306988
1154.000000	0.307079
1155.000000	0.307119
1156.000000	0.307118
1157.000000	0.307112
1158.000000	0.306928
1159.000000	0.306924
1160.000000	0.306997
1161.000000	0.307044
1162.000000	0.307193
1163.000000	0.307551
1164.000000	0.307744
1165.000000	0.307759
1166.000000	0.307769
1167.000000	0.307646
1168.000000	0.307598
1169.000000	0.307533
1170.000000	0.307509
1171.000000	0.307558
1172.000000	0.307651
1173.000000	0.307736
1174.000000	0.307785
1175.000000	0.307859
1176.000000	0.307877
1177.000000	0.307865
1178.000000	0.307917
1179.000000	0.308058
1180.000000	0.308049
1181.000000	0.308079
1182.000000	0.308071
1183.000000	0.307987
1184.000000	0.307940
1185.000000	0.307917
1186.000000	0.307888
1187.000000	0.307932
1188.000000	0.308050
1189.000000	0.308064
1190.000000	0.308158
1191.000000	0.308155
1192.000000	0.308112
1193.000000	0.308227
1194.000000	0.308260
1195.000000	0.308323
1196.000000	0.308473
1197.000000	0.308497
1198.000000	0.308375
1199.000000	0.308402
1200.000000	0.308428
1201.000000	0.308523
1202.000000	0.308535
1203.000000	0.308651
1204.000000	0.308799
1205.000000	0.308740
1206.000000	0.308701
1207.000000	0.308804
1208.000000	0.308816
1209.000000	0.308748
1210.000000	0.308765
1211.000000	0.308835
1212.000000	0.308873
1213.000000	0.309023
1214.000000	0.309032
1215.000000	0.308956
1216.000000	0.308911
1217.000000	0.308592
1218.000000	0.308521
1219.000000	0.308642
1220.000000	0.308848
1221.000000	0.308904
1222.000000	0.309101
1223.000000	0.309138
1224.000000	0.308972
1225.000000	0.308922
1226.000000	0.308908
1227.000000	0.308799
1228.000000	0.308872
1229.000000	0.308861
1230.000000	0.308833
1231.000000	0.308739
1232.000000	0.308726
1233.000000	0.308764
1234.000000	0.308792
1235.000000	0.308783
1236.000000	0.308632
1237.000000	0.308682
1238.000000	0.308806
1239.000000	0.308809
1240.000000	0.308827
1241.000000	0.308930
1242.000000	0.308878
1243.000000	0.308843
1244.000000	0.308941
1245.000000	0.308874
1246.000000	0.308951
1247.000000	0.309175
1248.000000	0.309140
1249.000000	0.309239
1250.000000	0.309317
1251.000000	0.309131
1252.000000	0.309141
1253.000000	0.309465
1254.000000	0.309522
1255.000000	0.309461
1256.000000	0.309419
1257.000000	0.309240
1258.000000	0.309232
1259.000000	0.309269
1260.000000	0.309310
1261.000000	0.309366
1262.000000	0.309391
1263.000000	0.309448
1264.000000	0.309373
1265.000000	0.309300
1266.000000	0.309363
1267.000000	0.309346
1268.000000	0.309267
1269.000000	0.309112
1270.000000	0.309070
1271.000000	0.309142
1272.000000	0.309139
1273.000000	0.309236
1274.000000	0.309286
1275.000000	0.309221
1276.000000	0.309040
1277.000000	0.309032
1278.000000	0.308880
1279.000000	0.308872
1280.000000	0.308990
1281.000000	0.308861
1282.000000	0.308687
1283.000000	0.308705
1284.000000	0.308562
1285.000000	0.308607
1286.000000	0.308888
1287.000000	0.309030
1288.000000	0.309088
1289.000000	0.309181
1290.000000	0.309235
1291.000000	0.309216
1292.000000	0.309190
1293.000000	0.309139
1294.000000	0.309031
1295.000000	0.309059
1296.000000	0.309076
1297.000000	0.309008
1298.000000	0.308990
1299.000000	0.308974
1300.000000	0.309000
1301.000000	0.309006
1302.000000	0.308986
1303.000000	0.309078
1304.000000	0.308968
1305.000000	0.308859
1306.000000	0.308799
1307.000000	0.308702
1308.000000	0.308618
1309.000000	0.308600
1310.000000	0.308562
1311.000000	0.308476
1312.000000	0.308353
1313.000000	0.308462
1314.000000	0.308544
1315.000000	0.308476
1316.000000	0.308555
1317.000000	0.308678
1318.000000	0.308650
1319.000000	0.308583
1320.000000	0.308649
1321.000000	0.308510
1322.000000	0.308205
1323.000000	0.308091
1324.000000	0.308058
1325.000000	0.307975
1326.000000	0.307939
1327.000000	0.307971
1328.000000	0.308006
1329.000000	0.307894
1330.000000	0.307745
1331.000000	0.307633
1332.000000	0.307392
1333.000000	0.307304
1334.000000	0.307422
1335.000000	0.307480
1336.000000	0.307698
1337.000000	0.307653
1338.000000	0.307389
1339.000000	0.307152
1340.000000	0.306926
1341.000000	0.306546
1342.000000	0.306456
1343.000000	0.306473
1344.000000	0.306433
1345.000000	0.306612
1346.000000	0.306729
1347.000000	0.306455
1348.000000	0.306241
1349.000000	0.305930
1350.000000	0.305629
1351.000000	0.305636
1352.000000	0.305714
1353.000000	0.305661
1354.000000	0.305554
1355.000000	0.305373
1356.000000	0.305265
1357.000000	0.305166
1358.000000	0.305098
1359.000000	0.305072
1360.000000	0.304946
1361.000000	0.304657
1362.000000	0.304522
1363.000000	0.304450
1364.000000	0.304343
1365.000000	0.304227
1366.000000	0.304187
1367.000000	0.304190
1368.000000	0.304053
1369.000000	0.304010
1370.000000	0.303973
1371.000000	0.303754
1372.000000	0.303571
1373.000000	0.303462
1374.000000	0.303256
1375.000000	0.303098
1376.000000	0.303117
1377.000000	0.303136
1378.000000	0.303087
1379.000000	0.302970
1380.000000	0.302766
1381.000000	0.302512
1382.000000	0.302354
1383.000000	0.302268
1384.000000	0.302047
1385.000000	0.301711
1386.000000	0.301485
1387.000000	0.301252
1388.000000	0.300862
1389.000000	0.300638
1390.000000	0.300462
1391.000000	0.300195
1392.000000	0.299984
1393.000000	0.299634
1394.000000	0.299198
1395.000000	0.298884
1396.000000	0.298488
1397.000000	0.298113
1398.000000	0.297822
1399.000000	0.297481
1400.000000	0.297079
1401.000000	0.296707
1402.000000	0.296487
1403.000000	0.295983
1404.000000	0.295457
1405.000000	0.295001
1406.000000	0.294413
1407.000000	0.293799
1408.000000	0.293142
1409.000000	0.292504
1410.000000	0.291909
1411.000000	0.291355
1412.000000	0.290847
1413.000000	0.290387
1414.000000	0.289874
1415.000000	0.289378
1416.000000	0.288966
1417.000000	0.288450
1418.000000	0.287837
1419.000000	0.287378
1420.000000	0.286918
1421.000000	0.286539
1422.000000	0.286285
1423.000000	0.285995
1424.000000	0.285472
1425.000000	0.284994
1426.000000	0.284491
1427.000000	0.283932
1428.000000	0.283485
1429.000000	0.283080
1430.000000	0.282679
1431.000000	0.282383
1432.000000	0.282004
1433.000000	0.281579
1434.000000	0.281249
1435.000000	0.281030
1436.000000	0.280710
1437.000000	0.280435
1438.000000	0.280136
1439.000000	0.279737
1440.000000	0.279469
1441.000000	0.279283
1442.000000	0.279160
1443.000000	0.279059
1444.000000	0.278949
1445.000000	0.278887
1446.000000	0.278817
1447.000000	0.278481
1448.000000	0.278199
1449.000000	0.278079
1450.000000	0.277843
1451.000000	0.277766
1452.000000	0.277724
1453.000000	0.277494
1454.000000	0.277338
1455.000000	0.277324
1456.000000	0.277285
1457.000000	0.277202
1458.000000	0.277200
1459.000000	0.277118
1460.000000	0.277032
1461.000000	0.277088
1462.000000	0.277007
1463.000000	0.276817
1464.000000	0.276760
1465.000000	0.276753
1466.000000	0.276697
1467.000000	0.276664
1468.000000	0.276572
1469.000000	0.276488
1470.000000	0.276445
1471.000000	0.276519
1472.000000	0.276664
1473.000000	0.276797
1474.000000	0.276775
1475.000000	0.276755
1476.000000	0.276845
1477.000000	0.277012
1478.000000	0.277268
1479.000000	0.277418
1480.000000	0.277481
1481.000000	0.277582
1482.000000	0.277617
1483.000000	0.277771
1484.000000	0.278043
1485.000000	0.278219
1486.000000	0.278349
1487.000000	0.278581
1488.000000	0.278870
1489.000000	0.279190
1490.000000	0.279462
1491.000000	0.279733
1492.000000	0.279971
1493.000000	0.280221
1494.000000	0.280485
1495.000000	0.280661
1496.000000	0.280785
1497.000000	0.280918
1498.000000	0.281017
1499.000000	0.281087
1500.000000	0.281224
1501.000000	0.281331
1502.000000	0.281447
1503.000000	0.281704
1504.000000	0.281921
1505.000000	0.282081
1506.000000	0.282335
1507.000000	0.282481
1508.000000	0.282695
1509.000000	0.283008
1510.000000	0.283163
1511.000000	0.283298
1512.000000	0.283385
1513.000000	0.283442
1514.000000	0.283501
1515.000000	0.283518
1516.000000	0.283648
1517.000000	0.283725
1518.000000	0.283836
1519.000000	0.283970
1520.000000	0.284020
1521.000000	0.283957
1522.000000	0.283816
1523.000000	0.283762
1524.000000	0.283861
1525.000000	0.283983
1526.000000	0.283988
1527.000000	0.284037
1528.000000	0.284062
1529.000000	0.284007
1530.000000	0.284055
1531.000000	0.284178
1532.000000	0.284259
1533.000000	0.284406
1534.000000	0.284562
1535.000000	0.284649
1536.000000	0.284608
1537.000000	0.284564
1538.000000	0.284653
1539.000000	0.284660
1540.000000	0.284634
1541.000000	0.284751
1542.000000	0.284855
1543.000000	0.284874
1544.000000	0.284875
1545.000000	0.284896
1546.000000	0.284839
1547.000000	0.284875
1548.000000	0.285045
1549.000000	0.285057
1550.000000	0.284996
1551.000000	0.284957
1552.000000	0.284950
1553.000000	0.285005
1554.000000	0.285083
1555.000000	0.285179
1556.000000	0.285224
1557.000000	0.285203
1558.000000	0.285181
1559.000000	0.285059
1560.000000	0.284989
1561.000000	0.284940
1562.000000	0.284905
1563.000000	0.284953
1564.000000	0.284967
1565.000000	0.284950
1566.000000	0.284913
1567.000000	0.284965
1568.000000	0.285003
1569.000000	0.285131
1570.000000	0.285117
1571.000000	0.285022
1572.000000	0.284990
1573.000000	0.284888
1574.000000	0.284836
1575.000000	0.284884
1576.000000	0.284857
1577.000000	0.284774
1578.000000	0.284709
1579.000000	0.284706
1580.000000	0.284670
1581.000000	0.284662
1582.000000	0.284666
1583.000000	0.284642
1584.000000	0.284644
1585.000000	0.284756
1586.000000	0.284781
1587.000000	0.284791
1588.000000	0.284823
1589.000000	0.284851
1590.000000	0.284849
1591.000000	0.284876
1592.000000	0.284888
1593.000000	0.284870
1594.000000	0.284844
1595.000000	0.284861
1596.000000	0.284880
1597.000000	0.284941
1598.000000	0.284910
1599.000000	0.284881
1600.000000	0.284819
1601.000000	0.284725
1602.000000	0.284655
1603.000000	0.284660
1604.000000	0.284594
1605.000000	0.284496
1606.000000	0.284401
1607.000000	0.284271
1608.000000	0.284290
1609.000000	0.284453
1610.000000	0.284524
1611.000000	0.284726
1612.000000	0.284772
1613.000000	0.284714
1614.000000	0.284766
1615.000000	0.284911
1616.000000	0.285027
1617.000000	0.285193
1618.000000	0.285232
1619.000000	0.285137
1620.000000	0.285097
1621.000000	0.284932
1622.000000	0.285064
1623.000000	0.285423
1624.000000	0.285566
1625.000000	0.285653
1626.000000	0.285682
1627.000000	0.285556
1628.000000	0.285505
1629.000000	0.285443
1630.000000	0.285545
1631.000000	0.285593
1632.000000	0.285736
1633.000000	0.286227
1634.000000	0.286371
1635.000000	0.286317
1636.000000	0.286359
1637.000000	0.286284
1638.000000	0.286320
1639.000000	0.286565
1640.000000	0.286694
1641.000000	0.286835
1642.000000	0.286942
1643.000000	0.287043
1644.000000	0.287182
1645.000000	0.287386
1646.000000	0.287402
1647.000000	0.287352
1648.000000	0.287309
1649.000000	0.287193
1650.000000	0.287229
1651.000000	0.287424
1652.000000	0.287531
1653.000000	0.287614
1654.000000	0.287699
1655.000000	0.287711
1656.000000	0.287669
1657.000000	0.287648
1658.000000	0.287646
1659.000000	0.287676
1660.000000	0.287824
1661.000000	0.288017
1662.000000	0.288154
1663.000000	0.288296
1664.000000	0.288381
1665.000000	0.288413
1666.000000	0.288510
1667.000000	0.288531
1668.000000	0.288623
1669.000000	0.288711
1670.000000	0.288756
1671.000000	0.288898
1672.000000	0.289094
1673.000000	0.289278
1674.000000	0.289579
1675.000000	0.289780
1676.000000	0.289858
1677.000000	0.289833
1678.000000	0.289708
1679.000000	0.289676
1680.000000	0.289629
1681.000000	0.289650
1682.000000	0.289743
1683.000000	0.289763
1684.000000	0.289869
1685.000000	0.289960
1686.000000	0.290007
1687.000000	0.290061
1688.000000	0.289929
1689.000000	0.289934
1690.000000	0.289913
1691.000000	0.289901
1692.000000	0.289981
1693.000000	0.290051
1694.000000	0.290149
1695.000000	0.290321
1696.000000	0.290343
1697.000000	0.290303
1698.000000	0.290155
1699.000000	0.290143
1700.000000	0.290210
1701.000000	0.290339
1702.000000	0.290421
1703.000000	0.290449
1704.000000	0.290537
1705.000000	0.290567
1706.000000	0.290594
1707.000000	0.290618
1708.000000	0.290594
1709.000000	0.290532
1710.000000	0.290476
1711.000000	0.290534
1712.000000	0.290706
1713.000000	0.290738
1714.000000	0.290833
1715.000000	0.290897
1716.000000	0.290817
1717.000000	0.290846
1718.000000	0.290916
1719.000000	0.290993
1720.000000	0.291202
1721.000000	0.291267
1722.000000	0.291289
1723.000000	0.291329
1724.000000	0.291310
1725.000000	0.291300
1726.000000	0.291228
1727.000000	0.291216
1728.000000	0.291152
1729.000000	0.291033
1730.000000	0.291058
1731.000000	0.291032
1732.000000	0.290882
1733.000000	0.290982
1734.000000	0.291102
1735.000000	0.291250
1736.000000	0.291491
1737.000000	0.291647
1738.000000	0.291802
1739.000000	0.291947
1740.000000	0.292092
1741.000000	0.292102
1742.000000	0.292052
1743.000000	0.292065
1744.000000	0.291999
1745.000000	0.291918
1746.000000	0.291842
1747.000000	0.291796
1748.000000	0.291747
1749.000000	0.291827
1750.000000	0.291870
1751.000000	0.292083
1752.000000	0.292210
1753.000000	0.292050
1754.000000	0.292093
1755.000000	0.292169
1756.000000	0.292152
1757.000000	0.292199
1758.000000	0.292299
1759.000000	0.292247
1760.000000	0.292317
1761.000000	0.292635
1762.000000	0.292719
1763.000000	0.292642
1764.000000	0.292684
1765.000000	0.292702
1766.000000	0.292669
1767.000000	0.292548
1768.000000	0.292519
1769.000000	0.292570
1770.000000	0.292594
1771.000000	0.292706
1772.000000	0.292697
1773.000000	0.292446
1774.000000	0.292415
1775.000000	0.292509
1776.000000	0.292627
1777.000000	0.292834
1778.000000	0.292894
1779.000000	0.292901
1780.000000	0.292988
1781.000000	0.293028
1782.000000	0.293034
1783.000000	0.293154
1784.000000	0.293106
1785.000000	0.292912
1786.000000	0.292922
1787.000000	0.292989
1788.000000	0.293177
1789.000000	0.293291
1790.000000	0.293458
1791.000000	0.293366
1792.000000	0.292924
1793.000000	0.292813
1794.000000	0.292753
1795.000000	0.292761
1796.000000	0.293107
1797.000000	0.293279
1798.000000	0.293214
1799.000000	0.293351
1800.000000	0.293754
1801.000000	0.292837
1802.000000	0.293069
1803.000000	0.294413
1804.000000	0.294480
1805.000000	0.292970
1806.000000	0.292831
1807.000000	0.293707
1808.000000	0.293469
1809.000000	0.292655
1810.000000	0.292436
1811.000000	0.292435
1812.000000	0.291724
1813.000000	0.291978
1814.000000	0.293736
1815.000000	0.294326
1816.000000	0.294746
1817.000000	0.294797
1818.000000	0.294292
1819.000000	0.294135
1820.000000	0.294634
1821.000000	0.293747
1822.000000	0.293367
1823.000000	0.293112
1824.000000	0.292825
1825.000000	0.292002
1826.000000	0.291822
1827.000000	0.292091
1828.000000	0.292199
1829.000000	0.291883
1830.000000	0.291963
1831.000000	0.291950
1832.000000	0.291689
1833.000000	0.291653
1834.000000	0.291858
1835.000000	0.292006
1836.000000	0.292125
1837.000000	0.292168
1838.000000	0.292170
1839.000000	0.292300
1840.000000	0.291701
1841.000000	0.290924
1842.000000	0.290525
1843.000000	0.290069
1844.000000	0.289713
1845.000000	0.289427
1846.000000	0.289362
1847.000000	0.289368
1848.000000	0.288873
1849.000000	0.288981
1850.000000	0.289877
1851.000000	0.289907
1852.000000	0.289631
1853.000000	0.289439
1854.000000	0.288376
1855.000000	0.288034
1856.000000	0.288059
1857.000000	0.287927
1858.000000	0.288201
1859.000000	0.288422
1860.000000	0.287936
1861.000000	0.288015
1862.000000	0.287741
1863.000000	0.287190
1864.000000	0.287009
1865.000000	0.287081
1866.000000	0.286715
1867.000000	0.286468
1868.000000	0.285618
1869.000000	0.284360
1870.000000	0.283433
1871.000000	0.282882
1872.000000	0.282179
1873.000000	0.281203
1874.000000	0.279998
1875.000000	0.279102
1876.000000	0.277787
1877.000000	0.276607
1878.000000	0.275807
1879.000000	0.274519
1880.000000	0.273512
1881.000000	0.271958
1882.000000	0.270142
1883.000000	0.269538
1884.000000	0.268560
1885.000000	0.267373
1886.000000	0.266120
1887.000000	0.265355
1888.000000	0.263271
1889.000000	0.260727
1890.000000	0.258600
1891.000000	0.256307
1892.000000	0.253964
1893.000000	0.252330
1894.000000	0.250603
1895.000000	0.248668
1896.000000	0.246815
1897.000000	0.245135
1898.000000	0.242654
1899.000000	0.240531
1900.000000	0.238569
1901.000000	0.236319
1902.000000	0.234902
1903.000000	0.233584
1904.000000	0.231805
1905.000000	0.230503
1906.000000	0.228503
1907.000000	0.226062
1908.000000	0.223171
1909.000000	0.220925
1910.000000	0.218405
1911.000000	0.216131
1912.000000	0.214804
1913.000000	0.213819
1914.000000	0.212789
1915.000000	0.212410
1916.000000	0.211999
1917.000000	0.211034
1918.000000	0.209727
1919.000000	0.208534
1920.000000	0.207189
1921.000000	0.205878
1922.000000	0.204809
1923.000000	0.204385
1924.000000	0.204150
1925.000000	0.203765
1926.000000	0.203738
1927.000000	0.203583
1928.000000	0.203421
1929.000000	0.203144
1930.000000	0.203149
1931.000000	0.203200
1932.000000	0.203853
1933.000000	0.204315
1934.000000	0.204462
1935.000000	0.204889
1936.000000	0.204786
1937.000000	0.204262
1938.000000	0.203833
1939.000000	0.203387
1940.000000	0.202721
1941.000000	0.202041
1942.000000	0.201962
1943.000000	0.202203
1944.000000	0.202490
1945.000000	0.202439
1946.000000	0.202395
1947.000000	0.202237
1948.000000	0.201955
1949.000000	0.202208
1950.000000	0.202053
1951.000000	0.201682
1952.000000	0.201022
1953.000000	0.200596
1954.000000	0.200083
1955.000000	0.199834
1956.000000	0.200034
1957.000000	0.200056
1958.000000	0.199726
1959.000000	0.199721
1960.000000	0.200177
1961.000000	0.200332
1962.000000	0.200298
1963.000000	0.200391
1964.000000	0.200423
1965.000000	0.199921
1966.000000	0.199208
1967.000000	0.198618
1968.000000	0.198291
1969.000000	0.197649
1970.000000	0.197245
1971.000000	0.197403
1972.000000	0.197893
1973.000000	0.198175
1974.000000	0.198822
1975.000000	0.199231
1976.000000	0.199693
1977.000000	0.199506
1978.000000	0.199625
1979.000000	0.199732
1980.000000	0.199700
1981.000000	0.199951
1982.000000	0.200001
1983.000000	0.200269
1984.000000	0.200431
1985.000000	0.200671
1986.000000	0.200714
1987.000000	0.200491
1988.000000	0.200844
1989.000000	0.201290
1990.000000	0.201698
1991.000000	0.202662
1992.000000	0.203105
1993.000000	0.203726
1994.000000	0.204982
1995.000000	0.205913
1996.000000	0.206968
1997.000000	0.207607
1998.000000	0.207728
1999.000000	0.207992
2000.000000	0.208108
2001.000000	0.208211
2002.000000	0.208521
2003.000000	0.209265
2004.000000	0.209856
2005.000000	0.210165
2006.000000	0.210881
2007.000000	0.211348
2008.000000	0.211933
2009.000000	0.212896
2010.000000	0.213534
2011.000000	0.213713
2012.000000	0.214286
2013.000000	0.214958
2014.000000	0.215291
2015.000000	0.215969
2016.000000	0.216532
2017.000000	0.217380
2018.000000	0.218192
2019.000000	0.218883
2020.000000	0.219617
2021.000000	0.220131
2022.000000	0.219976
2023.000000	0.220453
2024.000000	0.221273
2025.000000	0.222051
2026.000000	0.222919
2027.000000	0.223959
2028.000000	0.224239
2029.000000	0.224407
2030.000000	0.224541
2031.000000	0.224249
2032.000000	0.224529
2033.000000	0.224842
2034.000000	0.225122
2035.000000	0.225276
2036.000000	0.225810
2037.000000	0.227064
2038.000000	0.227713
2039.000000	0.228428
2040.000000	0.228864
2041.000000	0.228900
2042.000000	0.229188
2043.000000	0.229516
2044.000000	0.230248
2045.000000	0.231594
2046.000000	0.232173
2047.000000	0.232917
2048.000000	0.233895
2049.000000	0.234656
2050.000000	0.234994
2051.000000	0.235180
2052.000000	0.234837
2053.000000	0.235076
2054.000000	0.235620
2055.000000	0.235931
2056.000000	0.237144
2057.000000	0.238030
2058.000000	0.238272
2059.000000	0.238422
2060.000000	0.238458
2061.000000	0.238087
2062.000000	0.238104
2063.000000	0.238182
2064.000000	0.238378
2065.000000	0.238868
2066.000000	0.239276
2067.000000	0.240011
2068.000000	0.240770
2069.000000	0.241432
2070.000000	0.241828
2071.000000	0.241556
2072.000000	0.241208
2073.000000	0.241399
2074.000000	0.241921
2075.000000	0.242580
2076.000000	0.244196
2077.000000	0.244895
2078.000000	0.245109
2079.000000	0.245490
2080.000000	0.245403
2081.000000	0.245772
2082.000000	0.246587
2083.000000	0.247312
2084.000000	0.247561
2085.000000	0.247690
2086.000000	0.247256
2087.000000	0.246941
2088.000000	0.246900
2089.000000	0.247302
2090.000000	0.247692
2091.000000	0.248534
2092.000000	0.248811
2093.000000	0.248841
2094.000000	0.249135
2095.000000	0.249390
2096.000000	0.249635
2097.000000	0.250243
2098.000000	0.250134
2099.000000	0.249862
2100.000000	0.250257
2101.000000	0.250430
2102.000000	0.251373
2103.000000	0.252661
2104.000000	0.253391
2105.000000	0.253912
2106.000000	0.254197
2107.000000	0.254516
2108.000000	0.254254
2109.000000	0.254609
2110.000000	0.255442
2111.000000	0.255887
2112.000000	0.256307
2113.000000	0.256396
2114.000000	0.256647
2115.000000	0.256638
2116.000000	0.256527
2117.000000	0.256794
2118.000000	0.257206
2119.000000	0.257334
2120.000000	0.257491
2121.000000	0.257965
2122.000000	0.258093
2123.000000	0.257656
2124.000000	0.257852
2125.000000	0.258267
2126.000000	0.258609
2127.000000	0.259288
2128.000000	0.259752
2129.000000	0.260125
2130.000000	0.260328
2131.000000	0.260418
2132.000000	0.261225
2133.000000	0.261454
2134.000000	0.262395
2135.000000	0.262737
2136.000000	0.261419
2137.000000	0.260878
2138.000000	0.259789
2139.000000	0.259481
2140.000000	0.259879
2141.000000	0.260109
2142.000000	0.260533
2143.000000	0.260527
2144.000000	0.260348
2145.000000	0.260562
2146.000000	0.260555
2147.000000	0.261736
2148.000000	0.263131
2149.000000	0.263708
2150.000000	0.264022
2151.000000	0.264376
2152.000000	0.264019
2153.000000	0.263640
2154.000000	0.263267
2155.000000	0.262481
2156.000000	0.262245
2157.000000	0.262556
2158.000000	0.262244
2159.000000	0.262153
2160.000000	0.262021
2161.000000	0.261258
2162.000000	0.260979
2163.000000	0.260552
2164.000000	0.260555
2165.000000	0.261148
2166.000000	0.261322
2167.000000	0.261618
2168.000000	0.262295
2169.000000	0.262500
2170.000000	0.262947
2171.000000	0.262494
2172.000000	0.261549
2173.000000	0.261004
2174.000000	0.259423
2175.000000	0.259113
2176.000000	0.259949
2177.000000	0.260431
2178.000000	0.261614
2179.000000	0.261810
2180.000000	0.261680
2181.000000	0.261780
2182.000000	0.260615
2183.000000	0.260084
2184.000000	0.260304
2185.000000	0.258504
2186.000000	0.257929
2187.000000	0.257933
2188.000000	0.258777
2189.000000	0.259798
2190.000000	0.259928
2191.000000	0.260708
2192.000000	0.261001
2193.000000	0.260522
2194.000000	0.260769
2195.000000	0.261549
2196.000000	0.262063
2197.000000	0.262880
2198.000000	0.263263
2199.000000	0.263288
2200.000000	0.263088
2201.000000	0.262535
2202.000000	0.261946
2203.000000	0.260545
2204.000000	0.260234
2205.000000	0.258610
2206.000000	0.257865
2207.000000	0.259332
2208.000000	0.259874
2209.000000	0.262202
2210.000000	0.263550
2211.000000	0.260682
2212.000000	0.259893
2213.000000	0.260693
2214.000000	0.262844
2215.000000	0.263108
2216.000000	0.265749
2217.000000	0.264955
2218.000000	0.259188
2219.000000	0.257347
2220.000000	0.255738
2221.000000	0.256058
2222.000000	0.259582
2223.000000	0.261175
2224.000000	0.264024
2225.000000	0.264296
2226.000000	0.262616
2227.000000	0.261575
2228.000000	0.260438
2229.000000	0.259740
2230.000000	0.258263
2231.000000	0.257174
2232.000000	0.255887
2233.000000	0.255223
2234.000000	0.256757
2235.000000	0.258549
2236.000000	0.258933
2237.000000	0.258727
2238.000000	0.258455
2239.000000	0.256660
2240.000000	0.256305
2241.000000	0.257593
2242.000000	0.257562
2243.000000	0.256478
2244.000000	0.257132
2245.000000	0.257999
2246.000000	0.258626
2247.000000	0.261307
2248.000000	0.261596
2249.000000	0.260058
2250.000000	0.258722
2251.000000	0.258023
2252.000000	0.257226
2253.000000	0.257335
2254.000000	0.258740
2255.000000	0.257281
2256.000000	0.257303
2257.000000	0.256901
2258.000000	0.256038
2259.000000	0.257230
2260.000000	0.255970
2261.000000	0.255758
2262.000000	0.255434
2263.000000	0.255592
2264.000000	0.256443
2265.000000	0.257003
2266.000000	0.258770
2267.000000	0.258967
2268.000000	0.257256
2269.000000	0.257146
2270.000000	0.256752
2271.000000	0.256003
2272.000000	0.257024
2273.000000	0.256630
2274.000000	0.254983
2275.000000	0.253764
2276.000000	0.252836
2277.000000	0.249298
2278.000000	0.247903
2279.000000	0.247601
2280.000000	0.247497
2281.000000	0.248842
2282.000000	0.251020
2283.000000	0.253060
2284.000000	0.254785
2285.000000	0.256634
2286.000000	0.256789
2287.000000	0.254824
2288.000000	0.253389
2289.000000	0.252268
2290.000000	0.250857
2291.000000	0.250496
2292.000000	0.250772
2293.000000	0.251230
2294.000000	0.250991
2295.000000	0.250713
2296.000000	0.250667
2297.000000	0.250290
2298.000000	0.250105
2299.000000	0.250529
2300.000000	0.250161
2301.000000	0.248307
2302.000000	0.247798
2303.000000	0.248235
2304.000000	0.248552
2305.000000	0.250428
2306.000000	0.249642
2307.000000	0.246426
2308.000000	0.245152
2309.000000	0.245191
2310.000000	0.244966
2311.000000	0.244938
2312.000000	0.244252
2313.000000	0.242091
2314.000000	0.240814
2315.000000	0.242314
2316.000000	0.245537
2317.000000	0.245414
2318.000000	0.245343
2319.000000	0.245871
2320.000000	0.243898
2321.000000	0.243760
2322.000000	0.242979
2323.000000	0.241642
2324.000000	0.241420
2325.000000	0.240699
2326.000000	0.240110
2327.000000	0.238462
2328.000000	0.238295
2329.000000	0.239658
2330.000000	0.239191
2331.000000	0.241243
2332.000000	0.241487
2333.000000	0.237507
2334.000000	0.238313
2335.000000	0.238269
2336.000000	0.237277
2337.000000	0.235589
2338.000000	0.234063
2339.000000	0.231713
2340.000000	0.227890
2341.000000	0.226553
2342.000000	0.226506
2343.000000	0.224931
2344.000000	0.223287
2345.000000	0.222322
2346.000000	0.220912
2347.000000	0.221321
2348.000000	0.224342
2349.000000	0.224465
2350.000000	0.222365
2351.000000	0.223666
2352.000000	0.222700
2353.000000	0.220010
2354.000000	0.221951
2355.000000	0.219650
2356.000000	0.216851
2357.000000	0.219119
2358.000000	0.217656
2359.000000	0.217738
2360.000000	0.220224
2361.000000	0.217764
2362.000000	0.214783
2363.000000	0.212665
2364.000000	0.209735
2365.000000	0.207424
2366.000000	0.205960
2367.000000	0.205975
2368.000000	0.205563
2369.000000	0.205635
2370.000000	0.206448
2371.000000	0.206715
2372.000000	0.207172
2373.000000	0.206107
2374.000000	0.205557
2375.000000	0.206080
2376.000000	0.207729
2377.000000	0.213568
2378.000000	0.218175
2379.000000	0.216349
2380.000000	0.214802
2381.000000	0.213085
2382.000000	0.209628
2383.000000	0.212827
2384.000000	0.212124
2385.000000	0.202349
2386.000000	0.195506
2387.000000	0.187992
2388.000000	0.185624
2389.000000	0.192270
2390.000000	0.196175
2391.000000	0.201843
2392.000000	0.207678
2393.000000	0.207273
2394.000000	0.211636
2395.000000	0.217238
2396.000000	0.216250
2397.000000	0.214971
2398.000000	0.213356
2399.000000	0.209866
2400.000000	0.204441
2401.000000	0.204622
2402.000000	0.208513
2403.000000	0.207944
2404.000000	0.208948
2405.000000	0.204699
2406.000000	0.195396
2407.000000	0.193384
2408.000000	0.192926
2409.000000	0.193234
2410.000000	0.199420
2411.000000	0.200595
2412.000000	0.201182
2413.000000	0.207396
2414.000000	0.206104
2415.000000	0.201613
2416.000000	0.196409
2417.000000	0.186268
2418.000000	0.177030
2419.000000	0.169549
2420.000000	0.171837
2421.000000	0.180920
2422.000000	0.191326
2423.000000	0.210136
2424.000000	0.219945
2425.000000	0.211518
2426.000000	0.196470
2427.000000	0.182152
2428.000000	0.165689
2429.000000	0.156743
2430.000000	0.163616
2431.000000	0.156374
2432.000000	0.150914
2433.000000	0.154789
2434.000000	0.153956
2435.000000	0.164856
2436.000000	0.167419
2437.000000	0.170158
2438.000000	0.178858
2439.000000	0.183023
2440.000000	0.196319
2441.000000	0.200415
2442.000000	0.198693
2443.000000	0.207592
2444.000000	0.204437
2445.000000	0.194114
2446.000000	0.189594
2447.000000	0.175814
2448.000000	0.176050
2449.000000	0.200083
2450.000000	0.213399
2451.000000	0.228456
2452.000000	0.235006
2453.000000	0.212694
2454.000000	0.207217
2455.000000	0.195018
2456.000000	0.182760
2457.000000	0.199897
2458.000000	0.200366
2459.000000	0.192114
2460.000000	0.178806
2461.000000	0.163810
2462.000000	0.159116
2463.000000	0.170074
2464.000000	0.189878
2465.000000	0.204294
2466.000000	0.210863
2467.000000	0.213779
2468.000000	0.228385
2469.000000	0.220017
2470.000000	0.215703
2471.000000	0.217352
2472.000000	0.200318
2473.000000	0.201445
2474.000000	0.188478
2475.000000	0.167404
2476.000000	0.156768
2477.000000	0.145199
2478.000000	0.145516
2479.000000	0.148218
2480.000000	0.142629
2481.000000	0.134392
2482.000000	0.126968
2483.000000	0.107157
2484.000000	0.093267
2485.000000	0.112256
2486.000000	0.141619
2487.000000	0.171271
2488.000000	0.213052
2489.000000	0.196562
2490.000000	0.166015
2491.000000	0.186379
2492.000000	0.173016
2493.000000	0.173101
2494.000000	0.165354
2495.000000	0.121223
2496.000000	0.098386
2497.000000	0.063478
2498.000000	0.064810
2499.000000	0.092158
2500.000000	0.115035
