# Wavelength	Nau-2_20_FV7_80_00001.asd.rts.txt
350.000000	0.172626
351.000000	0.183708
352.000000	0.177362
353.000000	0.177792
354.000000	0.190353
355.000000	0.174583
356.000000	0.165135
357.000000	0.169586
358.000000	0.175513
359.000000	0.173203
360.000000	0.169344
361.000000	0.172268
362.000000	0.173258
363.000000	0.170982
364.000000	0.167065
365.000000	0.170003
366.000000	0.173649
367.000000	0.175178
368.000000	0.174778
369.000000	0.173876
370.000000	0.172464
371.000000	0.170265
372.000000	0.168220
373.000000	0.168185
374.000000	0.171234
375.000000	0.175620
376.000000	0.177730
377.000000	0.176703
378.000000	0.173992
379.000000	0.174646
380.000000	0.176361
381.000000	0.175757
382.000000	0.177455
383.000000	0.180613
384.000000	0.183339
385.000000	0.181342
386.000000	0.181060
387.000000	0.183383
388.000000	0.183200
389.000000	0.182647
390.000000	0.182224
391.000000	0.181789
392.000000	0.181369
393.000000	0.181694
394.000000	0.182671
395.000000	0.180772
396.000000	0.182129
397.000000	0.186359
398.000000	0.184047
399.000000	0.183656
400.000000	0.185365
401.000000	0.186034
402.000000	0.185454
403.000000	0.185364
404.000000	0.186848
405.000000	0.186138
406.000000	0.186291
407.000000	0.187948
408.000000	0.187143
409.000000	0.186941
410.000000	0.187745
411.000000	0.188534
412.000000	0.188943
413.000000	0.188846
414.000000	0.188464
415.000000	0.189217
416.000000	0.190225
417.000000	0.190706
418.000000	0.190255
419.000000	0.189939
420.000000	0.190329
421.000000	0.191695
422.000000	0.192290
423.000000	0.192204
424.000000	0.192243
425.000000	0.192977
426.000000	0.193640
427.000000	0.193688
428.000000	0.193687
429.000000	0.194289
430.000000	0.195363
431.000000	0.195755
432.000000	0.195484
433.000000	0.195185
434.000000	0.195858
435.000000	0.196100
436.000000	0.195906
437.000000	0.195690
438.000000	0.196676
439.000000	0.196900
440.000000	0.195888
441.000000	0.195912
442.000000	0.196448
443.000000	0.197021
444.000000	0.197176
445.000000	0.197366
446.000000	0.197769
447.000000	0.198274
448.000000	0.198430
449.000000	0.198548
450.000000	0.198911
451.000000	0.199539
452.000000	0.199820
453.000000	0.199780
454.000000	0.200398
455.000000	0.200882
456.000000	0.201201
457.000000	0.201465
458.000000	0.201646
459.000000	0.201955
460.000000	0.202531
461.000000	0.202872
462.000000	0.203146
463.000000	0.203362
464.000000	0.203617
465.000000	0.204090
466.000000	0.204646
467.000000	0.205043
468.000000	0.205107
469.000000	0.204991
470.000000	0.205080
471.000000	0.205538
472.000000	0.205874
473.000000	0.205886
474.000000	0.206186
475.000000	0.206329
476.000000	0.206387
477.000000	0.206722
478.000000	0.206895
479.000000	0.207087
480.000000	0.207406
481.000000	0.207501
482.000000	0.207708
483.000000	0.208138
484.000000	0.208517
485.000000	0.208691
486.000000	0.208803
487.000000	0.209035
488.000000	0.209313
489.000000	0.209590
490.000000	0.209806
491.000000	0.210052
492.000000	0.210268
493.000000	0.210298
494.000000	0.210521
495.000000	0.210838
496.000000	0.211119
497.000000	0.211458
498.000000	0.211772
499.000000	0.212089
500.000000	0.212411
501.000000	0.212791
502.000000	0.213111
503.000000	0.213129
504.000000	0.213290
505.000000	0.213555
506.000000	0.213811
507.000000	0.214080
508.000000	0.214324
509.000000	0.214531
510.000000	0.214862
511.000000	0.215156
512.000000	0.215421
513.000000	0.215744
514.000000	0.216078
515.000000	0.216428
516.000000	0.216764
517.000000	0.217092
518.000000	0.217368
519.000000	0.217529
520.000000	0.217801
521.000000	0.218073
522.000000	0.218335
523.000000	0.218713
524.000000	0.219182
525.000000	0.219648
526.000000	0.220014
527.000000	0.220522
528.000000	0.221058
529.000000	0.221512
530.000000	0.221998
531.000000	0.222574
532.000000	0.223183
533.000000	0.223787
534.000000	0.224437
535.000000	0.225095
536.000000	0.225655
537.000000	0.226231
538.000000	0.226849
539.000000	0.227487
540.000000	0.228096
541.000000	0.228665
542.000000	0.229225
543.000000	0.229796
544.000000	0.230355
545.000000	0.230863
546.000000	0.231467
547.000000	0.232031
548.000000	0.232590
549.000000	0.233221
550.000000	0.233811
551.000000	0.234430
552.000000	0.235133
553.000000	0.235820
554.000000	0.236510
555.000000	0.237219
556.000000	0.237880
557.000000	0.238563
558.000000	0.239372
559.000000	0.240149
560.000000	0.240902
561.000000	0.241682
562.000000	0.242438
563.000000	0.243182
564.000000	0.243869
565.000000	0.244392
566.000000	0.244981
567.000000	0.245612
568.000000	0.246221
569.000000	0.246775
570.000000	0.247305
571.000000	0.247824
572.000000	0.248360
573.000000	0.248806
574.000000	0.249168
575.000000	0.249542
576.000000	0.249907
577.000000	0.250193
578.000000	0.250436
579.000000	0.250796
580.000000	0.251055
581.000000	0.251173
582.000000	0.251419
583.000000	0.251652
584.000000	0.251857
585.000000	0.252078
586.000000	0.252261
587.000000	0.252448
588.000000	0.252678
589.000000	0.252785
590.000000	0.252857
591.000000	0.252965
592.000000	0.253096
593.000000	0.253137
594.000000	0.253118
595.000000	0.253239
596.000000	0.253263
597.000000	0.253277
598.000000	0.253379
599.000000	0.253326
600.000000	0.253268
601.000000	0.253286
602.000000	0.253310
603.000000	0.253250
604.000000	0.253138
605.000000	0.253214
606.000000	0.253186
607.000000	0.253055
608.000000	0.252989
609.000000	0.252850
610.000000	0.252734
611.000000	0.252744
612.000000	0.252623
613.000000	0.252460
614.000000	0.252375
615.000000	0.252394
616.000000	0.252364
617.000000	0.252239
618.000000	0.252166
619.000000	0.252120
620.000000	0.252102
621.000000	0.252160
622.000000	0.252115
623.000000	0.252035
624.000000	0.252002
625.000000	0.251995
626.000000	0.252009
627.000000	0.252023
628.000000	0.251958
629.000000	0.252034
630.000000	0.252129
631.000000	0.252176
632.000000	0.252218
633.000000	0.252260
634.000000	0.252293
635.000000	0.252370
636.000000	0.252411
637.000000	0.252381
638.000000	0.252419
639.000000	0.252420
640.000000	0.252436
641.000000	0.252510
642.000000	0.252557
643.000000	0.252601
644.000000	0.252698
645.000000	0.252816
646.000000	0.252964
647.000000	0.253110
648.000000	0.253170
649.000000	0.253263
650.000000	0.253410
651.000000	0.253567
652.000000	0.253748
653.000000	0.253906
654.000000	0.253912
655.000000	0.254066
656.000000	0.254327
657.000000	0.254562
658.000000	0.254822
659.000000	0.255105
660.000000	0.255394
661.000000	0.255724
662.000000	0.255939
663.000000	0.256124
664.000000	0.256423
665.000000	0.256710
666.000000	0.256990
667.000000	0.257283
668.000000	0.257697
669.000000	0.258086
670.000000	0.258386
671.000000	0.258719
672.000000	0.259126
673.000000	0.259575
674.000000	0.259989
675.000000	0.260320
676.000000	0.260635
677.000000	0.261040
678.000000	0.261489
679.000000	0.261958
680.000000	0.262432
681.000000	0.262875
682.000000	0.263344
683.000000	0.263802
684.000000	0.264325
685.000000	0.264794
686.000000	0.265248
687.000000	0.265725
688.000000	0.266132
689.000000	0.266631
690.000000	0.267322
691.000000	0.267913
692.000000	0.268465
693.000000	0.269069
694.000000	0.269701
695.000000	0.270307
696.000000	0.270887
697.000000	0.271462
698.000000	0.272012
699.000000	0.272596
700.000000	0.273243
701.000000	0.273807
702.000000	0.274415
703.000000	0.275068
704.000000	0.275647
705.000000	0.276242
706.000000	0.276835
707.000000	0.277449
708.000000	0.278066
709.000000	0.278657
710.000000	0.279240
711.000000	0.279918
712.000000	0.280571
713.000000	0.281172
714.000000	0.281765
715.000000	0.282372
716.000000	0.282999
717.000000	0.283613
718.000000	0.284227
719.000000	0.284823
720.000000	0.285400
721.000000	0.285971
722.000000	0.286567
723.000000	0.287223
724.000000	0.287809
725.000000	0.288326
726.000000	0.288870
727.000000	0.289423
728.000000	0.289973
729.000000	0.290521
730.000000	0.291024
731.000000	0.291525
732.000000	0.291973
733.000000	0.292406
734.000000	0.292875
735.000000	0.293348
736.000000	0.293908
737.000000	0.294431
738.000000	0.294887
739.000000	0.295379
740.000000	0.295823
741.000000	0.296271
742.000000	0.296692
743.000000	0.297074
744.000000	0.297511
745.000000	0.297969
746.000000	0.298473
747.000000	0.298956
748.000000	0.299347
749.000000	0.299707
750.000000	0.300061
751.000000	0.300439
752.000000	0.300809
753.000000	0.301183
754.000000	0.301584
755.000000	0.301930
756.000000	0.302233
757.000000	0.302497
758.000000	0.302842
759.000000	0.303221
760.000000	0.303544
761.000000	0.303930
762.000000	0.304246
763.000000	0.304500
764.000000	0.304853
765.000000	0.305095
766.000000	0.305280
767.000000	0.305477
768.000000	0.305612
769.000000	0.305751
770.000000	0.305933
771.000000	0.306149
772.000000	0.306318
773.000000	0.306405
774.000000	0.306538
775.000000	0.306720
776.000000	0.306875
777.000000	0.306951
778.000000	0.307077
779.000000	0.307220
780.000000	0.307335
781.000000	0.307345
782.000000	0.307429
783.000000	0.307584
784.000000	0.307607
785.000000	0.307706
786.000000	0.307816
787.000000	0.307887
788.000000	0.307954
789.000000	0.308021
790.000000	0.308052
791.000000	0.308037
792.000000	0.307977
793.000000	0.307904
794.000000	0.307864
795.000000	0.307911
796.000000	0.307940
797.000000	0.307934
798.000000	0.307980
799.000000	0.308112
800.000000	0.308235
801.000000	0.308258
802.000000	0.308401
803.000000	0.308501
804.000000	0.308508
805.000000	0.308501
806.000000	0.308434
807.000000	0.308412
808.000000	0.308450
809.000000	0.308499
810.000000	0.308482
811.000000	0.308348
812.000000	0.308151
813.000000	0.308047
814.000000	0.308053
815.000000	0.308079
816.000000	0.308068
817.000000	0.308087
818.000000	0.308133
819.000000	0.308227
820.000000	0.308238
821.000000	0.308102
822.000000	0.308000
823.000000	0.307993
824.000000	0.307973
825.000000	0.307917
826.000000	0.307961
827.000000	0.307988
828.000000	0.307983
829.000000	0.308058
830.000000	0.308048
831.000000	0.308018
832.000000	0.307981
833.000000	0.307891
834.000000	0.307801
835.000000	0.307762
836.000000	0.307625
837.000000	0.307477
838.000000	0.307361
839.000000	0.307245
840.000000	0.307170
841.000000	0.307103
842.000000	0.306969
843.000000	0.306817
844.000000	0.306696
845.000000	0.306570
846.000000	0.306394
847.000000	0.306302
848.000000	0.306217
849.000000	0.306075
850.000000	0.305992
851.000000	0.305921
852.000000	0.305858
853.000000	0.305748
854.000000	0.305634
855.000000	0.305582
856.000000	0.305466
857.000000	0.305282
858.000000	0.305114
859.000000	0.304930
860.000000	0.304745
861.000000	0.304594
862.000000	0.304533
863.000000	0.304524
864.000000	0.304496
865.000000	0.304457
866.000000	0.304411
867.000000	0.304253
868.000000	0.304098
869.000000	0.303933
870.000000	0.303801
871.000000	0.303638
872.000000	0.303512
873.000000	0.303413
874.000000	0.303387
875.000000	0.303206
876.000000	0.302951
877.000000	0.302764
878.000000	0.302642
879.000000	0.302563
880.000000	0.302388
881.000000	0.302267
882.000000	0.302146
883.000000	0.302001
884.000000	0.301761
885.000000	0.301538
886.000000	0.301300
887.000000	0.301109
888.000000	0.301163
889.000000	0.301079
890.000000	0.300783
891.000000	0.300550
892.000000	0.300315
893.000000	0.300058
894.000000	0.299846
895.000000	0.299495
896.000000	0.299183
897.000000	0.298981
898.000000	0.298894
899.000000	0.298763
900.000000	0.298582
901.000000	0.298353
902.000000	0.298198
903.000000	0.298152
904.000000	0.298138
905.000000	0.297963
906.000000	0.297708
907.000000	0.297516
908.000000	0.297397
909.000000	0.297040
910.000000	0.296719
911.000000	0.296535
912.000000	0.296482
913.000000	0.296244
914.000000	0.295906
915.000000	0.295576
916.000000	0.295225
917.000000	0.295003
918.000000	0.294832
919.000000	0.294610
920.000000	0.294388
921.000000	0.294189
922.000000	0.293984
923.000000	0.293704
924.000000	0.293510
925.000000	0.293258
926.000000	0.292931
927.000000	0.292682
928.000000	0.292292
929.000000	0.291940
930.000000	0.291831
931.000000	0.291537
932.000000	0.291143
933.000000	0.290788
934.000000	0.290538
935.000000	0.290283
936.000000	0.290091
937.000000	0.289911
938.000000	0.289655
939.000000	0.289456
940.000000	0.289197
941.000000	0.288799
942.000000	0.288505
943.000000	0.288226
944.000000	0.287873
945.000000	0.287873
946.000000	0.287749
947.000000	0.287490
948.000000	0.287193
949.000000	0.287044
950.000000	0.286795
951.000000	0.286397
952.000000	0.286120
953.000000	0.285815
954.000000	0.285563
955.000000	0.285301
956.000000	0.284754
957.000000	0.284425
958.000000	0.284346
959.000000	0.284382
960.000000	0.284010
961.000000	0.283539
962.000000	0.283204
963.000000	0.283114
964.000000	0.283010
965.000000	0.282864
966.000000	0.282612
967.000000	0.282402
968.000000	0.282343
969.000000	0.282250
970.000000	0.281936
971.000000	0.281329
972.000000	0.280957
973.000000	0.280860
974.000000	0.280606
975.000000	0.280358
976.000000	0.280101
977.000000	0.279867
978.000000	0.279962
979.000000	0.279840
980.000000	0.279468
981.000000	0.279453
982.000000	0.279495
983.000000	0.279318
984.000000	0.278960
985.000000	0.278645
986.000000	0.278437
987.000000	0.278193
988.000000	0.277873
989.000000	0.278207
990.000000	0.278362
991.000000	0.278103
992.000000	0.277589
993.000000	0.277396
994.000000	0.277319
995.000000	0.277295
996.000000	0.277038
997.000000	0.276789
998.000000	0.276522
999.000000	0.276381
1000.000000	0.276546
1001.000000	0.276123
1002.000000	0.276830
1003.000000	0.276497
1004.000000	0.276217
1005.000000	0.275627
1006.000000	0.275232
1007.000000	0.274678
1008.000000	0.274546
1009.000000	0.274435
1010.000000	0.273498
1011.000000	0.273049
1012.000000	0.272973
1013.000000	0.273481
1014.000000	0.274259
1015.000000	0.274555
1016.000000	0.275136
1017.000000	0.275168
1018.000000	0.274806
1019.000000	0.274662
1020.000000	0.274735
1021.000000	0.274275
1022.000000	0.273873
1023.000000	0.273570
1024.000000	0.272595
1025.000000	0.272835
1026.000000	0.273097
1027.000000	0.272847
1028.000000	0.273556
1029.000000	0.273532
1030.000000	0.273424
1031.000000	0.273939
1032.000000	0.273791
1033.000000	0.273615
1034.000000	0.273723
1035.000000	0.273898
1036.000000	0.274020
1037.000000	0.274377
1038.000000	0.274506
1039.000000	0.274562
1040.000000	0.274681
1041.000000	0.274777
1042.000000	0.275171
1043.000000	0.275242
1044.000000	0.275188
1045.000000	0.275089
1046.000000	0.274689
1047.000000	0.274734
1048.000000	0.274921
1049.000000	0.275263
1050.000000	0.276152
1051.000000	0.276357
1052.000000	0.276332
1053.000000	0.276273
1054.000000	0.275862
1055.000000	0.275710
1056.000000	0.275836
1057.000000	0.275750
1058.000000	0.275796
1059.000000	0.275940
1060.000000	0.275834
1061.000000	0.276357
1062.000000	0.276724
1063.000000	0.276757
1064.000000	0.276972
1065.000000	0.277340
1066.000000	0.277509
1067.000000	0.277351
1068.000000	0.277555
1069.000000	0.277991
1070.000000	0.278166
1071.000000	0.278455
1072.000000	0.278708
1073.000000	0.278918
1074.000000	0.278846
1075.000000	0.279013
1076.000000	0.279649
1077.000000	0.279788
1078.000000	0.279743
1079.000000	0.280074
1080.000000	0.280630
1081.000000	0.280693
1082.000000	0.280861
1083.000000	0.281084
1084.000000	0.280830
1085.000000	0.280942
1086.000000	0.281496
1087.000000	0.281835
1088.000000	0.282073
1089.000000	0.282232
1090.000000	0.282176
1091.000000	0.282433
1092.000000	0.282577
1093.000000	0.282617
1094.000000	0.282770
1095.000000	0.282952
1096.000000	0.283233
1097.000000	0.283613
1098.000000	0.283869
1099.000000	0.284162
1100.000000	0.284378
1101.000000	0.284251
1102.000000	0.284468
1103.000000	0.284850
1104.000000	0.285237
1105.000000	0.285985
1106.000000	0.286323
1107.000000	0.286374
1108.000000	0.286455
1109.000000	0.286346
1110.000000	0.286156
1111.000000	0.286400
1112.000000	0.286963
1113.000000	0.287254
1114.000000	0.287784
1115.000000	0.287943
1116.000000	0.287682
1117.000000	0.287788
1118.000000	0.287936
1119.000000	0.288057
1120.000000	0.288403
1121.000000	0.288519
1122.000000	0.288478
1123.000000	0.288727
1124.000000	0.288791
1125.000000	0.288973
1126.000000	0.289368
1127.000000	0.289536
1128.000000	0.289614
1129.000000	0.289591
1130.000000	0.289748
1131.000000	0.289885
1132.000000	0.289992
1133.000000	0.290273
1134.000000	0.290458
1135.000000	0.290553
1136.000000	0.290534
1137.000000	0.290363
1138.000000	0.290364
1139.000000	0.290413
1140.000000	0.290506
1141.000000	0.290705
1142.000000	0.290905
1143.000000	0.290925
1144.000000	0.291167
1145.000000	0.291393
1146.000000	0.291704
1147.000000	0.291869
1148.000000	0.291918
1149.000000	0.292008
1150.000000	0.292093
1151.000000	0.292124
1152.000000	0.292059
1153.000000	0.292100
1154.000000	0.292046
1155.000000	0.292075
1156.000000	0.292283
1157.000000	0.292355
1158.000000	0.292265
1159.000000	0.292303
1160.000000	0.292427
1161.000000	0.292414
1162.000000	0.292413
1163.000000	0.292553
1164.000000	0.292565
1165.000000	0.292396
1166.000000	0.292278
1167.000000	0.292068
1168.000000	0.292024
1169.000000	0.291952
1170.000000	0.292070
1171.000000	0.292566
1172.000000	0.292701
1173.000000	0.292722
1174.000000	0.292735
1175.000000	0.292433
1176.000000	0.292407
1177.000000	0.292654
1178.000000	0.292744
1179.000000	0.292929
1180.000000	0.292969
1181.000000	0.292927
1182.000000	0.292854
1183.000000	0.292888
1184.000000	0.293016
1185.000000	0.293146
1186.000000	0.293372
1187.000000	0.293486
1188.000000	0.293614
1189.000000	0.293607
1190.000000	0.293491
1191.000000	0.293489
1192.000000	0.293579
1193.000000	0.293677
1194.000000	0.293697
1195.000000	0.293801
1196.000000	0.293873
1197.000000	0.293929
1198.000000	0.294099
1199.000000	0.294198
1200.000000	0.294216
1201.000000	0.294202
1202.000000	0.294242
1203.000000	0.294275
1204.000000	0.294311
1205.000000	0.294369
1206.000000	0.294430
1207.000000	0.294649
1208.000000	0.294658
1209.000000	0.294684
1210.000000	0.294603
1211.000000	0.294284
1212.000000	0.294183
1213.000000	0.294206
1214.000000	0.294174
1215.000000	0.294233
1216.000000	0.294214
1217.000000	0.293952
1218.000000	0.293915
1219.000000	0.294084
1220.000000	0.294164
1221.000000	0.294180
1222.000000	0.294282
1223.000000	0.294222
1224.000000	0.294077
1225.000000	0.294059
1226.000000	0.293998
1227.000000	0.293922
1228.000000	0.294027
1229.000000	0.293999
1230.000000	0.293915
1231.000000	0.293928
1232.000000	0.294024
1233.000000	0.294126
1234.000000	0.294404
1235.000000	0.294421
1236.000000	0.294098
1237.000000	0.294121
1238.000000	0.294159
1239.000000	0.294150
1240.000000	0.294283
1241.000000	0.294410
1242.000000	0.294264
1243.000000	0.294257
1244.000000	0.294324
1245.000000	0.294329
1246.000000	0.294450
1247.000000	0.294544
1248.000000	0.294533
1249.000000	0.294544
1250.000000	0.294499
1251.000000	0.294432
1252.000000	0.294430
1253.000000	0.294565
1254.000000	0.294566
1255.000000	0.294504
1256.000000	0.294497
1257.000000	0.294461
1258.000000	0.294502
1259.000000	0.294625
1260.000000	0.294639
1261.000000	0.294460
1262.000000	0.294454
1263.000000	0.294473
1264.000000	0.294534
1265.000000	0.294801
1266.000000	0.294926
1267.000000	0.294905
1268.000000	0.294899
1269.000000	0.294729
1270.000000	0.294661
1271.000000	0.294631
1272.000000	0.294523
1273.000000	0.294520
1274.000000	0.294521
1275.000000	0.294501
1276.000000	0.294475
1277.000000	0.294593
1278.000000	0.294689
1279.000000	0.294772
1280.000000	0.294938
1281.000000	0.294948
1282.000000	0.294873
1283.000000	0.294929
1284.000000	0.294875
1285.000000	0.294919
1286.000000	0.295078
1287.000000	0.295104
1288.000000	0.295227
1289.000000	0.295404
1290.000000	0.295278
1291.000000	0.295212
1292.000000	0.295146
1293.000000	0.294903
1294.000000	0.294747
1295.000000	0.294778
1296.000000	0.294963
1297.000000	0.295187
1298.000000	0.295529
1299.000000	0.295797
1300.000000	0.295750
1301.000000	0.295621
1302.000000	0.295539
1303.000000	0.295433
1304.000000	0.295421
1305.000000	0.295675
1306.000000	0.295763
1307.000000	0.295890
1308.000000	0.295895
1309.000000	0.295723
1310.000000	0.295708
1311.000000	0.295671
1312.000000	0.295700
1313.000000	0.296038
1314.000000	0.296095
1315.000000	0.295950
1316.000000	0.296065
1317.000000	0.295894
1318.000000	0.295644
1319.000000	0.295530
1320.000000	0.295333
1321.000000	0.295299
1322.000000	0.295251
1323.000000	0.295178
1324.000000	0.295210
1325.000000	0.295122
1326.000000	0.295095
1327.000000	0.295089
1328.000000	0.295200
1329.000000	0.295189
1330.000000	0.295102
1331.000000	0.295087
1332.000000	0.295110
1333.000000	0.295092
1334.000000	0.295166
1335.000000	0.295307
1336.000000	0.295463
1337.000000	0.295556
1338.000000	0.295649
1339.000000	0.295649
1340.000000	0.295600
1341.000000	0.295619
1342.000000	0.295579
1343.000000	0.295489
1344.000000	0.295447
1345.000000	0.295351
1346.000000	0.295296
1347.000000	0.295177
1348.000000	0.295013
1349.000000	0.294844
1350.000000	0.294893
1351.000000	0.294970
1352.000000	0.295031
1353.000000	0.295081
1354.000000	0.294964
1355.000000	0.294843
1356.000000	0.294967
1357.000000	0.295015
1358.000000	0.294964
1359.000000	0.295032
1360.000000	0.294930
1361.000000	0.294549
1362.000000	0.294373
1363.000000	0.294240
1364.000000	0.294141
1365.000000	0.294111
1366.000000	0.294082
1367.000000	0.294097
1368.000000	0.294016
1369.000000	0.293968
1370.000000	0.293900
1371.000000	0.293755
1372.000000	0.293531
1373.000000	0.293384
1374.000000	0.293296
1375.000000	0.293190
1376.000000	0.293155
1377.000000	0.293153
1378.000000	0.293139
1379.000000	0.293029
1380.000000	0.292925
1381.000000	0.292777
1382.000000	0.292604
1383.000000	0.292586
1384.000000	0.292487
1385.000000	0.292287
1386.000000	0.292081
1387.000000	0.291900
1388.000000	0.291770
1389.000000	0.291643
1390.000000	0.291510
1391.000000	0.291213
1392.000000	0.290836
1393.000000	0.290494
1394.000000	0.290146
1395.000000	0.289920
1396.000000	0.289753
1397.000000	0.289553
1398.000000	0.289354
1399.000000	0.289112
1400.000000	0.288872
1401.000000	0.288592
1402.000000	0.288285
1403.000000	0.288062
1404.000000	0.287915
1405.000000	0.287659
1406.000000	0.287540
1407.000000	0.287456
1408.000000	0.287258
1409.000000	0.287098
1410.000000	0.286934
1411.000000	0.286861
1412.000000	0.286745
1413.000000	0.286672
1414.000000	0.286827
1415.000000	0.286919
1416.000000	0.286921
1417.000000	0.287081
1418.000000	0.286982
1419.000000	0.286808
1420.000000	0.286873
1421.000000	0.286826
1422.000000	0.286758
1423.000000	0.286886
1424.000000	0.286917
1425.000000	0.287029
1426.000000	0.287188
1427.000000	0.287334
1428.000000	0.287335
1429.000000	0.287290
1430.000000	0.287369
1431.000000	0.287419
1432.000000	0.287463
1433.000000	0.287670
1434.000000	0.287707
1435.000000	0.287651
1436.000000	0.287682
1437.000000	0.287654
1438.000000	0.287623
1439.000000	0.287724
1440.000000	0.287778
1441.000000	0.287774
1442.000000	0.287886
1443.000000	0.287987
1444.000000	0.288101
1445.000000	0.288283
1446.000000	0.288595
1447.000000	0.288977
1448.000000	0.289198
1449.000000	0.289373
1450.000000	0.289530
1451.000000	0.289623
1452.000000	0.289767
1453.000000	0.289982
1454.000000	0.290137
1455.000000	0.290167
1456.000000	0.290159
1457.000000	0.290120
1458.000000	0.289997
1459.000000	0.289894
1460.000000	0.289891
1461.000000	0.289888
1462.000000	0.289855
1463.000000	0.289765
1464.000000	0.289680
1465.000000	0.289627
1466.000000	0.289614
1467.000000	0.289727
1468.000000	0.289865
1469.000000	0.290043
1470.000000	0.290079
1471.000000	0.290127
1472.000000	0.290260
1473.000000	0.290372
1474.000000	0.290429
1475.000000	0.290497
1476.000000	0.290524
1477.000000	0.290527
1478.000000	0.290586
1479.000000	0.290730
1480.000000	0.290840
1481.000000	0.290820
1482.000000	0.290744
1483.000000	0.290787
1484.000000	0.290713
1485.000000	0.290736
1486.000000	0.290921
1487.000000	0.291072
1488.000000	0.291251
1489.000000	0.291409
1490.000000	0.291461
1491.000000	0.291574
1492.000000	0.291602
1493.000000	0.291696
1494.000000	0.291898
1495.000000	0.291944
1496.000000	0.291911
1497.000000	0.291892
1498.000000	0.291808
1499.000000	0.291756
1500.000000	0.291827
1501.000000	0.291981
1502.000000	0.292106
1503.000000	0.292183
1504.000000	0.292233
1505.000000	0.292168
1506.000000	0.292112
1507.000000	0.292102
1508.000000	0.292102
1509.000000	0.292097
1510.000000	0.292143
1511.000000	0.292247
1512.000000	0.292216
1513.000000	0.292221
1514.000000	0.292261
1515.000000	0.292220
1516.000000	0.292341
1517.000000	0.292345
1518.000000	0.292275
1519.000000	0.292284
1520.000000	0.292267
1521.000000	0.292302
1522.000000	0.292469
1523.000000	0.292636
1524.000000	0.292721
1525.000000	0.292741
1526.000000	0.292695
1527.000000	0.292659
1528.000000	0.292640
1529.000000	0.292658
1530.000000	0.292635
1531.000000	0.292565
1532.000000	0.292462
1533.000000	0.292362
1534.000000	0.292290
1535.000000	0.292239
1536.000000	0.292227
1537.000000	0.292303
1538.000000	0.292309
1539.000000	0.292280
1540.000000	0.292335
1541.000000	0.292386
1542.000000	0.292462
1543.000000	0.292639
1544.000000	0.292759
1545.000000	0.292807
1546.000000	0.292802
1547.000000	0.292641
1548.000000	0.292538
1549.000000	0.292549
1550.000000	0.292553
1551.000000	0.292595
1552.000000	0.292575
1553.000000	0.292435
1554.000000	0.292300
1555.000000	0.292281
1556.000000	0.292227
1557.000000	0.292137
1558.000000	0.292215
1559.000000	0.292374
1560.000000	0.292457
1561.000000	0.292712
1562.000000	0.292699
1563.000000	0.292495
1564.000000	0.292461
1565.000000	0.292382
1566.000000	0.292347
1567.000000	0.292539
1568.000000	0.292561
1569.000000	0.292552
1570.000000	0.292602
1571.000000	0.292649
1572.000000	0.292614
1573.000000	0.292544
1574.000000	0.292532
1575.000000	0.292494
1576.000000	0.292553
1577.000000	0.292743
1578.000000	0.292755
1579.000000	0.292740
1580.000000	0.292690
1581.000000	0.292638
1582.000000	0.292650
1583.000000	0.292669
1584.000000	0.292615
1585.000000	0.292556
1586.000000	0.292572
1587.000000	0.292672
1588.000000	0.292681
1589.000000	0.292713
1590.000000	0.292711
1591.000000	0.292592
1592.000000	0.292527
1593.000000	0.292561
1594.000000	0.292534
1595.000000	0.292482
1596.000000	0.292513
1597.000000	0.292654
1598.000000	0.292669
1599.000000	0.292695
1600.000000	0.292617
1601.000000	0.292419
1602.000000	0.292396
1603.000000	0.292484
1604.000000	0.292538
1605.000000	0.292729
1606.000000	0.292765
1607.000000	0.292756
1608.000000	0.292711
1609.000000	0.292621
1610.000000	0.292566
1611.000000	0.292537
1612.000000	0.292480
1613.000000	0.292528
1614.000000	0.292488
1615.000000	0.292404
1616.000000	0.292395
1617.000000	0.292406
1618.000000	0.292376
1619.000000	0.292294
1620.000000	0.292274
1621.000000	0.292246
1622.000000	0.292331
1623.000000	0.292519
1624.000000	0.292635
1625.000000	0.292666
1626.000000	0.292627
1627.000000	0.292515
1628.000000	0.292528
1629.000000	0.292542
1630.000000	0.292637
1631.000000	0.292784
1632.000000	0.292839
1633.000000	0.292924
1634.000000	0.292903
1635.000000	0.292821
1636.000000	0.292769
1637.000000	0.292648
1638.000000	0.292626
1639.000000	0.292729
1640.000000	0.292770
1641.000000	0.292911
1642.000000	0.292975
1643.000000	0.293053
1644.000000	0.293015
1645.000000	0.292912
1646.000000	0.292767
1647.000000	0.292486
1648.000000	0.292392
1649.000000	0.292493
1650.000000	0.292443
1651.000000	0.292387
1652.000000	0.292491
1653.000000	0.292558
1654.000000	0.292636
1655.000000	0.292883
1656.000000	0.292857
1657.000000	0.292665
1658.000000	0.292620
1659.000000	0.292683
1660.000000	0.292702
1661.000000	0.292672
1662.000000	0.292614
1663.000000	0.292484
1664.000000	0.292416
1665.000000	0.292347
1666.000000	0.292295
1667.000000	0.292194
1668.000000	0.292159
1669.000000	0.292119
1670.000000	0.292049
1671.000000	0.292106
1672.000000	0.292101
1673.000000	0.292018
1674.000000	0.291945
1675.000000	0.291959
1676.000000	0.292096
1677.000000	0.292129
1678.000000	0.292047
1679.000000	0.292037
1680.000000	0.292017
1681.000000	0.292008
1682.000000	0.292140
1683.000000	0.292344
1684.000000	0.292427
1685.000000	0.292445
1686.000000	0.292379
1687.000000	0.292303
1688.000000	0.292149
1689.000000	0.291888
1690.000000	0.291740
1691.000000	0.291760
1692.000000	0.291791
1693.000000	0.291881
1694.000000	0.291902
1695.000000	0.291906
1696.000000	0.291991
1697.000000	0.291945
1698.000000	0.291861
1699.000000	0.291869
1700.000000	0.291824
1701.000000	0.291856
1702.000000	0.291889
1703.000000	0.291838
1704.000000	0.291821
1705.000000	0.291749
1706.000000	0.291652
1707.000000	0.291575
1708.000000	0.291376
1709.000000	0.291245
1710.000000	0.291280
1711.000000	0.291301
1712.000000	0.291429
1713.000000	0.291427
1714.000000	0.291389
1715.000000	0.291350
1716.000000	0.291277
1717.000000	0.291170
1718.000000	0.290925
1719.000000	0.290864
1720.000000	0.290915
1721.000000	0.290944
1722.000000	0.291166
1723.000000	0.291234
1724.000000	0.291201
1725.000000	0.291214
1726.000000	0.291044
1727.000000	0.291113
1728.000000	0.291319
1729.000000	0.291282
1730.000000	0.291427
1731.000000	0.291397
1732.000000	0.291065
1733.000000	0.291054
1734.000000	0.291083
1735.000000	0.291036
1736.000000	0.291058
1737.000000	0.290897
1738.000000	0.290552
1739.000000	0.290456
1740.000000	0.290355
1741.000000	0.290326
1742.000000	0.290465
1743.000000	0.290608
1744.000000	0.290757
1745.000000	0.290804
1746.000000	0.290909
1747.000000	0.290713
1748.000000	0.290605
1749.000000	0.290563
1750.000000	0.290501
1751.000000	0.290705
1752.000000	0.290787
1753.000000	0.290503
1754.000000	0.290481
1755.000000	0.290516
1756.000000	0.290493
1757.000000	0.290686
1758.000000	0.290737
1759.000000	0.290523
1760.000000	0.290464
1761.000000	0.290408
1762.000000	0.290404
1763.000000	0.290567
1764.000000	0.290582
1765.000000	0.290527
1766.000000	0.290485
1767.000000	0.290258
1768.000000	0.290114
1769.000000	0.290115
1770.000000	0.290108
1771.000000	0.290063
1772.000000	0.290048
1773.000000	0.290004
1774.000000	0.289984
1775.000000	0.290006
1776.000000	0.290120
1777.000000	0.290391
1778.000000	0.290312
1779.000000	0.290079
1780.000000	0.289981
1781.000000	0.289626
1782.000000	0.289520
1783.000000	0.289715
1784.000000	0.289936
1785.000000	0.289886
1786.000000	0.289762
1787.000000	0.289696
1788.000000	0.289444
1789.000000	0.289159
1790.000000	0.289275
1791.000000	0.289255
1792.000000	0.289380
1793.000000	0.289371
1794.000000	0.289190
1795.000000	0.289120
1796.000000	0.288930
1797.000000	0.288952
1798.000000	0.289271
1799.000000	0.289350
1800.000000	0.289428
1801.000000	0.289235
1802.000000	0.289267
1803.000000	0.289547
1804.000000	0.289964
1805.000000	0.292321
1806.000000	0.292289
1807.000000	0.290384
1808.000000	0.289679
1809.000000	0.287736
1810.000000	0.287265
1811.000000	0.287505
1812.000000	0.289237
1813.000000	0.290080
1814.000000	0.291758
1815.000000	0.292160
1816.000000	0.291908
1817.000000	0.291646
1818.000000	0.290713
1819.000000	0.290105
1820.000000	0.289756
1821.000000	0.288543
1822.000000	0.288473
1823.000000	0.289074
1824.000000	0.288901
1825.000000	0.288735
1826.000000	0.288939
1827.000000	0.288703
1828.000000	0.288692
1829.000000	0.289150
1830.000000	0.289716
1831.000000	0.289403
1832.000000	0.287827
1833.000000	0.287564
1834.000000	0.287457
1835.000000	0.287279
1836.000000	0.287788
1837.000000	0.288037
1838.000000	0.287783
1839.000000	0.287904
1840.000000	0.287657
1841.000000	0.287482
1842.000000	0.287529
1843.000000	0.287369
1844.000000	0.287480
1845.000000	0.288322
1846.000000	0.288322
1847.000000	0.287525
1848.000000	0.286912
1849.000000	0.287355
1850.000000	0.287138
1851.000000	0.287172
1852.000000	0.287980
1853.000000	0.288328
1854.000000	0.288055
1855.000000	0.287975
1856.000000	0.288488
1857.000000	0.287570
1858.000000	0.286306
1859.000000	0.285755
1860.000000	0.285763
1861.000000	0.286447
1862.000000	0.286565
1863.000000	0.287148
1864.000000	0.287417
1865.000000	0.286925
1866.000000	0.286882
1867.000000	0.287424
1868.000000	0.287549
1869.000000	0.286653
1870.000000	0.286398
1871.000000	0.286533
1872.000000	0.286257
1873.000000	0.285849
1874.000000	0.285764
1875.000000	0.285379
1876.000000	0.284284
1877.000000	0.282797
1878.000000	0.282138
1879.000000	0.281829
1880.000000	0.281573
1881.000000	0.282058
1882.000000	0.282340
1883.000000	0.281946
1884.000000	0.281426
1885.000000	0.279952
1886.000000	0.278998
1887.000000	0.278110
1888.000000	0.277083
1889.000000	0.276096
1890.000000	0.275898
1891.000000	0.275100
1892.000000	0.273651
1893.000000	0.273133
1894.000000	0.271899
1895.000000	0.270716
1896.000000	0.269565
1897.000000	0.269301
1898.000000	0.268059
1899.000000	0.267393
1900.000000	0.267039
1901.000000	0.266343
1902.000000	0.265801
1903.000000	0.265058
1904.000000	0.264311
1905.000000	0.264018
1906.000000	0.263833
1907.000000	0.264038
1908.000000	0.264148
1909.000000	0.264139
1910.000000	0.263963
1911.000000	0.263830
1912.000000	0.264049
1913.000000	0.264866
1914.000000	0.265763
1915.000000	0.265903
1916.000000	0.265939
1917.000000	0.266398
1918.000000	0.266999
1919.000000	0.267684
1920.000000	0.268273
1921.000000	0.269310
1922.000000	0.269765
1923.000000	0.269920
1924.000000	0.270284
1925.000000	0.269814
1926.000000	0.269974
1927.000000	0.270220
1928.000000	0.270333
1929.000000	0.270652
1930.000000	0.271823
1931.000000	0.271499
1932.000000	0.270860
1933.000000	0.270873
1934.000000	0.270849
1935.000000	0.271343
1936.000000	0.272020
1937.000000	0.272283
1938.000000	0.271904
1939.000000	0.271813
1940.000000	0.271495
1941.000000	0.271807
1942.000000	0.272254
1943.000000	0.272680
1944.000000	0.273415
1945.000000	0.273411
1946.000000	0.273462
1947.000000	0.274065
1948.000000	0.274114
1949.000000	0.274737
1950.000000	0.275633
1951.000000	0.275602
1952.000000	0.275065
1953.000000	0.274314
1954.000000	0.273798
1955.000000	0.273031
1956.000000	0.272941
1957.000000	0.273654
1958.000000	0.273824
1959.000000	0.274282
1960.000000	0.274402
1961.000000	0.274170
1962.000000	0.274011
1963.000000	0.273944
1964.000000	0.273224
1965.000000	0.272748
1966.000000	0.272459
1967.000000	0.272371
1968.000000	0.272687
1969.000000	0.272902
1970.000000	0.273338
1971.000000	0.273052
1972.000000	0.272685
1973.000000	0.272460
1974.000000	0.272280
1975.000000	0.272100
1976.000000	0.272118
1977.000000	0.271983
1978.000000	0.271956
1979.000000	0.272439
1980.000000	0.273589
1981.000000	0.275089
1982.000000	0.276224
1983.000000	0.277358
1984.000000	0.277686
1985.000000	0.277057
1986.000000	0.276822
1987.000000	0.276494
1988.000000	0.275714
1989.000000	0.275591
1990.000000	0.275653
1991.000000	0.276073
1992.000000	0.276909
1993.000000	0.276997
1994.000000	0.277393
1995.000000	0.277348
1996.000000	0.276816
1997.000000	0.276722
1998.000000	0.277037
1999.000000	0.277185
2000.000000	0.277331
2001.000000	0.277678
2002.000000	0.277628
2003.000000	0.277776
2004.000000	0.278116
2005.000000	0.277789
2006.000000	0.277706
2007.000000	0.277722
2008.000000	0.277655
2009.000000	0.277076
2010.000000	0.277333
2011.000000	0.278086
2012.000000	0.278351
2013.000000	0.278535
2014.000000	0.279170
2015.000000	0.279193
2016.000000	0.279255
2017.000000	0.279303
2018.000000	0.278990
2019.000000	0.278944
2020.000000	0.278999
2021.000000	0.278996
2022.000000	0.279271
2023.000000	0.279170
2024.000000	0.278837
2025.000000	0.278540
2026.000000	0.277842
2027.000000	0.277400
2028.000000	0.277658
2029.000000	0.277921
2030.000000	0.278354
2031.000000	0.278776
2032.000000	0.278190
2033.000000	0.277538
2034.000000	0.277348
2035.000000	0.277197
2036.000000	0.277208
2037.000000	0.278153
2038.000000	0.278335
2039.000000	0.278086
2040.000000	0.278356
2041.000000	0.278271
2042.000000	0.277939
2043.000000	0.277804
2044.000000	0.277583
2045.000000	0.277135
2046.000000	0.276780
2047.000000	0.276828
2048.000000	0.277112
2049.000000	0.277492
2050.000000	0.277934
2051.000000	0.278292
2052.000000	0.278688
2053.000000	0.278613
2054.000000	0.278612
2055.000000	0.278602
2056.000000	0.277787
2057.000000	0.277447
2058.000000	0.277708
2059.000000	0.278351
2060.000000	0.278705
2061.000000	0.279509
2062.000000	0.279760
2063.000000	0.279633
2064.000000	0.279518
2065.000000	0.279683
2066.000000	0.279377
2067.000000	0.279030
2068.000000	0.278417
2069.000000	0.277570
2070.000000	0.278012
2071.000000	0.278983
2072.000000	0.279440
2073.000000	0.279855
2074.000000	0.279904
2075.000000	0.279803
2076.000000	0.279026
2077.000000	0.278814
2078.000000	0.278762
2079.000000	0.278471
2080.000000	0.278217
2081.000000	0.278112
2082.000000	0.277657
2083.000000	0.278133
2084.000000	0.278351
2085.000000	0.278778
2086.000000	0.278661
2087.000000	0.277904
2088.000000	0.278331
2089.000000	0.278126
2090.000000	0.278492
2091.000000	0.280067
2092.000000	0.280597
2093.000000	0.280755
2094.000000	0.280884
2095.000000	0.280502
2096.000000	0.280437
2097.000000	0.280294
2098.000000	0.280270
2099.000000	0.280493
2100.000000	0.280279
2101.000000	0.280369
2102.000000	0.280368
2103.000000	0.279807
2104.000000	0.279526
2105.000000	0.279168
2106.000000	0.278297
2107.000000	0.278140
2108.000000	0.278688
2109.000000	0.278730
2110.000000	0.278294
2111.000000	0.278337
2112.000000	0.278372
2113.000000	0.278348
2114.000000	0.278408
2115.000000	0.279611
2116.000000	0.280388
2117.000000	0.280248
2118.000000	0.280794
2119.000000	0.281311
2120.000000	0.281434
2121.000000	0.281341
2122.000000	0.281367
2123.000000	0.280935
2124.000000	0.280790
2125.000000	0.281018
2126.000000	0.280989
2127.000000	0.280938
2128.000000	0.280913
2129.000000	0.280869
2130.000000	0.280561
2131.000000	0.279877
2132.000000	0.279199
2133.000000	0.279279
2134.000000	0.279130
2135.000000	0.278971
2136.000000	0.279177
2137.000000	0.278996
2138.000000	0.278275
2139.000000	0.277953
2140.000000	0.277640
2141.000000	0.277653
2142.000000	0.277706
2143.000000	0.277825
2144.000000	0.278972
2145.000000	0.279310
2146.000000	0.279022
2147.000000	0.279510
2148.000000	0.280272
2149.000000	0.280409
2150.000000	0.281174
2151.000000	0.281756
2152.000000	0.281376
2153.000000	0.280703
2154.000000	0.280443
2155.000000	0.280384
2156.000000	0.280111
2157.000000	0.279910
2158.000000	0.279675
2159.000000	0.279292
2160.000000	0.278996
2161.000000	0.278439
2162.000000	0.278805
2163.000000	0.280060
2164.000000	0.280175
2165.000000	0.280747
2166.000000	0.280283
2167.000000	0.278457
2168.000000	0.277057
2169.000000	0.276781
2170.000000	0.276973
2171.000000	0.276755
2172.000000	0.277237
2173.000000	0.277004
2174.000000	0.275564
2175.000000	0.275466
2176.000000	0.275984
2177.000000	0.276230
2178.000000	0.277508
2179.000000	0.277795
2180.000000	0.276676
2181.000000	0.277158
2182.000000	0.277859
2183.000000	0.278071
2184.000000	0.279159
2185.000000	0.280133
2186.000000	0.277775
2187.000000	0.276321
2188.000000	0.276207
2189.000000	0.274303
2190.000000	0.275389
2191.000000	0.277783
2192.000000	0.278058
2193.000000	0.277371
2194.000000	0.277394
2195.000000	0.275997
2196.000000	0.275947
2197.000000	0.277598
2198.000000	0.278024
2199.000000	0.278674
2200.000000	0.278351
2201.000000	0.276393
2202.000000	0.275434
2203.000000	0.273468
2204.000000	0.272747
2205.000000	0.274596
2206.000000	0.276663
2207.000000	0.277820
2208.000000	0.281086
2209.000000	0.281600
2210.000000	0.281255
2211.000000	0.282607
2212.000000	0.281076
2213.000000	0.278885
2214.000000	0.274695
2215.000000	0.272767
2216.000000	0.269993
2217.000000	0.268910
2218.000000	0.269682
2219.000000	0.270674
2220.000000	0.272723
2221.000000	0.273812
2222.000000	0.276188
2223.000000	0.276731
2224.000000	0.274595
2225.000000	0.274543
2226.000000	0.276080
2227.000000	0.276267
2228.000000	0.277930
2229.000000	0.278108
2230.000000	0.276952
2231.000000	0.276174
2232.000000	0.276118
2233.000000	0.278143
2234.000000	0.276543
2235.000000	0.274251
2236.000000	0.271730
2237.000000	0.265341
2238.000000	0.263436
2239.000000	0.263608
2240.000000	0.264271
2241.000000	0.268162
2242.000000	0.269551
2243.000000	0.270876
2244.000000	0.271691
2245.000000	0.270548
2246.000000	0.270528
2247.000000	0.271296
2248.000000	0.270771
2249.000000	0.269702
2250.000000	0.269086
2251.000000	0.267604
2252.000000	0.266289
2253.000000	0.266912
2254.000000	0.269437
2255.000000	0.271790
2256.000000	0.274227
2257.000000	0.274740
2258.000000	0.273321
2259.000000	0.272498
2260.000000	0.272168
2261.000000	0.272085
2262.000000	0.272866
2263.000000	0.273388
2264.000000	0.274125
2265.000000	0.273970
2266.000000	0.273866
2267.000000	0.273790
2268.000000	0.273157
2269.000000	0.272119
2270.000000	0.270743
2271.000000	0.269684
2272.000000	0.267489
2273.000000	0.267182
2274.000000	0.269048
2275.000000	0.269770
2276.000000	0.271616
2277.000000	0.270728
2278.000000	0.268835
2279.000000	0.266806
2280.000000	0.264196
2281.000000	0.263948
2282.000000	0.265104
2283.000000	0.266160
2284.000000	0.268321
2285.000000	0.270458
2286.000000	0.273293
2287.000000	0.275560
2288.000000	0.276598
2289.000000	0.277051
2290.000000	0.272836
2291.000000	0.267708
2292.000000	0.264956
2293.000000	0.261603
2294.000000	0.260092
2295.000000	0.262345
2296.000000	0.261776
2297.000000	0.259487
2298.000000	0.259207
2299.000000	0.259390
2300.000000	0.259980
2301.000000	0.262379
2302.000000	0.263808
2303.000000	0.264485
2304.000000	0.264601
2305.000000	0.264418
2306.000000	0.263965
2307.000000	0.262088
2308.000000	0.262624
2309.000000	0.262929
2310.000000	0.264522
2311.000000	0.266297
2312.000000	0.266215
2313.000000	0.265782
2314.000000	0.262022
2315.000000	0.259465
2316.000000	0.259900
2317.000000	0.261264
2318.000000	0.265969
2319.000000	0.270112
2320.000000	0.272366
2321.000000	0.272275
2322.000000	0.269965
2323.000000	0.266314
2324.000000	0.263616
2325.000000	0.264561
2326.000000	0.266251
2327.000000	0.268723
2328.000000	0.270269
2329.000000	0.269517
2330.000000	0.268597
2331.000000	0.267796
2332.000000	0.267875
2333.000000	0.269970
2334.000000	0.271256
2335.000000	0.271884
2336.000000	0.272276
2337.000000	0.271694
2338.000000	0.268906
2339.000000	0.268626
2340.000000	0.269654
2341.000000	0.269599
2342.000000	0.269409
2343.000000	0.270451
2344.000000	0.271295
2345.000000	0.271048
2346.000000	0.272499
2347.000000	0.272769
2348.000000	0.270423
2349.000000	0.270605
2350.000000	0.272651
2351.000000	0.270578
2352.000000	0.268830
2353.000000	0.269166
2354.000000	0.267412
2355.000000	0.266910
2356.000000	0.265910
2357.000000	0.264189
2358.000000	0.264229
2359.000000	0.265405
2360.000000	0.267532
2361.000000	0.267822
2362.000000	0.263674
2363.000000	0.258464
2364.000000	0.255103
2365.000000	0.254899
2366.000000	0.259178
2367.000000	0.264828
2368.000000	0.266268
2369.000000	0.264117
2370.000000	0.262607
2371.000000	0.264034
2372.000000	0.268255
2373.000000	0.270897
2374.000000	0.271528
2375.000000	0.266807
2376.000000	0.260910
2377.000000	0.262644
2378.000000	0.266258
2379.000000	0.273660
2380.000000	0.280688
2381.000000	0.283547
2382.000000	0.282248
2383.000000	0.275747
2384.000000	0.271916
2385.000000	0.267009
2386.000000	0.261678
2387.000000	0.259552
2388.000000	0.255211
2389.000000	0.250675
2390.000000	0.252102
2391.000000	0.251459
2392.000000	0.253605
2393.000000	0.261858
2394.000000	0.263722
2395.000000	0.267085
2396.000000	0.269014
2397.000000	0.268673
2398.000000	0.268137
2399.000000	0.266171
2400.000000	0.270640
2401.000000	0.270511
2402.000000	0.270648
2403.000000	0.277943
2404.000000	0.274993
2405.000000	0.267421
2406.000000	0.264124
2407.000000	0.257169
2408.000000	0.256741
2409.000000	0.263094
2410.000000	0.260423
2411.000000	0.260374
2412.000000	0.262006
2413.000000	0.256759
2414.000000	0.256888
2415.000000	0.250425
2416.000000	0.239643
2417.000000	0.235325
2418.000000	0.233231
2419.000000	0.243198
2420.000000	0.254155
2421.000000	0.256699
2422.000000	0.255490
2423.000000	0.251693
2424.000000	0.248471
2425.000000	0.245771
2426.000000	0.254020
2427.000000	0.257822
2428.000000	0.252586
2429.000000	0.252722
2430.000000	0.243726
2431.000000	0.244001
2432.000000	0.257538
2433.000000	0.267053
2434.000000	0.275420
2435.000000	0.273773
2436.000000	0.264391
2437.000000	0.257534
2438.000000	0.250810
2439.000000	0.250784
2440.000000	0.254640
2441.000000	0.260596
2442.000000	0.273952
2443.000000	0.270776
2444.000000	0.265553
2445.000000	0.267243
2446.000000	0.257272
2447.000000	0.256078
2448.000000	0.255667
2449.000000	0.245133
2450.000000	0.244524
2451.000000	0.258913
2452.000000	0.270416
2453.000000	0.273833
2454.000000	0.273602
2455.000000	0.260529
2456.000000	0.252851
2457.000000	0.265188
2458.000000	0.275852
2459.000000	0.279407
2460.000000	0.285475
2461.000000	0.285003
2462.000000	0.279220
2463.000000	0.278333
2464.000000	0.273275
2465.000000	0.261754
2466.000000	0.263620
2467.000000	0.270311
2468.000000	0.266085
2469.000000	0.280755
2470.000000	0.298153
2471.000000	0.300781
2472.000000	0.319386
2473.000000	0.309837
2474.000000	0.275643
2475.000000	0.263225
2476.000000	0.248039
2477.000000	0.250608
2478.000000	0.243707
2479.000000	0.228443
2480.000000	0.232321
2481.000000	0.208229
2482.000000	0.182782
2483.000000	0.167027
2484.000000	0.140842
2485.000000	0.151616
2486.000000	0.204552
2487.000000	0.237370
2488.000000	0.245244
2489.000000	0.233021
2490.000000	0.178141
2491.000000	0.219325
2492.000000	0.241072
2493.000000	0.295441
2494.000000	0.354078
2495.000000	0.378882
2496.000000	0.371671
2497.000000	0.366132
2498.000000	0.333574
2499.000000	0.248473
2500.000000	0.212236
