# Wavelength	NAu-2-30_HEX-20_FV7-50_00002.asd.rts.txt
350.000000	0.146496
351.000000	0.150815
352.000000	0.154869
353.000000	0.156009
354.000000	0.154077
355.000000	0.149251
356.000000	0.145597
357.000000	0.144272
358.000000	0.142362
359.000000	0.143505
360.000000	0.145273
361.000000	0.144915
362.000000	0.151090
363.000000	0.153851
364.000000	0.149435
365.000000	0.155287
366.000000	0.156973
367.000000	0.151304
368.000000	0.143770
369.000000	0.148605
370.000000	0.157139
371.000000	0.155784
372.000000	0.152035
373.000000	0.149674
374.000000	0.150059
375.000000	0.148142
376.000000	0.148050
377.000000	0.149936
378.000000	0.150566
379.000000	0.148513
380.000000	0.146929
381.000000	0.149929
382.000000	0.150087
383.000000	0.148556
384.000000	0.148011
385.000000	0.152321
386.000000	0.155255
387.000000	0.155331
388.000000	0.155489
389.000000	0.154927
390.000000	0.153782
391.000000	0.152445
392.000000	0.153661
393.000000	0.153676
394.000000	0.150763
395.000000	0.152495
396.000000	0.154063
397.000000	0.153819
398.000000	0.154408
399.000000	0.154089
400.000000	0.153485
401.000000	0.153976
402.000000	0.154354
403.000000	0.154816
404.000000	0.155529
405.000000	0.154918
406.000000	0.154425
407.000000	0.154776
408.000000	0.155460
409.000000	0.155866
410.000000	0.156440
411.000000	0.158213
412.000000	0.158520
413.000000	0.158241
414.000000	0.158735
415.000000	0.158894
416.000000	0.158814
417.000000	0.158821
418.000000	0.159723
419.000000	0.160049
420.000000	0.159634
421.000000	0.159363
422.000000	0.159299
423.000000	0.159699
424.000000	0.160730
425.000000	0.161132
426.000000	0.161402
427.000000	0.161881
428.000000	0.161638
429.000000	0.161611
430.000000	0.162205
431.000000	0.163301
432.000000	0.163404
433.000000	0.163112
434.000000	0.164021
435.000000	0.164433
436.000000	0.164351
437.000000	0.164185
438.000000	0.164723
439.000000	0.165162
440.000000	0.165125
441.000000	0.164798
442.000000	0.165088
443.000000	0.165722
444.000000	0.165652
445.000000	0.165601
446.000000	0.165810
447.000000	0.166224
448.000000	0.166557
449.000000	0.166950
450.000000	0.167493
451.000000	0.167950
452.000000	0.168533
453.000000	0.169133
454.000000	0.169399
455.000000	0.169817
456.000000	0.170286
457.000000	0.170384
458.000000	0.170590
459.000000	0.170860
460.000000	0.171107
461.000000	0.171300
462.000000	0.171540
463.000000	0.171737
464.000000	0.171749
465.000000	0.172096
466.000000	0.172653
467.000000	0.172964
468.000000	0.173062
469.000000	0.173218
470.000000	0.173800
471.000000	0.174447
472.000000	0.174557
473.000000	0.174152
474.000000	0.174881
475.000000	0.175382
476.000000	0.175437
477.000000	0.175776
478.000000	0.176108
479.000000	0.176515
480.000000	0.176924
481.000000	0.176858
482.000000	0.176777
483.000000	0.177014
484.000000	0.177615
485.000000	0.177869
486.000000	0.177744
487.000000	0.178044
488.000000	0.178345
489.000000	0.178584
490.000000	0.178878
491.000000	0.179098
492.000000	0.179335
493.000000	0.179609
494.000000	0.179748
495.000000	0.179915
496.000000	0.180160
497.000000	0.180252
498.000000	0.180346
499.000000	0.180545
500.000000	0.180780
501.000000	0.181010
502.000000	0.181214
503.000000	0.181328
504.000000	0.181460
505.000000	0.181711
506.000000	0.182093
507.000000	0.182185
508.000000	0.182312
509.000000	0.182629
510.000000	0.182977
511.000000	0.183438
512.000000	0.183912
513.000000	0.184102
514.000000	0.184365
515.000000	0.184729
516.000000	0.185075
517.000000	0.185415
518.000000	0.185713
519.000000	0.185943
520.000000	0.186413
521.000000	0.186866
522.000000	0.187228
523.000000	0.187688
524.000000	0.188113
525.000000	0.188587
526.000000	0.189332
527.000000	0.189916
528.000000	0.190451
529.000000	0.191159
530.000000	0.191808
531.000000	0.192549
532.000000	0.193387
533.000000	0.194161
534.000000	0.194949
535.000000	0.195775
536.000000	0.196645
537.000000	0.197492
538.000000	0.198274
539.000000	0.198966
540.000000	0.199763
541.000000	0.200529
542.000000	0.201160
543.000000	0.201782
544.000000	0.202456
545.000000	0.203145
546.000000	0.203835
547.000000	0.204531
548.000000	0.205267
549.000000	0.206032
550.000000	0.206874
551.000000	0.207773
552.000000	0.208653
553.000000	0.209511
554.000000	0.210423
555.000000	0.211434
556.000000	0.212445
557.000000	0.213508
558.000000	0.214683
559.000000	0.215753
560.000000	0.216748
561.000000	0.217794
562.000000	0.218949
563.000000	0.219925
564.000000	0.220828
565.000000	0.221738
566.000000	0.222681
567.000000	0.223571
568.000000	0.224357
569.000000	0.225146
570.000000	0.225881
571.000000	0.226535
572.000000	0.227124
573.000000	0.227696
574.000000	0.228215
575.000000	0.228665
576.000000	0.229052
577.000000	0.229432
578.000000	0.229873
579.000000	0.230213
580.000000	0.230546
581.000000	0.230879
582.000000	0.231081
583.000000	0.231232
584.000000	0.231359
585.000000	0.231470
586.000000	0.231580
587.000000	0.231665
588.000000	0.231699
589.000000	0.231712
590.000000	0.231691
591.000000	0.231637
592.000000	0.231602
593.000000	0.231564
594.000000	0.231507
595.000000	0.231429
596.000000	0.231326
597.000000	0.231229
598.000000	0.231100
599.000000	0.230935
600.000000	0.230770
601.000000	0.230567
602.000000	0.230303
603.000000	0.230035
604.000000	0.229795
605.000000	0.229546
606.000000	0.229270
607.000000	0.228959
608.000000	0.228614
609.000000	0.228385
610.000000	0.228177
611.000000	0.227868
612.000000	0.227625
613.000000	0.227448
614.000000	0.227324
615.000000	0.227154
616.000000	0.226907
617.000000	0.226630
618.000000	0.226545
619.000000	0.226382
620.000000	0.226147
621.000000	0.225996
622.000000	0.225881
623.000000	0.225704
624.000000	0.225439
625.000000	0.225369
626.000000	0.225333
627.000000	0.225249
628.000000	0.225177
629.000000	0.225117
630.000000	0.225006
631.000000	0.224962
632.000000	0.224956
633.000000	0.224949
634.000000	0.224898
635.000000	0.224815
636.000000	0.224762
637.000000	0.224752
638.000000	0.224751
639.000000	0.224759
640.000000	0.224802
641.000000	0.224805
642.000000	0.224833
643.000000	0.224865
644.000000	0.224874
645.000000	0.225002
646.000000	0.225151
647.000000	0.225235
648.000000	0.225384
649.000000	0.225551
650.000000	0.225703
651.000000	0.225859
652.000000	0.226037
653.000000	0.226274
654.000000	0.226548
655.000000	0.226743
656.000000	0.226957
657.000000	0.227239
658.000000	0.227516
659.000000	0.227787
660.000000	0.228066
661.000000	0.228435
662.000000	0.228778
663.000000	0.229101
664.000000	0.229401
665.000000	0.229819
666.000000	0.230310
667.000000	0.230770
668.000000	0.231234
669.000000	0.231724
670.000000	0.232239
671.000000	0.232706
672.000000	0.233224
673.000000	0.233800
674.000000	0.234385
675.000000	0.234944
676.000000	0.235478
677.000000	0.236019
678.000000	0.236587
679.000000	0.237188
680.000000	0.237825
681.000000	0.238457
682.000000	0.239162
683.000000	0.239882
684.000000	0.240596
685.000000	0.241351
686.000000	0.242122
687.000000	0.242821
688.000000	0.243512
689.000000	0.244225
690.000000	0.245014
691.000000	0.245913
692.000000	0.246791
693.000000	0.247645
694.000000	0.248468
695.000000	0.249310
696.000000	0.250194
697.000000	0.251124
698.000000	0.252008
699.000000	0.252885
700.000000	0.253802
701.000000	0.254718
702.000000	0.255653
703.000000	0.256589
704.000000	0.257491
705.000000	0.258445
706.000000	0.259423
707.000000	0.260430
708.000000	0.261440
709.000000	0.262441
710.000000	0.263461
711.000000	0.264583
712.000000	0.265665
713.000000	0.266686
714.000000	0.267753
715.000000	0.268843
716.000000	0.269932
717.000000	0.270970
718.000000	0.271998
719.000000	0.273029
720.000000	0.274075
721.000000	0.275098
722.000000	0.276080
723.000000	0.277061
724.000000	0.277983
725.000000	0.278927
726.000000	0.279959
727.000000	0.280983
728.000000	0.281975
729.000000	0.282942
730.000000	0.283861
731.000000	0.284809
732.000000	0.285792
733.000000	0.286814
734.000000	0.287770
735.000000	0.288671
736.000000	0.289628
737.000000	0.290541
738.000000	0.291293
739.000000	0.292055
740.000000	0.292806
741.000000	0.293554
742.000000	0.294341
743.000000	0.295125
744.000000	0.295852
745.000000	0.296528
746.000000	0.297198
747.000000	0.297839
748.000000	0.298586
749.000000	0.299329
750.000000	0.299962
751.000000	0.300578
752.000000	0.301200
753.000000	0.301828
754.000000	0.302416
755.000000	0.303032
756.000000	0.303599
757.000000	0.304000
758.000000	0.304501
759.000000	0.304991
760.000000	0.305365
761.000000	0.305845
762.000000	0.306363
763.000000	0.306833
764.000000	0.307228
765.000000	0.307587
766.000000	0.307933
767.000000	0.308262
768.000000	0.308534
769.000000	0.308766
770.000000	0.309013
771.000000	0.309365
772.000000	0.309760
773.000000	0.310027
774.000000	0.310119
775.000000	0.310323
776.000000	0.310617
777.000000	0.310916
778.000000	0.311179
779.000000	0.311464
780.000000	0.311752
781.000000	0.311936
782.000000	0.312040
783.000000	0.312220
784.000000	0.312439
785.000000	0.312569
786.000000	0.312728
787.000000	0.312935
788.000000	0.312992
789.000000	0.313028
790.000000	0.313070
791.000000	0.313152
792.000000	0.313236
793.000000	0.313334
794.000000	0.313462
795.000000	0.313607
796.000000	0.313690
797.000000	0.313706
798.000000	0.313735
799.000000	0.313767
800.000000	0.313798
801.000000	0.313834
802.000000	0.313926
803.000000	0.313976
804.000000	0.313990
805.000000	0.314074
806.000000	0.314112
807.000000	0.314204
808.000000	0.314370
809.000000	0.314322
810.000000	0.314231
811.000000	0.314238
812.000000	0.314251
813.000000	0.314265
814.000000	0.314253
815.000000	0.314188
816.000000	0.314127
817.000000	0.314087
818.000000	0.313994
819.000000	0.313938
820.000000	0.313999
821.000000	0.314094
822.000000	0.314057
823.000000	0.314019
824.000000	0.313953
825.000000	0.313903
826.000000	0.313795
827.000000	0.313682
828.000000	0.313627
829.000000	0.313520
830.000000	0.313413
831.000000	0.313323
832.000000	0.313104
833.000000	0.313064
834.000000	0.313070
835.000000	0.312986
836.000000	0.312718
837.000000	0.312531
838.000000	0.312465
839.000000	0.312341
840.000000	0.312281
841.000000	0.312233
842.000000	0.312103
843.000000	0.312016
844.000000	0.311969
845.000000	0.311901
846.000000	0.311772
847.000000	0.311702
848.000000	0.311610
849.000000	0.311431
850.000000	0.311242
851.000000	0.311055
852.000000	0.310942
853.000000	0.310958
854.000000	0.310844
855.000000	0.310708
856.000000	0.310581
857.000000	0.310515
858.000000	0.310448
859.000000	0.310279
860.000000	0.310102
861.000000	0.309872
862.000000	0.309647
863.000000	0.309449
864.000000	0.309437
865.000000	0.309365
866.000000	0.309137
867.000000	0.308891
868.000000	0.308777
869.000000	0.308677
870.000000	0.308485
871.000000	0.308223
872.000000	0.307983
873.000000	0.307768
874.000000	0.307614
875.000000	0.307453
876.000000	0.307269
877.000000	0.307005
878.000000	0.306693
879.000000	0.306505
880.000000	0.306360
881.000000	0.306171
882.000000	0.305984
883.000000	0.305808
884.000000	0.305569
885.000000	0.305275
886.000000	0.305093
887.000000	0.305068
888.000000	0.304908
889.000000	0.304727
890.000000	0.304462
891.000000	0.304224
892.000000	0.303974
893.000000	0.303751
894.000000	0.303641
895.000000	0.303415
896.000000	0.303116
897.000000	0.302794
898.000000	0.302495
899.000000	0.302184
900.000000	0.301930
901.000000	0.301745
902.000000	0.301689
903.000000	0.301535
904.000000	0.301353
905.000000	0.301157
906.000000	0.300905
907.000000	0.300565
908.000000	0.300270
909.000000	0.300144
910.000000	0.300002
911.000000	0.299795
912.000000	0.299542
913.000000	0.299278
914.000000	0.298984
915.000000	0.298726
916.000000	0.298467
917.000000	0.298131
918.000000	0.297834
919.000000	0.297617
920.000000	0.297305
921.000000	0.297143
922.000000	0.297049
923.000000	0.296777
924.000000	0.296579
925.000000	0.296365
926.000000	0.296113
927.000000	0.295868
928.000000	0.295544
929.000000	0.295201
930.000000	0.294921
931.000000	0.294598
932.000000	0.294223
933.000000	0.293891
934.000000	0.293696
935.000000	0.293647
936.000000	0.293577
937.000000	0.293242
938.000000	0.292701
939.000000	0.292448
940.000000	0.292373
941.000000	0.292165
942.000000	0.291971
943.000000	0.291855
944.000000	0.291685
945.000000	0.291406
946.000000	0.291160
947.000000	0.290974
948.000000	0.290762
949.000000	0.290524
950.000000	0.290227
951.000000	0.289772
952.000000	0.289144
953.000000	0.288863
954.000000	0.288859
955.000000	0.288801
956.000000	0.288264
957.000000	0.287975
958.000000	0.287816
959.000000	0.287514
960.000000	0.287490
961.000000	0.287342
962.000000	0.287000
963.000000	0.286901
964.000000	0.286659
965.000000	0.286369
966.000000	0.286084
967.000000	0.285917
968.000000	0.285811
969.000000	0.285627
970.000000	0.285330
971.000000	0.284877
972.000000	0.284827
973.000000	0.285060
974.000000	0.284794
975.000000	0.284470
976.000000	0.284247
977.000000	0.284086
978.000000	0.283560
979.000000	0.283199
980.000000	0.282982
981.000000	0.283027
982.000000	0.282780
983.000000	0.282391
984.000000	0.282107
985.000000	0.282041
986.000000	0.281900
987.000000	0.281780
988.000000	0.281710
989.000000	0.281841
990.000000	0.281470
991.000000	0.280989
992.000000	0.281019
993.000000	0.280926
994.000000	0.281040
995.000000	0.281291
996.000000	0.280991
997.000000	0.280774
998.000000	0.280413
999.000000	0.280066
1000.000000	0.280325
1001.000000	0.280375
1002.000000	0.280415
1003.000000	0.280013
1004.000000	0.279801
1005.000000	0.279759
1006.000000	0.279151
1007.000000	0.278149
1008.000000	0.277748
1009.000000	0.277319
1010.000000	0.276814
1011.000000	0.276755
1012.000000	0.277368
1013.000000	0.277576
1014.000000	0.277458
1015.000000	0.277633
1016.000000	0.277819
1017.000000	0.277788
1018.000000	0.277631
1019.000000	0.277594
1020.000000	0.277608
1021.000000	0.277445
1022.000000	0.277574
1023.000000	0.277755
1024.000000	0.277948
1025.000000	0.277889
1026.000000	0.277617
1027.000000	0.277067
1028.000000	0.277108
1029.000000	0.277809
1030.000000	0.278424
1031.000000	0.278963
1032.000000	0.278973
1033.000000	0.278344
1034.000000	0.278148
1035.000000	0.277884
1036.000000	0.277853
1037.000000	0.278234
1038.000000	0.278300
1039.000000	0.278382
1040.000000	0.278328
1041.000000	0.278269
1042.000000	0.278263
1043.000000	0.278464
1044.000000	0.278658
1045.000000	0.279222
1046.000000	0.279771
1047.000000	0.280023
1048.000000	0.280180
1049.000000	0.280305
1050.000000	0.280017
1051.000000	0.280065
1052.000000	0.280287
1053.000000	0.280345
1054.000000	0.280622
1055.000000	0.280914
1056.000000	0.281271
1057.000000	0.281499
1058.000000	0.281443
1059.000000	0.281093
1060.000000	0.281035
1061.000000	0.281185
1062.000000	0.281476
1063.000000	0.281971
1064.000000	0.282171
1065.000000	0.281826
1066.000000	0.282065
1067.000000	0.282757
1068.000000	0.282914
1069.000000	0.282941
1070.000000	0.283118
1071.000000	0.283064
1072.000000	0.282958
1073.000000	0.282782
1074.000000	0.283161
1075.000000	0.283461
1076.000000	0.284160
1077.000000	0.284777
1078.000000	0.285140
1079.000000	0.285349
1080.000000	0.284909
1081.000000	0.285020
1082.000000	0.285603
1083.000000	0.285767
1084.000000	0.285735
1085.000000	0.285990
1086.000000	0.286211
1087.000000	0.286507
1088.000000	0.287010
1089.000000	0.287352
1090.000000	0.287608
1091.000000	0.287707
1092.000000	0.287977
1093.000000	0.288290
1094.000000	0.288350
1095.000000	0.288203
1096.000000	0.288181
1097.000000	0.288039
1098.000000	0.288024
1099.000000	0.287822
1100.000000	0.288171
1101.000000	0.288993
1102.000000	0.289301
1103.000000	0.289664
1104.000000	0.290080
1105.000000	0.289930
1106.000000	0.290215
1107.000000	0.291247
1108.000000	0.291686
1109.000000	0.291815
1110.000000	0.292076
1111.000000	0.292358
1112.000000	0.292510
1113.000000	0.292565
1114.000000	0.292663
1115.000000	0.292844
1116.000000	0.292875
1117.000000	0.292943
1118.000000	0.293145
1119.000000	0.293343
1120.000000	0.293453
1121.000000	0.293552
1122.000000	0.293924
1123.000000	0.294283
1124.000000	0.294229
1125.000000	0.294356
1126.000000	0.294511
1127.000000	0.294662
1128.000000	0.294827
1129.000000	0.295029
1130.000000	0.295285
1131.000000	0.295691
1132.000000	0.295807
1133.000000	0.295870
1134.000000	0.295975
1135.000000	0.295883
1136.000000	0.295863
1137.000000	0.295917
1138.000000	0.295933
1139.000000	0.295881
1140.000000	0.296041
1141.000000	0.296359
1142.000000	0.296573
1143.000000	0.296849
1144.000000	0.297067
1145.000000	0.297071
1146.000000	0.296853
1147.000000	0.296877
1148.000000	0.296828
1149.000000	0.296853
1150.000000	0.296996
1151.000000	0.297149
1152.000000	0.297252
1153.000000	0.297361
1154.000000	0.297459
1155.000000	0.297614
1156.000000	0.297838
1157.000000	0.297942
1158.000000	0.298001
1159.000000	0.298070
1160.000000	0.297982
1161.000000	0.297983
1162.000000	0.298128
1163.000000	0.298394
1164.000000	0.298440
1165.000000	0.298352
1166.000000	0.298428
1167.000000	0.298433
1168.000000	0.298478
1169.000000	0.298677
1170.000000	0.298762
1171.000000	0.298821
1172.000000	0.298887
1173.000000	0.298904
1174.000000	0.298946
1175.000000	0.298910
1176.000000	0.298915
1177.000000	0.299144
1178.000000	0.299169
1179.000000	0.299008
1180.000000	0.298938
1181.000000	0.298912
1182.000000	0.298812
1183.000000	0.298915
1184.000000	0.299194
1185.000000	0.299316
1186.000000	0.299389
1187.000000	0.299528
1188.000000	0.299744
1189.000000	0.299700
1190.000000	0.299550
1191.000000	0.299559
1192.000000	0.299507
1193.000000	0.299664
1194.000000	0.300044
1195.000000	0.300211
1196.000000	0.300234
1197.000000	0.300278
1198.000000	0.300181
1199.000000	0.300252
1200.000000	0.300462
1201.000000	0.300611
1202.000000	0.300529
1203.000000	0.300658
1204.000000	0.300511
1205.000000	0.300313
1206.000000	0.300322
1207.000000	0.300632
1208.000000	0.300648
1209.000000	0.300714
1210.000000	0.300716
1211.000000	0.300562
1212.000000	0.300518
1213.000000	0.300488
1214.000000	0.300570
1215.000000	0.300779
1216.000000	0.300851
1217.000000	0.300912
1218.000000	0.300995
1219.000000	0.301083
1220.000000	0.301036
1221.000000	0.301175
1222.000000	0.301252
1223.000000	0.301216
1224.000000	0.301298
1225.000000	0.301284
1226.000000	0.301361
1227.000000	0.301557
1228.000000	0.301611
1229.000000	0.301604
1230.000000	0.301555
1231.000000	0.301468
1232.000000	0.301293
1233.000000	0.301387
1234.000000	0.301699
1235.000000	0.301753
1236.000000	0.301654
1237.000000	0.301732
1238.000000	0.301681
1239.000000	0.301664
1240.000000	0.301770
1241.000000	0.301939
1242.000000	0.301892
1243.000000	0.301850
1244.000000	0.301887
1245.000000	0.301933
1246.000000	0.301938
1247.000000	0.302076
1248.000000	0.302232
1249.000000	0.302406
1250.000000	0.302490
1251.000000	0.302466
1252.000000	0.302505
1253.000000	0.302562
1254.000000	0.302530
1255.000000	0.302450
1256.000000	0.302454
1257.000000	0.302463
1258.000000	0.302443
1259.000000	0.302411
1260.000000	0.302449
1261.000000	0.302396
1262.000000	0.302350
1263.000000	0.302336
1264.000000	0.302439
1265.000000	0.302562
1266.000000	0.302475
1267.000000	0.302380
1268.000000	0.302312
1269.000000	0.302164
1270.000000	0.302289
1271.000000	0.302609
1272.000000	0.302786
1273.000000	0.302828
1274.000000	0.302740
1275.000000	0.302693
1276.000000	0.302542
1277.000000	0.302603
1278.000000	0.302733
1279.000000	0.302752
1280.000000	0.302684
1281.000000	0.302697
1282.000000	0.302719
1283.000000	0.302841
1284.000000	0.303085
1285.000000	0.303186
1286.000000	0.303195
1287.000000	0.303236
1288.000000	0.303297
1289.000000	0.303206
1290.000000	0.303138
1291.000000	0.303159
1292.000000	0.303240
1293.000000	0.303415
1294.000000	0.303510
1295.000000	0.303577
1296.000000	0.303505
1297.000000	0.303347
1298.000000	0.303417
1299.000000	0.303517
1300.000000	0.303622
1301.000000	0.303714
1302.000000	0.303666
1303.000000	0.303513
1304.000000	0.303453
1305.000000	0.303496
1306.000000	0.303474
1307.000000	0.303500
1308.000000	0.303564
1309.000000	0.303631
1310.000000	0.303640
1311.000000	0.303748
1312.000000	0.303651
1313.000000	0.303409
1314.000000	0.303183
1315.000000	0.303024
1316.000000	0.303018
1317.000000	0.302984
1318.000000	0.303021
1319.000000	0.302983
1320.000000	0.302965
1321.000000	0.303045
1322.000000	0.303055
1323.000000	0.303158
1324.000000	0.303202
1325.000000	0.303039
1326.000000	0.302958
1327.000000	0.302904
1328.000000	0.302876
1329.000000	0.302830
1330.000000	0.302869
1331.000000	0.302973
1332.000000	0.303191
1333.000000	0.303225
1334.000000	0.303372
1335.000000	0.303409
1336.000000	0.303181
1337.000000	0.303077
1338.000000	0.302994
1339.000000	0.302863
1340.000000	0.302757
1341.000000	0.302623
1342.000000	0.302559
1343.000000	0.302716
1344.000000	0.302691
1345.000000	0.302650
1346.000000	0.302679
1347.000000	0.302466
1348.000000	0.302342
1349.000000	0.302277
1350.000000	0.302335
1351.000000	0.302284
1352.000000	0.302186
1353.000000	0.302279
1354.000000	0.302298
1355.000000	0.302154
1356.000000	0.302152
1357.000000	0.302027
1358.000000	0.301761
1359.000000	0.301795
1360.000000	0.301854
1361.000000	0.302058
1362.000000	0.302133
1363.000000	0.302315
1364.000000	0.302232
1365.000000	0.301859
1366.000000	0.301756
1367.000000	0.301640
1368.000000	0.301528
1369.000000	0.301770
1370.000000	0.301826
1371.000000	0.301633
1372.000000	0.301533
1373.000000	0.301318
1374.000000	0.301007
1375.000000	0.300847
1376.000000	0.300775
1377.000000	0.300642
1378.000000	0.300569
1379.000000	0.300333
1380.000000	0.300011
1381.000000	0.299926
1382.000000	0.299712
1383.000000	0.299559
1384.000000	0.299404
1385.000000	0.298843
1386.000000	0.298411
1387.000000	0.298095
1388.000000	0.297603
1389.000000	0.297150
1390.000000	0.296707
1391.000000	0.296141
1392.000000	0.295582
1393.000000	0.295026
1394.000000	0.294573
1395.000000	0.294017
1396.000000	0.293367
1397.000000	0.292755
1398.000000	0.292093
1399.000000	0.291413
1400.000000	0.290739
1401.000000	0.290089
1402.000000	0.289480
1403.000000	0.288750
1404.000000	0.288181
1405.000000	0.287514
1406.000000	0.286806
1407.000000	0.286364
1408.000000	0.285913
1409.000000	0.285481
1410.000000	0.285272
1411.000000	0.284986
1412.000000	0.284537
1413.000000	0.284347
1414.000000	0.284236
1415.000000	0.283976
1416.000000	0.283782
1417.000000	0.283663
1418.000000	0.283308
1419.000000	0.282979
1420.000000	0.282883
1421.000000	0.282740
1422.000000	0.282558
1423.000000	0.282512
1424.000000	0.282116
1425.000000	0.281712
1426.000000	0.281475
1427.000000	0.281220
1428.000000	0.281153
1429.000000	0.281157
1430.000000	0.281166
1431.000000	0.281132
1432.000000	0.280991
1433.000000	0.280820
1434.000000	0.280704
1435.000000	0.280521
1436.000000	0.280451
1437.000000	0.280526
1438.000000	0.280487
1439.000000	0.280483
1440.000000	0.280474
1441.000000	0.280357
1442.000000	0.280425
1443.000000	0.280517
1444.000000	0.280671
1445.000000	0.280883
1446.000000	0.281118
1447.000000	0.281319
1448.000000	0.281552
1449.000000	0.281736
1450.000000	0.281992
1451.000000	0.282259
1452.000000	0.282346
1453.000000	0.282538
1454.000000	0.282767
1455.000000	0.282909
1456.000000	0.283110
1457.000000	0.283316
1458.000000	0.283464
1459.000000	0.283539
1460.000000	0.283508
1461.000000	0.283488
1462.000000	0.283505
1463.000000	0.283474
1464.000000	0.283579
1465.000000	0.283795
1466.000000	0.283846
1467.000000	0.283939
1468.000000	0.284191
1469.000000	0.284390
1470.000000	0.284588
1471.000000	0.284907
1472.000000	0.285029
1473.000000	0.285170
1474.000000	0.285326
1475.000000	0.285411
1476.000000	0.285535
1477.000000	0.285703
1478.000000	0.285916
1479.000000	0.286145
1480.000000	0.286350
1481.000000	0.286476
1482.000000	0.286520
1483.000000	0.286675
1484.000000	0.286829
1485.000000	0.287064
1486.000000	0.287414
1487.000000	0.287592
1488.000000	0.287712
1489.000000	0.287913
1490.000000	0.287985
1491.000000	0.288130
1492.000000	0.288314
1493.000000	0.288477
1494.000000	0.288589
1495.000000	0.288684
1496.000000	0.288749
1497.000000	0.288871
1498.000000	0.289033
1499.000000	0.289088
1500.000000	0.289187
1501.000000	0.289234
1502.000000	0.289173
1503.000000	0.289318
1504.000000	0.289530
1505.000000	0.289733
1506.000000	0.290014
1507.000000	0.290110
1508.000000	0.290216
1509.000000	0.290428
1510.000000	0.290488
1511.000000	0.290591
1512.000000	0.290738
1513.000000	0.290856
1514.000000	0.291083
1515.000000	0.291173
1516.000000	0.291138
1517.000000	0.291129
1518.000000	0.291025
1519.000000	0.290935
1520.000000	0.291089
1521.000000	0.291139
1522.000000	0.291224
1523.000000	0.291410
1524.000000	0.291370
1525.000000	0.291382
1526.000000	0.291422
1527.000000	0.291451
1528.000000	0.291556
1529.000000	0.291590
1530.000000	0.291563
1531.000000	0.291634
1532.000000	0.291747
1533.000000	0.291866
1534.000000	0.292028
1535.000000	0.292136
1536.000000	0.292135
1537.000000	0.292221
1538.000000	0.292344
1539.000000	0.292421
1540.000000	0.292492
1541.000000	0.292548
1542.000000	0.292626
1543.000000	0.292681
1544.000000	0.292671
1545.000000	0.292727
1546.000000	0.292769
1547.000000	0.292734
1548.000000	0.292733
1549.000000	0.292719
1550.000000	0.292730
1551.000000	0.292725
1552.000000	0.292662
1553.000000	0.292653
1554.000000	0.292595
1555.000000	0.292601
1556.000000	0.292709
1557.000000	0.292739
1558.000000	0.292800
1559.000000	0.292796
1560.000000	0.292775
1561.000000	0.292798
1562.000000	0.292818
1563.000000	0.292844
1564.000000	0.292891
1565.000000	0.292979
1566.000000	0.292958
1567.000000	0.292981
1568.000000	0.292962
1569.000000	0.292960
1570.000000	0.292914
1571.000000	0.292781
1572.000000	0.292749
1573.000000	0.292727
1574.000000	0.292743
1575.000000	0.292904
1576.000000	0.292956
1577.000000	0.292964
1578.000000	0.292937
1579.000000	0.292831
1580.000000	0.292868
1581.000000	0.293066
1582.000000	0.293125
1583.000000	0.293242
1584.000000	0.293232
1585.000000	0.293086
1586.000000	0.293084
1587.000000	0.293166
1588.000000	0.293175
1589.000000	0.293210
1590.000000	0.293208
1591.000000	0.293155
1592.000000	0.293124
1593.000000	0.293098
1594.000000	0.293132
1595.000000	0.293276
1596.000000	0.293278
1597.000000	0.293279
1598.000000	0.293288
1599.000000	0.293265
1600.000000	0.293183
1601.000000	0.293184
1602.000000	0.293149
1603.000000	0.293006
1604.000000	0.292960
1605.000000	0.293029
1606.000000	0.293041
1607.000000	0.293157
1608.000000	0.293108
1609.000000	0.293000
1610.000000	0.292961
1611.000000	0.292877
1612.000000	0.292775
1613.000000	0.292795
1614.000000	0.292752
1615.000000	0.292665
1616.000000	0.292672
1617.000000	0.292792
1618.000000	0.292795
1619.000000	0.292690
1620.000000	0.292651
1621.000000	0.292560
1622.000000	0.292640
1623.000000	0.292811
1624.000000	0.292955
1625.000000	0.293113
1626.000000	0.293152
1627.000000	0.293129
1628.000000	0.293130
1629.000000	0.293047
1630.000000	0.293062
1631.000000	0.293050
1632.000000	0.293091
1633.000000	0.293281
1634.000000	0.293302
1635.000000	0.293276
1636.000000	0.293249
1637.000000	0.293115
1638.000000	0.293073
1639.000000	0.293167
1640.000000	0.293190
1641.000000	0.293255
1642.000000	0.293328
1643.000000	0.293463
1644.000000	0.293500
1645.000000	0.293490
1646.000000	0.293461
1647.000000	0.293392
1648.000000	0.293338
1649.000000	0.293381
1650.000000	0.293423
1651.000000	0.293445
1652.000000	0.293556
1653.000000	0.293733
1654.000000	0.293865
1655.000000	0.293959
1656.000000	0.293968
1657.000000	0.293975
1658.000000	0.293987
1659.000000	0.294075
1660.000000	0.294184
1661.000000	0.294255
1662.000000	0.294259
1663.000000	0.294175
1664.000000	0.294192
1665.000000	0.294182
1666.000000	0.294338
1667.000000	0.294607
1668.000000	0.294688
1669.000000	0.294705
1670.000000	0.294677
1671.000000	0.294656
1672.000000	0.294672
1673.000000	0.294652
1674.000000	0.294703
1675.000000	0.294685
1676.000000	0.294609
1677.000000	0.294727
1678.000000	0.294731
1679.000000	0.294665
1680.000000	0.294761
1681.000000	0.294771
1682.000000	0.294763
1683.000000	0.294931
1684.000000	0.294838
1685.000000	0.294647
1686.000000	0.294484
1687.000000	0.294245
1688.000000	0.294262
1689.000000	0.294451
1690.000000	0.294397
1691.000000	0.294434
1692.000000	0.294465
1693.000000	0.294323
1694.000000	0.294399
1695.000000	0.294619
1696.000000	0.294669
1697.000000	0.294623
1698.000000	0.294478
1699.000000	0.294450
1700.000000	0.294430
1701.000000	0.294465
1702.000000	0.294428
1703.000000	0.294421
1704.000000	0.294551
1705.000000	0.294553
1706.000000	0.294486
1707.000000	0.294557
1708.000000	0.294625
1709.000000	0.294586
1710.000000	0.294762
1711.000000	0.294819
1712.000000	0.294589
1713.000000	0.294610
1714.000000	0.294882
1715.000000	0.295004
1716.000000	0.295210
1717.000000	0.295312
1718.000000	0.295187
1719.000000	0.295212
1720.000000	0.295363
1721.000000	0.295432
1722.000000	0.295581
1723.000000	0.295573
1724.000000	0.295384
1725.000000	0.295425
1726.000000	0.295473
1727.000000	0.295417
1728.000000	0.295347
1729.000000	0.295268
1730.000000	0.295163
1731.000000	0.295156
1732.000000	0.295379
1733.000000	0.295380
1734.000000	0.295091
1735.000000	0.294994
1736.000000	0.294813
1737.000000	0.294812
1738.000000	0.295018
1739.000000	0.295073
1740.000000	0.295169
1741.000000	0.295068
1742.000000	0.294749
1743.000000	0.294870
1744.000000	0.295108
1745.000000	0.295126
1746.000000	0.295353
1747.000000	0.294840
1748.000000	0.294626
1749.000000	0.294638
1750.000000	0.294624
1751.000000	0.294959
1752.000000	0.295213
1753.000000	0.295312
1754.000000	0.295353
1755.000000	0.295204
1756.000000	0.295156
1757.000000	0.295031
1758.000000	0.295077
1759.000000	0.295354
1760.000000	0.295471
1761.000000	0.295606
1762.000000	0.295607
1763.000000	0.295431
1764.000000	0.295338
1765.000000	0.295169
1766.000000	0.295078
1767.000000	0.294935
1768.000000	0.294859
1769.000000	0.294941
1770.000000	0.295016
1771.000000	0.295159
1772.000000	0.295149
1773.000000	0.294957
1774.000000	0.294939
1775.000000	0.294966
1776.000000	0.295034
1777.000000	0.295253
1778.000000	0.295260
1779.000000	0.295161
1780.000000	0.295053
1781.000000	0.294779
1782.000000	0.294708
1783.000000	0.294737
1784.000000	0.294689
1785.000000	0.294755
1786.000000	0.294620
1787.000000	0.294582
1788.000000	0.294610
1789.000000	0.294545
1790.000000	0.294618
1791.000000	0.294589
1792.000000	0.294623
1793.000000	0.294603
1794.000000	0.294418
1795.000000	0.294461
1796.000000	0.294651
1797.000000	0.294758
1798.000000	0.295022
1799.000000	0.295104
1800.000000	0.295032
1801.000000	0.295445
1802.000000	0.295470
1803.000000	0.294244
1804.000000	0.294600
1805.000000	0.295780
1806.000000	0.296616
1807.000000	0.298462
1808.000000	0.299293
1809.000000	0.299931
1810.000000	0.299462
1811.000000	0.299546
1812.000000	0.299169
1813.000000	0.299285
1814.000000	0.300196
1815.000000	0.300145
1816.000000	0.299486
1817.000000	0.299158
1818.000000	0.298688
1819.000000	0.297911
1820.000000	0.298313
1821.000000	0.298430
1822.000000	0.298356
1823.000000	0.297909
1824.000000	0.297986
1825.000000	0.298211
1826.000000	0.298277
1827.000000	0.298684
1828.000000	0.298663
1829.000000	0.297540
1830.000000	0.297459
1831.000000	0.297128
1832.000000	0.296382
1833.000000	0.296317
1834.000000	0.297134
1835.000000	0.296873
1836.000000	0.296263
1837.000000	0.295954
1838.000000	0.295131
1839.000000	0.294226
1840.000000	0.293774
1841.000000	0.293951
1842.000000	0.294256
1843.000000	0.294985
1844.000000	0.295209
1845.000000	0.295778
1846.000000	0.295740
1847.000000	0.294765
1848.000000	0.294132
1849.000000	0.293571
1850.000000	0.293428
1851.000000	0.293440
1852.000000	0.293692
1853.000000	0.293985
1854.000000	0.294604
1855.000000	0.294502
1856.000000	0.293960
1857.000000	0.293960
1858.000000	0.292920
1859.000000	0.291473
1860.000000	0.290468
1861.000000	0.289112
1862.000000	0.288651
1863.000000	0.289353
1864.000000	0.289187
1865.000000	0.289292
1866.000000	0.288923
1867.000000	0.288047
1868.000000	0.286547
1869.000000	0.285458
1870.000000	0.285421
1871.000000	0.285106
1872.000000	0.284592
1873.000000	0.284113
1874.000000	0.283557
1875.000000	0.282861
1876.000000	0.281914
1877.000000	0.280805
1878.000000	0.279565
1879.000000	0.278246
1880.000000	0.276417
1881.000000	0.274405
1882.000000	0.272666
1883.000000	0.270538
1884.000000	0.268954
1885.000000	0.268041
1886.000000	0.266467
1887.000000	0.264758
1888.000000	0.262886
1889.000000	0.260718
1890.000000	0.258421
1891.000000	0.256352
1892.000000	0.254212
1893.000000	0.251584
1894.000000	0.248774
1895.000000	0.246180
1896.000000	0.243724
1897.000000	0.241165
1898.000000	0.239001
1899.000000	0.237104
1900.000000	0.234984
1901.000000	0.233248
1902.000000	0.231173
1903.000000	0.229313
1904.000000	0.228446
1905.000000	0.227740
1906.000000	0.226879
1907.000000	0.226278
1908.000000	0.226051
1909.000000	0.226115
1910.000000	0.225601
1911.000000	0.225374
1912.000000	0.225688
1913.000000	0.225232
1914.000000	0.225127
1915.000000	0.225135
1916.000000	0.224554
1917.000000	0.224348
1918.000000	0.224179
1919.000000	0.224112
1920.000000	0.224466
1921.000000	0.225420
1922.000000	0.225887
1923.000000	0.226499
1924.000000	0.227045
1925.000000	0.227102
1926.000000	0.227701
1927.000000	0.228118
1928.000000	0.228388
1929.000000	0.228620
1930.000000	0.229016
1931.000000	0.229179
1932.000000	0.229352
1933.000000	0.229147
1934.000000	0.229122
1935.000000	0.228989
1936.000000	0.228864
1937.000000	0.229327
1938.000000	0.229660
1939.000000	0.229882
1940.000000	0.230133
1941.000000	0.230336
1942.000000	0.230428
1943.000000	0.230552
1944.000000	0.230657
1945.000000	0.230840
1946.000000	0.231104
1947.000000	0.231221
1948.000000	0.231296
1949.000000	0.231176
1950.000000	0.230979
1951.000000	0.230964
1952.000000	0.231149
1953.000000	0.231208
1954.000000	0.231449
1955.000000	0.231652
1956.000000	0.231210
1957.000000	0.230873
1958.000000	0.230516
1959.000000	0.230420
1960.000000	0.230537
1961.000000	0.230351
1962.000000	0.230274
1963.000000	0.230360
1964.000000	0.230181
1965.000000	0.230218
1966.000000	0.230394
1967.000000	0.230281
1968.000000	0.230348
1969.000000	0.230092
1970.000000	0.229855
1971.000000	0.229694
1972.000000	0.229582
1973.000000	0.229771
1974.000000	0.230398
1975.000000	0.230906
1976.000000	0.231787
1977.000000	0.232424
1978.000000	0.232696
1979.000000	0.232715
1980.000000	0.232918
1981.000000	0.233101
1982.000000	0.232724
1983.000000	0.232583
1984.000000	0.232746
1985.000000	0.233019
1986.000000	0.233360
1987.000000	0.234157
1988.000000	0.234744
1989.000000	0.235612
1990.000000	0.236304
1991.000000	0.236690
1992.000000	0.237285
1993.000000	0.237211
1994.000000	0.236975
1995.000000	0.237283
1996.000000	0.237461
1997.000000	0.237799
1998.000000	0.238515
1999.000000	0.239028
2000.000000	0.239328
2001.000000	0.240189
2002.000000	0.240799
2003.000000	0.240557
2004.000000	0.240709
2005.000000	0.240654
2006.000000	0.241016
2007.000000	0.241374
2008.000000	0.241686
2009.000000	0.242133
2010.000000	0.242500
2011.000000	0.242636
2012.000000	0.243034
2013.000000	0.243607
2014.000000	0.243522
2015.000000	0.244300
2016.000000	0.244796
2017.000000	0.245416
2018.000000	0.247061
2019.000000	0.247817
2020.000000	0.248307
2021.000000	0.248883
2022.000000	0.249088
2023.000000	0.249329
2024.000000	0.249711
2025.000000	0.250043
2026.000000	0.250115
2027.000000	0.250443
2028.000000	0.250458
2029.000000	0.250580
2030.000000	0.250769
2031.000000	0.250566
2032.000000	0.250983
2033.000000	0.251900
2034.000000	0.252298
2035.000000	0.252792
2036.000000	0.252999
2037.000000	0.252537
2038.000000	0.253000
2039.000000	0.253819
2040.000000	0.255056
2041.000000	0.256647
2042.000000	0.257404
2043.000000	0.257315
2044.000000	0.256891
2045.000000	0.256227
2046.000000	0.255982
2047.000000	0.256011
2048.000000	0.256439
2049.000000	0.256863
2050.000000	0.257216
2051.000000	0.257404
2052.000000	0.257514
2053.000000	0.257571
2054.000000	0.257545
2055.000000	0.257879
2056.000000	0.258925
2057.000000	0.259685
2058.000000	0.260123
2059.000000	0.260456
2060.000000	0.260253
2061.000000	0.258936
2062.000000	0.258718
2063.000000	0.258736
2064.000000	0.258746
2065.000000	0.259224
2066.000000	0.259478
2067.000000	0.259740
2068.000000	0.260607
2069.000000	0.261325
2070.000000	0.262420
2071.000000	0.263317
2072.000000	0.263538
2073.000000	0.263593
2074.000000	0.263643
2075.000000	0.263603
2076.000000	0.263365
2077.000000	0.263288
2078.000000	0.263038
2079.000000	0.263090
2080.000000	0.263359
2081.000000	0.263533
2082.000000	0.263845
2083.000000	0.264301
2084.000000	0.264496
2085.000000	0.265090
2086.000000	0.265427
2087.000000	0.265429
2088.000000	0.265631
2089.000000	0.265553
2090.000000	0.265598
2091.000000	0.266044
2092.000000	0.266082
2093.000000	0.265727
2094.000000	0.265706
2095.000000	0.265718
2096.000000	0.265632
2097.000000	0.265537
2098.000000	0.265404
2099.000000	0.265667
2100.000000	0.265940
2101.000000	0.266543
2102.000000	0.267291
2103.000000	0.266989
2104.000000	0.267242
2105.000000	0.267325
2106.000000	0.266935
2107.000000	0.267166
2108.000000	0.267977
2109.000000	0.268301
2110.000000	0.268511
2111.000000	0.268843
2112.000000	0.269254
2113.000000	0.268687
2114.000000	0.268814
2115.000000	0.269246
2116.000000	0.268829
2117.000000	0.268958
2118.000000	0.268929
2119.000000	0.268111
2120.000000	0.268301
2121.000000	0.268986
2122.000000	0.269594
2123.000000	0.271171
2124.000000	0.271676
2125.000000	0.271667
2126.000000	0.271483
2127.000000	0.270037
2128.000000	0.269862
2129.000000	0.270189
2130.000000	0.270676
2131.000000	0.270851
2132.000000	0.271825
2133.000000	0.272463
2134.000000	0.272231
2135.000000	0.272727
2136.000000	0.273044
2137.000000	0.273223
2138.000000	0.273408
2139.000000	0.273322
2140.000000	0.273073
2141.000000	0.272727
2142.000000	0.271596
2143.000000	0.271070
2144.000000	0.270986
2145.000000	0.270789
2146.000000	0.270988
2147.000000	0.271257
2148.000000	0.271257
2149.000000	0.272155
2150.000000	0.272245
2151.000000	0.272777
2152.000000	0.273756
2153.000000	0.273524
2154.000000	0.273424
2155.000000	0.273595
2156.000000	0.273164
2157.000000	0.271817
2158.000000	0.271295
2159.000000	0.271240
2160.000000	0.270857
2161.000000	0.269742
2162.000000	0.270005
2163.000000	0.271068
2164.000000	0.271671
2165.000000	0.272982
2166.000000	0.274509
2167.000000	0.275090
2168.000000	0.274562
2169.000000	0.274248
2170.000000	0.273166
2171.000000	0.272868
2172.000000	0.272592
2173.000000	0.272459
2174.000000	0.273229
2175.000000	0.273239
2176.000000	0.272571
2177.000000	0.272161
2178.000000	0.271564
2179.000000	0.271388
2180.000000	0.271215
2181.000000	0.271470
2182.000000	0.272114
2183.000000	0.271805
2184.000000	0.271975
2185.000000	0.272777
2186.000000	0.272188
2187.000000	0.272157
2188.000000	0.272668
2189.000000	0.272368
2190.000000	0.272459
2191.000000	0.273185
2192.000000	0.273080
2193.000000	0.272252
2194.000000	0.271265
2195.000000	0.269355
2196.000000	0.268823
2197.000000	0.268557
2198.000000	0.268188
2199.000000	0.269745
2200.000000	0.269569
2201.000000	0.267506
2202.000000	0.266513
2203.000000	0.265300
2204.000000	0.263862
2205.000000	0.263603
2206.000000	0.262478
2207.000000	0.261129
2208.000000	0.262064
2209.000000	0.264502
2210.000000	0.268178
2211.000000	0.271935
2212.000000	0.274620
2213.000000	0.274909
2214.000000	0.272064
2215.000000	0.270548
2216.000000	0.267087
2217.000000	0.266159
2218.000000	0.266657
2219.000000	0.266952
2220.000000	0.268126
2221.000000	0.269089
2222.000000	0.269351
2223.000000	0.270397
2224.000000	0.272338
2225.000000	0.274699
2226.000000	0.274242
2227.000000	0.276231
2228.000000	0.274859
2229.000000	0.271598
2230.000000	0.271643
2231.000000	0.269782
2232.000000	0.267820
2233.000000	0.267740
2234.000000	0.267500
2235.000000	0.268352
2236.000000	0.269674
2237.000000	0.274836
2238.000000	0.274430
2239.000000	0.270279
2240.000000	0.269056
2241.000000	0.265733
2242.000000	0.264999
2243.000000	0.267304
2244.000000	0.268711
2245.000000	0.271326
2246.000000	0.271590
2247.000000	0.270838
2248.000000	0.271130
2249.000000	0.270400
2250.000000	0.269469
2251.000000	0.270586
2252.000000	0.269867
2253.000000	0.268851
2254.000000	0.268905
2255.000000	0.269131
2256.000000	0.270616
2257.000000	0.270556
2258.000000	0.268699
2259.000000	0.268575
2260.000000	0.268049
2261.000000	0.266850
2262.000000	0.265840
2263.000000	0.265755
2264.000000	0.264532
2265.000000	0.264382
2266.000000	0.266046
2267.000000	0.266799
2268.000000	0.267412
2269.000000	0.268000
2270.000000	0.269370
2271.000000	0.268754
2272.000000	0.267287
2273.000000	0.265260
2274.000000	0.261139
2275.000000	0.258666
2276.000000	0.256656
2277.000000	0.253712
2278.000000	0.252609
2279.000000	0.251434
2280.000000	0.249957
2281.000000	0.250713
2282.000000	0.250251
2283.000000	0.250483
2284.000000	0.251850
2285.000000	0.250223
2286.000000	0.249305
2287.000000	0.249795
2288.000000	0.250237
2289.000000	0.250043
2290.000000	0.249138
2291.000000	0.247324
2292.000000	0.244104
2293.000000	0.243032
2294.000000	0.242504
2295.000000	0.242668
2296.000000	0.243498
2297.000000	0.246033
2298.000000	0.246745
2299.000000	0.247810
2300.000000	0.248620
2301.000000	0.247158
2302.000000	0.248095
2303.000000	0.250903
2304.000000	0.251718
2305.000000	0.253209
2306.000000	0.253521
2307.000000	0.251513
2308.000000	0.251814
2309.000000	0.250206
2310.000000	0.251447
2311.000000	0.253510
2312.000000	0.252413
2313.000000	0.253688
2314.000000	0.253393
2315.000000	0.251407
2316.000000	0.251363
2317.000000	0.252396
2318.000000	0.253757
2319.000000	0.255060
2320.000000	0.254916
2321.000000	0.253647
2322.000000	0.250475
2323.000000	0.248767
2324.000000	0.249746
2325.000000	0.248692
2326.000000	0.248960
2327.000000	0.249485
2328.000000	0.249784
2329.000000	0.252256
2330.000000	0.252820
2331.000000	0.252399
2332.000000	0.251626
2333.000000	0.247980
2334.000000	0.243871
2335.000000	0.242049
2336.000000	0.239890
2337.000000	0.238807
2338.000000	0.240403
2339.000000	0.241180
2340.000000	0.241267
2341.000000	0.243014
2342.000000	0.246665
2343.000000	0.249217
2344.000000	0.252842
2345.000000	0.254318
2346.000000	0.254072
2347.000000	0.253361
2348.000000	0.251371
2349.000000	0.249835
2350.000000	0.247251
2351.000000	0.245197
2352.000000	0.245485
2353.000000	0.245750
2354.000000	0.246009
2355.000000	0.246803
2356.000000	0.246131
2357.000000	0.244130
2358.000000	0.242849
2359.000000	0.241611
2360.000000	0.239918
2361.000000	0.237239
2362.000000	0.232418
2363.000000	0.229968
2364.000000	0.230169
2365.000000	0.231516
2366.000000	0.234984
2367.000000	0.239828
2368.000000	0.239956
2369.000000	0.238896
2370.000000	0.241444
2371.000000	0.237846
2372.000000	0.233001
2373.000000	0.229921
2374.000000	0.223021
2375.000000	0.220064
2376.000000	0.223611
2377.000000	0.228899
2378.000000	0.232964
2379.000000	0.235087
2380.000000	0.234620
2381.000000	0.231779
2382.000000	0.226437
2383.000000	0.222167
2384.000000	0.219227
2385.000000	0.215000
2386.000000	0.216793
2387.000000	0.221611
2388.000000	0.222839
2389.000000	0.220459
2390.000000	0.218003
2391.000000	0.217901
2392.000000	0.220296
2393.000000	0.225019
2394.000000	0.229831
2395.000000	0.233516
2396.000000	0.230086
2397.000000	0.224596
2398.000000	0.219366
2399.000000	0.214373
2400.000000	0.210909
2401.000000	0.211103
2402.000000	0.216323
2403.000000	0.217545
2404.000000	0.223582
2405.000000	0.224649
2406.000000	0.220889
2407.000000	0.223839
2408.000000	0.216992
2409.000000	0.214464
2410.000000	0.216760
2411.000000	0.213517
2412.000000	0.214429
2413.000000	0.218691
2414.000000	0.226592
2415.000000	0.228157
2416.000000	0.231985
2417.000000	0.241537
2418.000000	0.242749
2419.000000	0.240001
2420.000000	0.233746
2421.000000	0.225329
2422.000000	0.206801
2423.000000	0.199508
2424.000000	0.208560
2425.000000	0.204883
2426.000000	0.212180
2427.000000	0.223708
2428.000000	0.217945
2429.000000	0.215481
2430.000000	0.210402
2431.000000	0.193611
2432.000000	0.193144
2433.000000	0.202295
2434.000000	0.204110
2435.000000	0.212698
2436.000000	0.225992
2437.000000	0.239730
2438.000000	0.247700
2439.000000	0.252555
2440.000000	0.243674
2441.000000	0.216932
2442.000000	0.206953
2443.000000	0.207518
2444.000000	0.201561
2445.000000	0.204264
2446.000000	0.205110
2447.000000	0.192147
2448.000000	0.190125
2449.000000	0.192614
2450.000000	0.187910
2451.000000	0.203958
2452.000000	0.217133
2453.000000	0.217677
2454.000000	0.228611
2455.000000	0.215069
2456.000000	0.208016
2457.000000	0.215597
2458.000000	0.198015
2459.000000	0.203155
2460.000000	0.202663
2461.000000	0.184809
2462.000000	0.189315
2463.000000	0.187556
2464.000000	0.194014
2465.000000	0.213815
2466.000000	0.219146
2467.000000	0.209770
2468.000000	0.214690
2469.000000	0.212154
2470.000000	0.207117
2471.000000	0.225927
2472.000000	0.210189
2473.000000	0.187134
2474.000000	0.188435
2475.000000	0.191776
2476.000000	0.218474
2477.000000	0.245698
2478.000000	0.258060
2479.000000	0.248064
2480.000000	0.213981
2481.000000	0.198070
2482.000000	0.180972
2483.000000	0.182952
2484.000000	0.185417
2485.000000	0.172639
2486.000000	0.186322
2487.000000	0.163131
2488.000000	0.145024
2489.000000	0.140940
2490.000000	0.111582
2491.000000	0.150645
2492.000000	0.144043
2493.000000	0.088529
2494.000000	0.091164
2495.000000	0.100287
2496.000000	0.113535
2497.000000	0.205923
2498.000000	0.242797
2499.000000	0.235240
2500.000000	0.239729
