# Wavelength	Nau-2_30_FV7_70_00002.asd.rts.txt
350.000000	0.135512
351.000000	0.148658
352.000000	0.160546
353.000000	0.163384
354.000000	0.158894
355.000000	0.155596
356.000000	0.146161
357.000000	0.136524
358.000000	0.141219
359.000000	0.150608
360.000000	0.155335
361.000000	0.148891
362.000000	0.146369
363.000000	0.148054
364.000000	0.150772
365.000000	0.147433
366.000000	0.148739
367.000000	0.153268
368.000000	0.149640
369.000000	0.148041
370.000000	0.149737
371.000000	0.152333
372.000000	0.146827
373.000000	0.141450
374.000000	0.143437
375.000000	0.153088
376.000000	0.157767
377.000000	0.155529
378.000000	0.154075
379.000000	0.152841
380.000000	0.152487
381.000000	0.154126
382.000000	0.157543
383.000000	0.158329
384.000000	0.155739
385.000000	0.159411
386.000000	0.161121
387.000000	0.159471
388.000000	0.159880
389.000000	0.159977
390.000000	0.159748
391.000000	0.159723
392.000000	0.161122
393.000000	0.161206
394.000000	0.159008
395.000000	0.160971
396.000000	0.162447
397.000000	0.161857
398.000000	0.161561
399.000000	0.161665
400.000000	0.162154
401.000000	0.162708
402.000000	0.162055
403.000000	0.161555
404.000000	0.162451
405.000000	0.163200
406.000000	0.164157
407.000000	0.165136
408.000000	0.164695
409.000000	0.163912
410.000000	0.163837
411.000000	0.165512
412.000000	0.165612
413.000000	0.165018
414.000000	0.165340
415.000000	0.166196
416.000000	0.166900
417.000000	0.167083
418.000000	0.166951
419.000000	0.166865
420.000000	0.167218
421.000000	0.168522
422.000000	0.168860
423.000000	0.168388
424.000000	0.168070
425.000000	0.168802
426.000000	0.169625
427.000000	0.169823
428.000000	0.170174
429.000000	0.170529
430.000000	0.170837
431.000000	0.171175
432.000000	0.171310
433.000000	0.171466
434.000000	0.172098
435.000000	0.172228
436.000000	0.171851
437.000000	0.171407
438.000000	0.172557
439.000000	0.173235
440.000000	0.172704
441.000000	0.172708
442.000000	0.173087
443.000000	0.173563
444.000000	0.173787
445.000000	0.173875
446.000000	0.174094
447.000000	0.174554
448.000000	0.174853
449.000000	0.175104
450.000000	0.175463
451.000000	0.176056
452.000000	0.176428
453.000000	0.176515
454.000000	0.176858
455.000000	0.177275
456.000000	0.177626
457.000000	0.177679
458.000000	0.178049
459.000000	0.178422
460.000000	0.178536
461.000000	0.178862
462.000000	0.179134
463.000000	0.179228
464.000000	0.179692
465.000000	0.180402
466.000000	0.181003
467.000000	0.181037
468.000000	0.181144
469.000000	0.181323
470.000000	0.181540
471.000000	0.181790
472.000000	0.182052
473.000000	0.182320
474.000000	0.182538
475.000000	0.182691
476.000000	0.182944
477.000000	0.183449
478.000000	0.183776
479.000000	0.183950
480.000000	0.183961
481.000000	0.184282
482.000000	0.184698
483.000000	0.184847
484.000000	0.185210
485.000000	0.185466
486.000000	0.185612
487.000000	0.185824
488.000000	0.186089
489.000000	0.186363
490.000000	0.186542
491.000000	0.186805
492.000000	0.187076
493.000000	0.187162
494.000000	0.187420
495.000000	0.187680
496.000000	0.187800
497.000000	0.187978
498.000000	0.188206
499.000000	0.188495
500.000000	0.188737
501.000000	0.189007
502.000000	0.189256
503.000000	0.189333
504.000000	0.189465
505.000000	0.189659
506.000000	0.189866
507.000000	0.189987
508.000000	0.190203
509.000000	0.190552
510.000000	0.190875
511.000000	0.191129
512.000000	0.191367
513.000000	0.191690
514.000000	0.192066
515.000000	0.192487
516.000000	0.192888
517.000000	0.193124
518.000000	0.193404
519.000000	0.193802
520.000000	0.194092
521.000000	0.194423
522.000000	0.194840
523.000000	0.195206
524.000000	0.195670
525.000000	0.196151
526.000000	0.196489
527.000000	0.197037
528.000000	0.197658
529.000000	0.198211
530.000000	0.198983
531.000000	0.199775
532.000000	0.200406
533.000000	0.201067
534.000000	0.201870
535.000000	0.202770
536.000000	0.203573
537.000000	0.204324
538.000000	0.205032
539.000000	0.205699
540.000000	0.206427
541.000000	0.207102
542.000000	0.207660
543.000000	0.208238
544.000000	0.208797
545.000000	0.209303
546.000000	0.209941
547.000000	0.210589
548.000000	0.211259
549.000000	0.211977
550.000000	0.212641
551.000000	0.213325
552.000000	0.214099
553.000000	0.214886
554.000000	0.215685
555.000000	0.216517
556.000000	0.217464
557.000000	0.218356
558.000000	0.219253
559.000000	0.220231
560.000000	0.221181
561.000000	0.222142
562.000000	0.223095
563.000000	0.223980
564.000000	0.224821
565.000000	0.225579
566.000000	0.226363
567.000000	0.227174
568.000000	0.227960
569.000000	0.228631
570.000000	0.229255
571.000000	0.229838
572.000000	0.230353
573.000000	0.230870
574.000000	0.231367
575.000000	0.231834
576.000000	0.232259
577.000000	0.232576
578.000000	0.232825
579.000000	0.233204
580.000000	0.233507
581.000000	0.233682
582.000000	0.233940
583.000000	0.234153
584.000000	0.234334
585.000000	0.234563
586.000000	0.234686
587.000000	0.234748
588.000000	0.234839
589.000000	0.234962
590.000000	0.235068
591.000000	0.235123
592.000000	0.235143
593.000000	0.235123
594.000000	0.235077
595.000000	0.235058
596.000000	0.234939
597.000000	0.234806
598.000000	0.234737
599.000000	0.234605
600.000000	0.234461
601.000000	0.234304
602.000000	0.234156
603.000000	0.234032
604.000000	0.233932
605.000000	0.233805
606.000000	0.233615
607.000000	0.233358
608.000000	0.233061
609.000000	0.232835
610.000000	0.232676
611.000000	0.232532
612.000000	0.232338
613.000000	0.232168
614.000000	0.232074
615.000000	0.231898
616.000000	0.231727
617.000000	0.231579
618.000000	0.231496
619.000000	0.231333
620.000000	0.231153
621.000000	0.231130
622.000000	0.231039
623.000000	0.230937
624.000000	0.230872
625.000000	0.230684
626.000000	0.230553
627.000000	0.230537
628.000000	0.230485
629.000000	0.230541
630.000000	0.230572
631.000000	0.230522
632.000000	0.230474
633.000000	0.230430
634.000000	0.230376
635.000000	0.230400
636.000000	0.230427
637.000000	0.230402
638.000000	0.230385
639.000000	0.230335
640.000000	0.230348
641.000000	0.230527
642.000000	0.230540
643.000000	0.230466
644.000000	0.230507
645.000000	0.230592
646.000000	0.230730
647.000000	0.230891
648.000000	0.230970
649.000000	0.231064
650.000000	0.231205
651.000000	0.231396
652.000000	0.231589
653.000000	0.231765
654.000000	0.231867
655.000000	0.232115
656.000000	0.232424
657.000000	0.232650
658.000000	0.232902
659.000000	0.233141
660.000000	0.233367
661.000000	0.233699
662.000000	0.234059
663.000000	0.234407
664.000000	0.234641
665.000000	0.234993
666.000000	0.235388
667.000000	0.235696
668.000000	0.236119
669.000000	0.236552
670.000000	0.236937
671.000000	0.237332
672.000000	0.237790
673.000000	0.238296
674.000000	0.238798
675.000000	0.239271
676.000000	0.239781
677.000000	0.240404
678.000000	0.240913
679.000000	0.241395
680.000000	0.241934
681.000000	0.242503
682.000000	0.243098
683.000000	0.243671
684.000000	0.244306
685.000000	0.244930
686.000000	0.245567
687.000000	0.246222
688.000000	0.246875
689.000000	0.247589
690.000000	0.248397
691.000000	0.249082
692.000000	0.249727
693.000000	0.250434
694.000000	0.251190
695.000000	0.251953
696.000000	0.252720
697.000000	0.253499
698.000000	0.254268
699.000000	0.255063
700.000000	0.255897
701.000000	0.256646
702.000000	0.257435
703.000000	0.258291
704.000000	0.259162
705.000000	0.259991
706.000000	0.260771
707.000000	0.261602
708.000000	0.262393
709.000000	0.263162
710.000000	0.263964
711.000000	0.264836
712.000000	0.265728
713.000000	0.266632
714.000000	0.267549
715.000000	0.268393
716.000000	0.269228
717.000000	0.270153
718.000000	0.271049
719.000000	0.271930
720.000000	0.272818
721.000000	0.273607
722.000000	0.274374
723.000000	0.275184
724.000000	0.275913
725.000000	0.276649
726.000000	0.277463
727.000000	0.278268
728.000000	0.279026
729.000000	0.279814
730.000000	0.280634
731.000000	0.281406
732.000000	0.282145
733.000000	0.282919
734.000000	0.283765
735.000000	0.284525
736.000000	0.285269
737.000000	0.285930
738.000000	0.286559
739.000000	0.287221
740.000000	0.287806
741.000000	0.288416
742.000000	0.289055
743.000000	0.289697
744.000000	0.290369
745.000000	0.291024
746.000000	0.291671
747.000000	0.292250
748.000000	0.292806
749.000000	0.293337
750.000000	0.293826
751.000000	0.294352
752.000000	0.294892
753.000000	0.295437
754.000000	0.295950
755.000000	0.296394
756.000000	0.296782
757.000000	0.297114
758.000000	0.297532
759.000000	0.297992
760.000000	0.298400
761.000000	0.298873
762.000000	0.299233
763.000000	0.299507
764.000000	0.299914
765.000000	0.300222
766.000000	0.300480
767.000000	0.300764
768.000000	0.301028
769.000000	0.301302
770.000000	0.301602
771.000000	0.301908
772.000000	0.302200
773.000000	0.302452
774.000000	0.302757
775.000000	0.302974
776.000000	0.303139
777.000000	0.303287
778.000000	0.303446
779.000000	0.303635
780.000000	0.303843
781.000000	0.304007
782.000000	0.304125
783.000000	0.304301
784.000000	0.304470
785.000000	0.304620
786.000000	0.304771
787.000000	0.304918
788.000000	0.305021
789.000000	0.305095
790.000000	0.305169
791.000000	0.305316
792.000000	0.305455
793.000000	0.305544
794.000000	0.305585
795.000000	0.305674
796.000000	0.305717
797.000000	0.305688
798.000000	0.305646
799.000000	0.305660
800.000000	0.305687
801.000000	0.305671
802.000000	0.305697
803.000000	0.305712
804.000000	0.305732
805.000000	0.305792
806.000000	0.305770
807.000000	0.305742
808.000000	0.305735
809.000000	0.305817
810.000000	0.305864
811.000000	0.305778
812.000000	0.305690
813.000000	0.305683
814.000000	0.305721
815.000000	0.305679
816.000000	0.305631
817.000000	0.305605
818.000000	0.305537
819.000000	0.305474
820.000000	0.305429
821.000000	0.305362
822.000000	0.305298
823.000000	0.305269
824.000000	0.305254
825.000000	0.305325
826.000000	0.305387
827.000000	0.305354
828.000000	0.305249
829.000000	0.305139
830.000000	0.305082
831.000000	0.305042
832.000000	0.304788
833.000000	0.304688
834.000000	0.304709
835.000000	0.304764
836.000000	0.304675
837.000000	0.304549
838.000000	0.304444
839.000000	0.304343
840.000000	0.304271
841.000000	0.304165
842.000000	0.303957
843.000000	0.303831
844.000000	0.303763
845.000000	0.303672
846.000000	0.303493
847.000000	0.303377
848.000000	0.303257
849.000000	0.303084
850.000000	0.302988
851.000000	0.302919
852.000000	0.302885
853.000000	0.302876
854.000000	0.302816
855.000000	0.302802
856.000000	0.302771
857.000000	0.302592
858.000000	0.302507
859.000000	0.302503
860.000000	0.302350
861.000000	0.302192
862.000000	0.302065
863.000000	0.301889
864.000000	0.301673
865.000000	0.301419
866.000000	0.301171
867.000000	0.300981
868.000000	0.300833
869.000000	0.300629
870.000000	0.300366
871.000000	0.300131
872.000000	0.299876
873.000000	0.299597
874.000000	0.299638
875.000000	0.299514
876.000000	0.299278
877.000000	0.299124
878.000000	0.298976
879.000000	0.298834
880.000000	0.298600
881.000000	0.298470
882.000000	0.298308
883.000000	0.298148
884.000000	0.298023
885.000000	0.297953
886.000000	0.297821
887.000000	0.297621
888.000000	0.297502
889.000000	0.297235
890.000000	0.296787
891.000000	0.296429
892.000000	0.296137
893.000000	0.295983
894.000000	0.295991
895.000000	0.295718
896.000000	0.295375
897.000000	0.295134
898.000000	0.295088
899.000000	0.294897
900.000000	0.294544
901.000000	0.294111
902.000000	0.293924
903.000000	0.293647
904.000000	0.293488
905.000000	0.293569
906.000000	0.293498
907.000000	0.293393
908.000000	0.293278
909.000000	0.292895
910.000000	0.292546
911.000000	0.292254
912.000000	0.291985
913.000000	0.291682
914.000000	0.291334
915.000000	0.291038
916.000000	0.290810
917.000000	0.290628
918.000000	0.290408
919.000000	0.290139
920.000000	0.290147
921.000000	0.289900
922.000000	0.289436
923.000000	0.289068
924.000000	0.288904
925.000000	0.288740
926.000000	0.288502
927.000000	0.288291
928.000000	0.288113
929.000000	0.287914
930.000000	0.287640
931.000000	0.287344
932.000000	0.287020
933.000000	0.286682
934.000000	0.286279
935.000000	0.285982
936.000000	0.285740
937.000000	0.285380
938.000000	0.284940
939.000000	0.284726
940.000000	0.284617
941.000000	0.284388
942.000000	0.284013
943.000000	0.283757
944.000000	0.283608
945.000000	0.283401
946.000000	0.283173
947.000000	0.282970
948.000000	0.282759
949.000000	0.282468
950.000000	0.282243
951.000000	0.282045
952.000000	0.281777
953.000000	0.281656
954.000000	0.281427
955.000000	0.280920
956.000000	0.280640
957.000000	0.280572
958.000000	0.280545
959.000000	0.280438
960.000000	0.280209
961.000000	0.279890
962.000000	0.279574
963.000000	0.279453
964.000000	0.279380
965.000000	0.279188
966.000000	0.278723
967.000000	0.278305
968.000000	0.278160
969.000000	0.278070
970.000000	0.277756
971.000000	0.277358
972.000000	0.277119
973.000000	0.276992
974.000000	0.276753
975.000000	0.276494
976.000000	0.276206
977.000000	0.275911
978.000000	0.275802
979.000000	0.275746
980.000000	0.275493
981.000000	0.275240
982.000000	0.275116
983.000000	0.274911
984.000000	0.274629
985.000000	0.274382
986.000000	0.274240
987.000000	0.274174
988.000000	0.274068
989.000000	0.274061
990.000000	0.273803
991.000000	0.273571
992.000000	0.273717
993.000000	0.273567
994.000000	0.273371
995.000000	0.273375
996.000000	0.273387
997.000000	0.273138
998.000000	0.272936
999.000000	0.272948
1000.000000	0.272782
1001.000000	0.272786
1002.000000	0.272963
1003.000000	0.272916
1004.000000	0.272706
1005.000000	0.272678
1006.000000	0.272527
1007.000000	0.272101
1008.000000	0.271590
1009.000000	0.271700
1010.000000	0.271487
1011.000000	0.270654
1012.000000	0.270217
1013.000000	0.269966
1014.000000	0.269834
1015.000000	0.270546
1016.000000	0.271041
1017.000000	0.270640
1018.000000	0.270280
1019.000000	0.270301
1020.000000	0.270746
1021.000000	0.270308
1022.000000	0.269858
1023.000000	0.269825
1024.000000	0.269161
1025.000000	0.268861
1026.000000	0.269674
1027.000000	0.269894
1028.000000	0.269855
1029.000000	0.269574
1030.000000	0.269259
1031.000000	0.269540
1032.000000	0.269638
1033.000000	0.269929
1034.000000	0.270229
1035.000000	0.270647
1036.000000	0.270633
1037.000000	0.270341
1038.000000	0.270303
1039.000000	0.270188
1040.000000	0.270264
1041.000000	0.270368
1042.000000	0.270809
1043.000000	0.270993
1044.000000	0.271080
1045.000000	0.271598
1046.000000	0.271990
1047.000000	0.272223
1048.000000	0.272278
1049.000000	0.272375
1050.000000	0.272450
1051.000000	0.272420
1052.000000	0.272197
1053.000000	0.272195
1054.000000	0.272509
1055.000000	0.272513
1056.000000	0.272409
1057.000000	0.272499
1058.000000	0.272700
1059.000000	0.272358
1060.000000	0.272687
1061.000000	0.273353
1062.000000	0.273354
1063.000000	0.273822
1064.000000	0.274064
1065.000000	0.274040
1066.000000	0.274259
1067.000000	0.274520
1068.000000	0.274781
1069.000000	0.275353
1070.000000	0.275552
1071.000000	0.275449
1072.000000	0.275534
1073.000000	0.275649
1074.000000	0.275669
1075.000000	0.275379
1076.000000	0.275850
1077.000000	0.276088
1078.000000	0.276047
1079.000000	0.276371
1080.000000	0.277233
1081.000000	0.277375
1082.000000	0.277133
1083.000000	0.277464
1084.000000	0.277882
1085.000000	0.278203
1086.000000	0.279035
1087.000000	0.279412
1088.000000	0.279002
1089.000000	0.279071
1090.000000	0.279448
1091.000000	0.279578
1092.000000	0.279425
1093.000000	0.279574
1094.000000	0.279830
1095.000000	0.279851
1096.000000	0.280250
1097.000000	0.281325
1098.000000	0.281696
1099.000000	0.281738
1100.000000	0.281870
1101.000000	0.281578
1102.000000	0.281688
1103.000000	0.282097
1104.000000	0.282342
1105.000000	0.282656
1106.000000	0.282912
1107.000000	0.283038
1108.000000	0.283086
1109.000000	0.283005
1110.000000	0.283110
1111.000000	0.283435
1112.000000	0.283875
1113.000000	0.284208
1114.000000	0.284972
1115.000000	0.285107
1116.000000	0.284612
1117.000000	0.284689
1118.000000	0.284853
1119.000000	0.284902
1120.000000	0.285205
1121.000000	0.285333
1122.000000	0.285112
1123.000000	0.285412
1124.000000	0.285915
1125.000000	0.286247
1126.000000	0.286691
1127.000000	0.286944
1128.000000	0.287061
1129.000000	0.286895
1130.000000	0.287094
1131.000000	0.287397
1132.000000	0.287586
1133.000000	0.288024
1134.000000	0.288165
1135.000000	0.287986
1136.000000	0.287975
1137.000000	0.287829
1138.000000	0.287874
1139.000000	0.288272
1140.000000	0.288453
1141.000000	0.288635
1142.000000	0.288695
1143.000000	0.288341
1144.000000	0.288341
1145.000000	0.288268
1146.000000	0.288246
1147.000000	0.288397
1148.000000	0.288719
1149.000000	0.288856
1150.000000	0.289056
1151.000000	0.289189
1152.000000	0.289138
1153.000000	0.289210
1154.000000	0.289224
1155.000000	0.289363
1156.000000	0.289767
1157.000000	0.289837
1158.000000	0.289682
1159.000000	0.289687
1160.000000	0.289442
1161.000000	0.289394
1162.000000	0.289501
1163.000000	0.290061
1164.000000	0.290292
1165.000000	0.290330
1166.000000	0.290424
1167.000000	0.290393
1168.000000	0.290386
1169.000000	0.290402
1170.000000	0.290441
1171.000000	0.290490
1172.000000	0.290564
1173.000000	0.290626
1174.000000	0.290702
1175.000000	0.290816
1176.000000	0.290825
1177.000000	0.290814
1178.000000	0.290855
1179.000000	0.290899
1180.000000	0.290863
1181.000000	0.290868
1182.000000	0.290942
1183.000000	0.291038
1184.000000	0.290917
1185.000000	0.290979
1186.000000	0.291161
1187.000000	0.291198
1188.000000	0.291235
1189.000000	0.291235
1190.000000	0.291125
1191.000000	0.291147
1192.000000	0.291345
1193.000000	0.291527
1194.000000	0.291679
1195.000000	0.291798
1196.000000	0.291797
1197.000000	0.291860
1198.000000	0.291998
1199.000000	0.292067
1200.000000	0.292167
1201.000000	0.292141
1202.000000	0.292071
1203.000000	0.291975
1204.000000	0.291924
1205.000000	0.292011
1206.000000	0.291987
1207.000000	0.292038
1208.000000	0.292088
1209.000000	0.292208
1210.000000	0.292202
1211.000000	0.292102
1212.000000	0.292186
1213.000000	0.292340
1214.000000	0.292439
1215.000000	0.292713
1216.000000	0.292829
1217.000000	0.292686
1218.000000	0.292635
1219.000000	0.292600
1220.000000	0.292668
1221.000000	0.292815
1222.000000	0.292885
1223.000000	0.292888
1224.000000	0.292969
1225.000000	0.292840
1226.000000	0.292659
1227.000000	0.292686
1228.000000	0.292751
1229.000000	0.292713
1230.000000	0.292668
1231.000000	0.292603
1232.000000	0.292513
1233.000000	0.292607
1234.000000	0.292887
1235.000000	0.292930
1236.000000	0.292889
1237.000000	0.292832
1238.000000	0.292452
1239.000000	0.292355
1240.000000	0.292419
1241.000000	0.292424
1242.000000	0.292564
1243.000000	0.292704
1244.000000	0.292679
1245.000000	0.292609
1246.000000	0.292588
1247.000000	0.292728
1248.000000	0.292889
1249.000000	0.293106
1250.000000	0.293160
1251.000000	0.293063
1252.000000	0.293031
1253.000000	0.292998
1254.000000	0.292913
1255.000000	0.292801
1256.000000	0.292722
1257.000000	0.292594
1258.000000	0.292622
1259.000000	0.292711
1260.000000	0.292804
1261.000000	0.292899
1262.000000	0.292947
1263.000000	0.292985
1264.000000	0.293039
1265.000000	0.293119
1266.000000	0.293301
1267.000000	0.293390
1268.000000	0.293461
1269.000000	0.293506
1270.000000	0.293521
1271.000000	0.293415
1272.000000	0.293374
1273.000000	0.293339
1274.000000	0.293232
1275.000000	0.293256
1276.000000	0.293419
1277.000000	0.293573
1278.000000	0.293804
1279.000000	0.293811
1280.000000	0.293621
1281.000000	0.293557
1282.000000	0.293356
1283.000000	0.293414
1284.000000	0.293747
1285.000000	0.293840
1286.000000	0.293828
1287.000000	0.293935
1288.000000	0.293962
1289.000000	0.293763
1290.000000	0.293706
1291.000000	0.293692
1292.000000	0.293718
1293.000000	0.293892
1294.000000	0.293979
1295.000000	0.293983
1296.000000	0.293949
1297.000000	0.293932
1298.000000	0.293922
1299.000000	0.293900
1300.000000	0.293990
1301.000000	0.294028
1302.000000	0.293968
1303.000000	0.293995
1304.000000	0.294056
1305.000000	0.294140
1306.000000	0.294152
1307.000000	0.294321
1308.000000	0.294405
1309.000000	0.294263
1310.000000	0.294275
1311.000000	0.294388
1312.000000	0.294536
1313.000000	0.294682
1314.000000	0.294731
1315.000000	0.294711
1316.000000	0.294633
1317.000000	0.294473
1318.000000	0.294447
1319.000000	0.294389
1320.000000	0.294337
1321.000000	0.294276
1322.000000	0.294184
1323.000000	0.294239
1324.000000	0.294185
1325.000000	0.294007
1326.000000	0.293975
1327.000000	0.293952
1328.000000	0.293954
1329.000000	0.293856
1330.000000	0.293811
1331.000000	0.293702
1332.000000	0.293413
1333.000000	0.293331
1334.000000	0.293497
1335.000000	0.293535
1336.000000	0.293629
1337.000000	0.293660
1338.000000	0.293566
1339.000000	0.293405
1340.000000	0.293492
1341.000000	0.293463
1342.000000	0.293518
1343.000000	0.293646
1344.000000	0.293633
1345.000000	0.293832
1346.000000	0.294140
1347.000000	0.294107
1348.000000	0.294004
1349.000000	0.293814
1350.000000	0.293614
1351.000000	0.293690
1352.000000	0.293907
1353.000000	0.293977
1354.000000	0.294017
1355.000000	0.293918
1356.000000	0.293826
1357.000000	0.293826
1358.000000	0.293807
1359.000000	0.293812
1360.000000	0.293779
1361.000000	0.293696
1362.000000	0.293649
1363.000000	0.293623
1364.000000	0.293612
1365.000000	0.293667
1366.000000	0.293629
1367.000000	0.293537
1368.000000	0.293342
1369.000000	0.293405
1370.000000	0.293271
1371.000000	0.293113
1372.000000	0.293071
1373.000000	0.292888
1374.000000	0.292919
1375.000000	0.293071
1376.000000	0.293111
1377.000000	0.293061
1378.000000	0.292971
1379.000000	0.292679
1380.000000	0.292391
1381.000000	0.292293
1382.000000	0.292092
1383.000000	0.292072
1384.000000	0.292113
1385.000000	0.291946
1386.000000	0.291763
1387.000000	0.291451
1388.000000	0.291083
1389.000000	0.290781
1390.000000	0.290482
1391.000000	0.290045
1392.000000	0.289690
1393.000000	0.289271
1394.000000	0.288737
1395.000000	0.288266
1396.000000	0.287854
1397.000000	0.287420
1398.000000	0.286948
1399.000000	0.286577
1400.000000	0.286236
1401.000000	0.285772
1402.000000	0.285296
1403.000000	0.284935
1404.000000	0.284512
1405.000000	0.284115
1406.000000	0.283900
1407.000000	0.283624
1408.000000	0.283235
1409.000000	0.283068
1410.000000	0.282957
1411.000000	0.282889
1412.000000	0.282867
1413.000000	0.282862
1414.000000	0.282870
1415.000000	0.282715
1416.000000	0.282613
1417.000000	0.282655
1418.000000	0.282671
1419.000000	0.282753
1420.000000	0.282718
1421.000000	0.282729
1422.000000	0.282783
1423.000000	0.282853
1424.000000	0.282955
1425.000000	0.283087
1426.000000	0.283105
1427.000000	0.283191
1428.000000	0.283286
1429.000000	0.283331
1430.000000	0.283523
1431.000000	0.283621
1432.000000	0.283679
1433.000000	0.283798
1434.000000	0.283869
1435.000000	0.283891
1436.000000	0.283982
1437.000000	0.284095
1438.000000	0.284127
1439.000000	0.284201
1440.000000	0.284282
1441.000000	0.284315
1442.000000	0.284427
1443.000000	0.284537
1444.000000	0.284638
1445.000000	0.284776
1446.000000	0.284973
1447.000000	0.285252
1448.000000	0.285664
1449.000000	0.286028
1450.000000	0.286317
1451.000000	0.286556
1452.000000	0.286603
1453.000000	0.286629
1454.000000	0.286679
1455.000000	0.286738
1456.000000	0.286954
1457.000000	0.287212
1458.000000	0.287463
1459.000000	0.287775
1460.000000	0.287899
1461.000000	0.287930
1462.000000	0.288087
1463.000000	0.288088
1464.000000	0.288084
1465.000000	0.288184
1466.000000	0.288217
1467.000000	0.288331
1468.000000	0.288478
1469.000000	0.288644
1470.000000	0.288749
1471.000000	0.288869
1472.000000	0.288961
1473.000000	0.289056
1474.000000	0.289197
1475.000000	0.289324
1476.000000	0.289480
1477.000000	0.289706
1478.000000	0.289844
1479.000000	0.290020
1480.000000	0.290153
1481.000000	0.290155
1482.000000	0.290063
1483.000000	0.290106
1484.000000	0.290084
1485.000000	0.290114
1486.000000	0.290258
1487.000000	0.290313
1488.000000	0.290288
1489.000000	0.290379
1490.000000	0.290414
1491.000000	0.290499
1492.000000	0.290654
1493.000000	0.290720
1494.000000	0.290672
1495.000000	0.290726
1496.000000	0.290774
1497.000000	0.290789
1498.000000	0.290898
1499.000000	0.290886
1500.000000	0.290835
1501.000000	0.290916
1502.000000	0.290999
1503.000000	0.291137
1504.000000	0.291249
1505.000000	0.291326
1506.000000	0.291319
1507.000000	0.291316
1508.000000	0.291434
1509.000000	0.291466
1510.000000	0.291549
1511.000000	0.291693
1512.000000	0.291787
1513.000000	0.291952
1514.000000	0.292046
1515.000000	0.292107
1516.000000	0.292233
1517.000000	0.292198
1518.000000	0.292265
1519.000000	0.292345
1520.000000	0.292294
1521.000000	0.292221
1522.000000	0.292162
1523.000000	0.292125
1524.000000	0.292080
1525.000000	0.292039
1526.000000	0.291912
1527.000000	0.291782
1528.000000	0.291770
1529.000000	0.291868
1530.000000	0.291867
1531.000000	0.291886
1532.000000	0.292014
1533.000000	0.291972
1534.000000	0.291932
1535.000000	0.292006
1536.000000	0.291938
1537.000000	0.291861
1538.000000	0.291789
1539.000000	0.291731
1540.000000	0.291686
1541.000000	0.291711
1542.000000	0.291880
1543.000000	0.291936
1544.000000	0.291951
1545.000000	0.292029
1546.000000	0.292061
1547.000000	0.292208
1548.000000	0.292369
1549.000000	0.292433
1550.000000	0.292536
1551.000000	0.292670
1552.000000	0.292787
1553.000000	0.292851
1554.000000	0.292902
1555.000000	0.292974
1556.000000	0.293020
1557.000000	0.293141
1558.000000	0.293240
1559.000000	0.293265
1560.000000	0.293271
1561.000000	0.293335
1562.000000	0.293277
1563.000000	0.293116
1564.000000	0.293105
1565.000000	0.293185
1566.000000	0.293054
1567.000000	0.292994
1568.000000	0.292912
1569.000000	0.292673
1570.000000	0.292567
1571.000000	0.292605
1572.000000	0.292558
1573.000000	0.292487
1574.000000	0.292475
1575.000000	0.292499
1576.000000	0.292485
1577.000000	0.292455
1578.000000	0.292403
1579.000000	0.292399
1580.000000	0.292421
1581.000000	0.292536
1582.000000	0.292536
1583.000000	0.292423
1584.000000	0.292381
1585.000000	0.292427
1586.000000	0.292441
1587.000000	0.292536
1588.000000	0.292560
1589.000000	0.292467
1590.000000	0.292461
1591.000000	0.292545
1592.000000	0.292553
1593.000000	0.292535
1594.000000	0.292552
1595.000000	0.292639
1596.000000	0.292657
1597.000000	0.292728
1598.000000	0.292751
1599.000000	0.292698
1600.000000	0.292631
1601.000000	0.292616
1602.000000	0.292623
1603.000000	0.292653
1604.000000	0.292651
1605.000000	0.292695
1606.000000	0.292711
1607.000000	0.292739
1608.000000	0.292741
1609.000000	0.292791
1610.000000	0.292799
1611.000000	0.292820
1612.000000	0.292734
1613.000000	0.292694
1614.000000	0.292604
1615.000000	0.292403
1616.000000	0.292348
1617.000000	0.292331
1618.000000	0.292314
1619.000000	0.292323
1620.000000	0.292320
1621.000000	0.292342
1622.000000	0.292404
1623.000000	0.292492
1624.000000	0.292532
1625.000000	0.292470
1626.000000	0.292378
1627.000000	0.292182
1628.000000	0.292137
1629.000000	0.292163
1630.000000	0.292139
1631.000000	0.292111
1632.000000	0.292054
1633.000000	0.291919
1634.000000	0.291878
1635.000000	0.291941
1636.000000	0.291961
1637.000000	0.292041
1638.000000	0.292007
1639.000000	0.291973
1640.000000	0.291903
1641.000000	0.291768
1642.000000	0.291747
1643.000000	0.291858
1644.000000	0.291840
1645.000000	0.291826
1646.000000	0.291709
1647.000000	0.291458
1648.000000	0.291350
1649.000000	0.291323
1650.000000	0.291374
1651.000000	0.291601
1652.000000	0.291722
1653.000000	0.291814
1654.000000	0.291870
1655.000000	0.291814
1656.000000	0.291774
1657.000000	0.291823
1658.000000	0.291756
1659.000000	0.291715
1660.000000	0.291676
1661.000000	0.291460
1662.000000	0.291398
1663.000000	0.291422
1664.000000	0.291408
1665.000000	0.291410
1666.000000	0.291451
1667.000000	0.291401
1668.000000	0.291416
1669.000000	0.291481
1670.000000	0.291445
1671.000000	0.291527
1672.000000	0.291555
1673.000000	0.291427
1674.000000	0.291504
1675.000000	0.291585
1676.000000	0.291659
1677.000000	0.291684
1678.000000	0.291514
1679.000000	0.291421
1680.000000	0.291365
1681.000000	0.291363
1682.000000	0.291385
1683.000000	0.291319
1684.000000	0.291242
1685.000000	0.291286
1686.000000	0.291360
1687.000000	0.291358
1688.000000	0.291312
1689.000000	0.291265
1690.000000	0.291146
1691.000000	0.291176
1692.000000	0.291066
1693.000000	0.290892
1694.000000	0.290811
1695.000000	0.290703
1696.000000	0.290825
1697.000000	0.290785
1698.000000	0.290714
1699.000000	0.290722
1700.000000	0.290644
1701.000000	0.290706
1702.000000	0.290749
1703.000000	0.290803
1704.000000	0.290996
1705.000000	0.291129
1706.000000	0.291403
1707.000000	0.291466
1708.000000	0.291281
1709.000000	0.291162
1710.000000	0.291041
1711.000000	0.290939
1712.000000	0.290875
1713.000000	0.290881
1714.000000	0.291015
1715.000000	0.291015
1716.000000	0.291071
1717.000000	0.291031
1718.000000	0.290744
1719.000000	0.290583
1720.000000	0.290529
1721.000000	0.290444
1722.000000	0.290313
1723.000000	0.290332
1724.000000	0.290496
1725.000000	0.290570
1726.000000	0.290672
1727.000000	0.290637
1728.000000	0.290405
1729.000000	0.290199
1730.000000	0.290014
1731.000000	0.289949
1732.000000	0.289942
1733.000000	0.289969
1734.000000	0.289994
1735.000000	0.289985
1736.000000	0.289888
1737.000000	0.289879
1738.000000	0.289982
1739.000000	0.289898
1740.000000	0.289688
1741.000000	0.289691
1742.000000	0.289674
1743.000000	0.289774
1744.000000	0.290090
1745.000000	0.290188
1746.000000	0.290205
1747.000000	0.290041
1748.000000	0.289981
1749.000000	0.289937
1750.000000	0.289850
1751.000000	0.289962
1752.000000	0.290132
1753.000000	0.290090
1754.000000	0.290168
1755.000000	0.290463
1756.000000	0.290521
1757.000000	0.290449
1758.000000	0.290429
1759.000000	0.290206
1760.000000	0.290137
1761.000000	0.290189
1762.000000	0.290194
1763.000000	0.290262
1764.000000	0.290282
1765.000000	0.290269
1766.000000	0.290222
1767.000000	0.290009
1768.000000	0.289901
1769.000000	0.289866
1770.000000	0.289921
1771.000000	0.290104
1772.000000	0.290146
1773.000000	0.290107
1774.000000	0.290095
1775.000000	0.290073
1776.000000	0.290064
1777.000000	0.290078
1778.000000	0.290014
1779.000000	0.289876
1780.000000	0.289779
1781.000000	0.289600
1782.000000	0.289557
1783.000000	0.289657
1784.000000	0.289694
1785.000000	0.289556
1786.000000	0.289531
1787.000000	0.289464
1788.000000	0.289208
1789.000000	0.289055
1790.000000	0.288723
1791.000000	0.288480
1792.000000	0.288498
1793.000000	0.288463
1794.000000	0.288382
1795.000000	0.288443
1796.000000	0.288697
1797.000000	0.288762
1798.000000	0.288784
1799.000000	0.288782
1800.000000	0.288482
1801.000000	0.288000
1802.000000	0.288710
1803.000000	0.289338
1804.000000	0.289718
1805.000000	0.291480
1806.000000	0.291537
1807.000000	0.289372
1808.000000	0.288720
1809.000000	0.288001
1810.000000	0.287892
1811.000000	0.288078
1812.000000	0.289574
1813.000000	0.289524
1814.000000	0.288885
1815.000000	0.288764
1816.000000	0.288345
1817.000000	0.287716
1818.000000	0.287355
1819.000000	0.286869
1820.000000	0.286112
1821.000000	0.286273
1822.000000	0.286430
1823.000000	0.287645
1824.000000	0.287811
1825.000000	0.287126
1826.000000	0.287081
1827.000000	0.287047
1828.000000	0.286825
1829.000000	0.286922
1830.000000	0.287754
1831.000000	0.288005
1832.000000	0.287967
1833.000000	0.288257
1834.000000	0.288804
1835.000000	0.288899
1836.000000	0.288818
1837.000000	0.288836
1838.000000	0.288292
1839.000000	0.288249
1840.000000	0.288230
1841.000000	0.287815
1842.000000	0.287724
1843.000000	0.287449
1844.000000	0.287267
1845.000000	0.287481
1846.000000	0.287374
1847.000000	0.286683
1848.000000	0.286382
1849.000000	0.286479
1850.000000	0.286684
1851.000000	0.286778
1852.000000	0.287179
1853.000000	0.287533
1854.000000	0.287656
1855.000000	0.287445
1856.000000	0.287454
1857.000000	0.286547
1858.000000	0.285387
1859.000000	0.284979
1860.000000	0.285224
1861.000000	0.285893
1862.000000	0.285782
1863.000000	0.285625
1864.000000	0.285469
1865.000000	0.284698
1866.000000	0.284288
1867.000000	0.284272
1868.000000	0.283981
1869.000000	0.283464
1870.000000	0.282679
1871.000000	0.282559
1872.000000	0.282611
1873.000000	0.282655
1874.000000	0.283402
1875.000000	0.283505
1876.000000	0.283198
1877.000000	0.282235
1878.000000	0.281517
1879.000000	0.279853
1880.000000	0.278917
1881.000000	0.278580
1882.000000	0.277557
1883.000000	0.276935
1884.000000	0.276073
1885.000000	0.274616
1886.000000	0.273164
1887.000000	0.271657
1888.000000	0.270215
1889.000000	0.268598
1890.000000	0.266841
1891.000000	0.265705
1892.000000	0.264356
1893.000000	0.262266
1894.000000	0.260515
1895.000000	0.258572
1896.000000	0.256461
1897.000000	0.254324
1898.000000	0.252406
1899.000000	0.250916
1900.000000	0.250227
1901.000000	0.249040
1902.000000	0.248896
1903.000000	0.249358
1904.000000	0.248723
1905.000000	0.248576
1906.000000	0.248489
1907.000000	0.248279
1908.000000	0.248052
1909.000000	0.248673
1910.000000	0.249492
1911.000000	0.250278
1912.000000	0.250892
1913.000000	0.251542
1914.000000	0.251961
1915.000000	0.252077
1916.000000	0.252918
1917.000000	0.253832
1918.000000	0.255009
1919.000000	0.256400
1920.000000	0.258037
1921.000000	0.258592
1922.000000	0.258934
1923.000000	0.259259
1924.000000	0.259306
1925.000000	0.259952
1926.000000	0.260343
1927.000000	0.260385
1928.000000	0.260222
1929.000000	0.259746
1930.000000	0.259375
1931.000000	0.259524
1932.000000	0.259455
1933.000000	0.259673
1934.000000	0.260037
1935.000000	0.260420
1936.000000	0.261280
1937.000000	0.262269
1938.000000	0.263003
1939.000000	0.263345
1940.000000	0.263175
1941.000000	0.262664
1942.000000	0.262677
1943.000000	0.262732
1944.000000	0.262496
1945.000000	0.262977
1946.000000	0.263516
1947.000000	0.263631
1948.000000	0.264011
1949.000000	0.263837
1950.000000	0.263580
1951.000000	0.263487
1952.000000	0.263469
1953.000000	0.263482
1954.000000	0.264184
1955.000000	0.264487
1956.000000	0.264771
1957.000000	0.265066
1958.000000	0.265200
1959.000000	0.265576
1960.000000	0.265205
1961.000000	0.264703
1962.000000	0.264404
1963.000000	0.263941
1964.000000	0.263493
1965.000000	0.263686
1966.000000	0.264256
1967.000000	0.264617
1968.000000	0.264529
1969.000000	0.264444
1970.000000	0.264532
1971.000000	0.264935
1972.000000	0.265886
1973.000000	0.266516
1974.000000	0.267746
1975.000000	0.268146
1976.000000	0.268047
1977.000000	0.267822
1978.000000	0.267744
1979.000000	0.267884
1980.000000	0.268400
1981.000000	0.268521
1982.000000	0.268173
1983.000000	0.268106
1984.000000	0.267903
1985.000000	0.267609
1986.000000	0.267388
1987.000000	0.267223
1988.000000	0.267050
1989.000000	0.267445
1990.000000	0.267796
1991.000000	0.268461
1992.000000	0.269291
1993.000000	0.269216
1994.000000	0.269066
1995.000000	0.269122
1996.000000	0.269088
1997.000000	0.269157
1998.000000	0.269375
1999.000000	0.269776
2000.000000	0.270537
2001.000000	0.270742
2002.000000	0.270667
2003.000000	0.271204
2004.000000	0.271127
2005.000000	0.270974
2006.000000	0.271668
2007.000000	0.271736
2008.000000	0.271830
2009.000000	0.272074
2010.000000	0.272053
2011.000000	0.271455
2012.000000	0.271268
2013.000000	0.271041
2014.000000	0.270585
2015.000000	0.271134
2016.000000	0.271635
2017.000000	0.272460
2018.000000	0.273397
2019.000000	0.273150
2020.000000	0.273038
2021.000000	0.273103
2022.000000	0.272854
2023.000000	0.272866
2024.000000	0.273418
2025.000000	0.273554
2026.000000	0.273307
2027.000000	0.273097
2028.000000	0.273225
2029.000000	0.273548
2030.000000	0.274021
2031.000000	0.274433
2032.000000	0.274247
2033.000000	0.274078
2034.000000	0.274181
2035.000000	0.274217
2036.000000	0.274594
2037.000000	0.275919
2038.000000	0.276452
2039.000000	0.276767
2040.000000	0.277347
2041.000000	0.277690
2042.000000	0.277274
2043.000000	0.277271
2044.000000	0.276849
2045.000000	0.275460
2046.000000	0.275274
2047.000000	0.275270
2048.000000	0.275390
2049.000000	0.275915
2050.000000	0.277129
2051.000000	0.277413
2052.000000	0.277273
2053.000000	0.277219
2054.000000	0.277035
2055.000000	0.276931
2056.000000	0.277144
2057.000000	0.277521
2058.000000	0.277579
2059.000000	0.277406
2060.000000	0.277081
2061.000000	0.276280
2062.000000	0.275936
2063.000000	0.275885
2064.000000	0.275445
2065.000000	0.275178
2066.000000	0.274763
2067.000000	0.274234
2068.000000	0.273875
2069.000000	0.273478
2070.000000	0.274028
2071.000000	0.275272
2072.000000	0.275908
2073.000000	0.276692
2074.000000	0.277267
2075.000000	0.277365
2076.000000	0.276517
2077.000000	0.276379
2078.000000	0.276123
2079.000000	0.276140
2080.000000	0.276637
2081.000000	0.276974
2082.000000	0.277274
2083.000000	0.277973
2084.000000	0.278567
2085.000000	0.278415
2086.000000	0.278171
2087.000000	0.277740
2088.000000	0.277087
2089.000000	0.276684
2090.000000	0.276669
2091.000000	0.277180
2092.000000	0.277468
2093.000000	0.278450
2094.000000	0.278508
2095.000000	0.277844
2096.000000	0.277506
2097.000000	0.276599
2098.000000	0.276053
2099.000000	0.276261
2100.000000	0.276761
2101.000000	0.277461
2102.000000	0.277457
2103.000000	0.276610
2104.000000	0.275941
2105.000000	0.275775
2106.000000	0.275772
2107.000000	0.275764
2108.000000	0.276411
2109.000000	0.276603
2110.000000	0.275937
2111.000000	0.275748
2112.000000	0.275648
2113.000000	0.275642
2114.000000	0.275651
2115.000000	0.276375
2116.000000	0.276583
2117.000000	0.276349
2118.000000	0.275984
2119.000000	0.275801
2120.000000	0.275855
2121.000000	0.276180
2122.000000	0.276343
2123.000000	0.276641
2124.000000	0.276641
2125.000000	0.276545
2126.000000	0.276543
2127.000000	0.276354
2128.000000	0.276629
2129.000000	0.277255
2130.000000	0.277529
2131.000000	0.277754
2132.000000	0.277393
2133.000000	0.277003
2134.000000	0.276286
2135.000000	0.276120
2136.000000	0.276738
2137.000000	0.276746
2138.000000	0.277040
2139.000000	0.276902
2140.000000	0.275892
2141.000000	0.275494
2142.000000	0.275003
2143.000000	0.274748
2144.000000	0.275126
2145.000000	0.275474
2146.000000	0.275980
2147.000000	0.277192
2148.000000	0.277216
2149.000000	0.277886
2150.000000	0.278085
2151.000000	0.277610
2152.000000	0.278032
2153.000000	0.278153
2154.000000	0.277936
2155.000000	0.277533
2156.000000	0.277170
2157.000000	0.276161
2158.000000	0.276008
2159.000000	0.276691
2160.000000	0.277016
2161.000000	0.277448
2162.000000	0.277800
2163.000000	0.277995
2164.000000	0.278012
2165.000000	0.277840
2166.000000	0.277835
2167.000000	0.278472
2168.000000	0.278112
2169.000000	0.277272
2170.000000	0.277597
2171.000000	0.277323
2172.000000	0.276405
2173.000000	0.276024
2174.000000	0.275708
2175.000000	0.275665
2176.000000	0.275767
2177.000000	0.276121
2178.000000	0.277165
2179.000000	0.278100
2180.000000	0.279102
2181.000000	0.280199
2182.000000	0.281346
2183.000000	0.281692
2184.000000	0.281665
2185.000000	0.280776
2186.000000	0.278818
2187.000000	0.278143
2188.000000	0.277751
2189.000000	0.276965
2190.000000	0.276879
2191.000000	0.276583
2192.000000	0.276516
2193.000000	0.276738
2194.000000	0.276406
2195.000000	0.275596
2196.000000	0.275905
2197.000000	0.276864
2198.000000	0.277050
2199.000000	0.278401
2200.000000	0.278393
2201.000000	0.276042
2202.000000	0.274899
2203.000000	0.273614
2204.000000	0.272631
2205.000000	0.272582
2206.000000	0.272239
2207.000000	0.271274
2208.000000	0.272814
2209.000000	0.275395
2210.000000	0.275791
2211.000000	0.277602
2212.000000	0.278508
2213.000000	0.278760
2214.000000	0.278680
2215.000000	0.277231
2216.000000	0.273964
2217.000000	0.272767
2218.000000	0.269326
2219.000000	0.269210
2220.000000	0.273375
2221.000000	0.275087
2222.000000	0.277850
2223.000000	0.279311
2224.000000	0.280418
2225.000000	0.278423
2226.000000	0.277257
2227.000000	0.277124
2228.000000	0.276242
2229.000000	0.273595
2230.000000	0.271717
2231.000000	0.270165
2232.000000	0.268113
2233.000000	0.269047
2234.000000	0.270178
2235.000000	0.270804
2236.000000	0.270580
2237.000000	0.269808
2238.000000	0.269575
2239.000000	0.267903
2240.000000	0.267361
2241.000000	0.268668
2242.000000	0.269286
2243.000000	0.269942
2244.000000	0.270361
2245.000000	0.270519
2246.000000	0.270520
2247.000000	0.270047
2248.000000	0.269570
2249.000000	0.269923
2250.000000	0.268693
2251.000000	0.265453
2252.000000	0.265247
2253.000000	0.264124
2254.000000	0.263474
2255.000000	0.266376
2256.000000	0.267496
2257.000000	0.269584
2258.000000	0.272880
2259.000000	0.274038
2260.000000	0.274396
2261.000000	0.272898
2262.000000	0.268096
2263.000000	0.267303
2264.000000	0.266391
2265.000000	0.266876
2266.000000	0.271632
2267.000000	0.272211
2268.000000	0.270733
2269.000000	0.269935
2270.000000	0.268019
2271.000000	0.267002
2272.000000	0.266251
2273.000000	0.265940
2274.000000	0.265692
2275.000000	0.265220
2276.000000	0.265464
2277.000000	0.264826
2278.000000	0.263596
2279.000000	0.263484
2280.000000	0.262670
2281.000000	0.262807
2282.000000	0.262532
2283.000000	0.262093
2284.000000	0.258990
2285.000000	0.255205
2286.000000	0.252482
2287.000000	0.248409
2288.000000	0.248789
2289.000000	0.249280
2290.000000	0.249859
2291.000000	0.253216
2292.000000	0.253754
2293.000000	0.253687
2294.000000	0.253470
2295.000000	0.252071
2296.000000	0.250811
2297.000000	0.248602
2298.000000	0.249446
2299.000000	0.251250
2300.000000	0.252924
2301.000000	0.257972
2302.000000	0.259414
2303.000000	0.258782
2304.000000	0.258358
2305.000000	0.255548
2306.000000	0.255185
2307.000000	0.255133
2308.000000	0.256863
2309.000000	0.259909
2310.000000	0.260919
2311.000000	0.259943
2312.000000	0.258239
2313.000000	0.256188
2314.000000	0.256211
2315.000000	0.257858
2316.000000	0.258823
2317.000000	0.259845
2318.000000	0.261307
2319.000000	0.262459
2320.000000	0.263355
2321.000000	0.265333
2322.000000	0.265875
2323.000000	0.263176
2324.000000	0.261654
2325.000000	0.260089
2326.000000	0.256843
2327.000000	0.255980
2328.000000	0.256894
2329.000000	0.257140
2330.000000	0.258901
2331.000000	0.261773
2332.000000	0.264180
2333.000000	0.266325
2334.000000	0.267532
2335.000000	0.268794
2336.000000	0.269618
2337.000000	0.268763
2338.000000	0.265999
2339.000000	0.264560
2340.000000	0.262301
2341.000000	0.260827
2342.000000	0.260499
2343.000000	0.261100
2344.000000	0.262861
2345.000000	0.263087
2346.000000	0.262463
2347.000000	0.262927
2348.000000	0.264062
2349.000000	0.262120
2350.000000	0.260088
2351.000000	0.263753
2352.000000	0.265619
2353.000000	0.264955
2354.000000	0.266665
2355.000000	0.268256
2356.000000	0.267213
2357.000000	0.266754
2358.000000	0.265204
2359.000000	0.260129
2360.000000	0.256815
2361.000000	0.255187
2362.000000	0.253976
2363.000000	0.254458
2364.000000	0.252324
2365.000000	0.250386
2366.000000	0.252111
2367.000000	0.257403
2368.000000	0.263637
2369.000000	0.267124
2370.000000	0.269646
2371.000000	0.269953
2372.000000	0.267651
2373.000000	0.264673
2374.000000	0.259006
2375.000000	0.254798
2376.000000	0.254461
2377.000000	0.257359
2378.000000	0.262041
2379.000000	0.262805
2380.000000	0.260072
2381.000000	0.252905
2382.000000	0.245854
2383.000000	0.243667
2384.000000	0.241813
2385.000000	0.243947
2386.000000	0.248435
2387.000000	0.251186
2388.000000	0.255365
2389.000000	0.255873
2390.000000	0.252793
2391.000000	0.249430
2392.000000	0.244675
2393.000000	0.242483
2394.000000	0.243845
2395.000000	0.249051
2396.000000	0.255861
2397.000000	0.256805
2398.000000	0.254549
2399.000000	0.249280
2400.000000	0.241709
2401.000000	0.241757
2402.000000	0.246856
2403.000000	0.250963
2404.000000	0.244959
2405.000000	0.233769
2406.000000	0.230255
2407.000000	0.230465
2408.000000	0.237832
2409.000000	0.246309
2410.000000	0.244654
2411.000000	0.235666
2412.000000	0.228815
2413.000000	0.231681
2414.000000	0.238381
2415.000000	0.243550
2416.000000	0.251205
2417.000000	0.254229
2418.000000	0.249428
2419.000000	0.247624
2420.000000	0.243653
2421.000000	0.236109
2422.000000	0.233945
2423.000000	0.236285
2424.000000	0.239052
2425.000000	0.236981
2426.000000	0.236380
2427.000000	0.238324
2428.000000	0.234471
2429.000000	0.240302
2430.000000	0.239359
2431.000000	0.226766
2432.000000	0.229322
2433.000000	0.228967
2434.000000	0.234928
2435.000000	0.243748
2436.000000	0.234224
2437.000000	0.230561
2438.000000	0.225029
2439.000000	0.223928
2440.000000	0.232424
2441.000000	0.236741
2442.000000	0.252045
2443.000000	0.259052
2444.000000	0.265317
2445.000000	0.274452
2446.000000	0.267954
2447.000000	0.275472
2448.000000	0.275232
2449.000000	0.263307
2450.000000	0.256449
2451.000000	0.250347
2452.000000	0.252290
2453.000000	0.256003
2454.000000	0.263027
2455.000000	0.249489
2456.000000	0.233782
2457.000000	0.233640
2458.000000	0.228308
2459.000000	0.227505
2460.000000	0.229829
2461.000000	0.228020
2462.000000	0.229468
2463.000000	0.250957
2464.000000	0.260578
2465.000000	0.254017
2466.000000	0.262393
2467.000000	0.258262
2468.000000	0.249299
2469.000000	0.254588
2470.000000	0.256926
2471.000000	0.261957
2472.000000	0.282356
2473.000000	0.295170
2474.000000	0.297748
2475.000000	0.314943
2476.000000	0.322078
2477.000000	0.327338
2478.000000	0.338259
2479.000000	0.302906
2480.000000	0.265809
2481.000000	0.236522
2482.000000	0.193427
2483.000000	0.152181
2484.000000	0.117952
2485.000000	0.131478
2486.000000	0.167044
2487.000000	0.228159
2488.000000	0.306381
2489.000000	0.327421
2490.000000	0.338784
2491.000000	0.380091
2492.000000	0.374459
2493.000000	0.324524
2494.000000	0.308540
2495.000000	0.281309
2496.000000	0.249145
2497.000000	0.206946
2498.000000	0.206729
2499.000000	0.251470
2500.000000	0.248880
