# Wavelength	NAu-1-10_HEX-20_FV7-70_00000.asd.rts.txt
350.000000	0.205350
351.000000	0.207148
352.000000	0.189938
353.000000	0.187061
354.000000	0.206643
355.000000	0.202202
356.000000	0.199197
357.000000	0.202266
358.000000	0.199103
359.000000	0.189067
360.000000	0.179783
361.000000	0.178980
362.000000	0.181319
363.000000	0.183700
364.000000	0.184291
365.000000	0.185327
366.000000	0.183566
367.000000	0.180273
368.000000	0.181093
369.000000	0.186217
370.000000	0.190654
371.000000	0.189020
372.000000	0.187061
373.000000	0.188359
374.000000	0.193281
375.000000	0.194145
376.000000	0.192162
377.000000	0.189909
378.000000	0.191867
379.000000	0.197424
380.000000	0.201199
381.000000	0.198168
382.000000	0.193741
383.000000	0.191583
384.000000	0.193488
385.000000	0.197716
386.000000	0.199185
387.000000	0.198192
388.000000	0.200552
389.000000	0.201173
390.000000	0.200844
391.000000	0.201832
392.000000	0.202594
393.000000	0.202909
394.000000	0.202808
395.000000	0.202050
396.000000	0.203841
397.000000	0.207338
398.000000	0.206139
399.000000	0.205736
400.000000	0.206316
401.000000	0.205986
402.000000	0.206300
403.000000	0.207376
404.000000	0.208946
405.000000	0.209778
406.000000	0.209574
407.000000	0.209014
408.000000	0.210435
409.000000	0.211223
410.000000	0.211273
411.000000	0.211804
412.000000	0.212574
413.000000	0.213110
414.000000	0.213114
415.000000	0.213547
416.000000	0.213922
417.000000	0.214042
418.000000	0.214603
419.000000	0.214924
420.000000	0.215108
421.000000	0.215925
422.000000	0.216572
423.000000	0.216741
424.000000	0.216476
425.000000	0.216672
426.000000	0.217243
427.000000	0.217852
428.000000	0.217890
429.000000	0.217851
430.000000	0.218005
431.000000	0.218364
432.000000	0.218679
433.000000	0.218777
434.000000	0.218662
435.000000	0.219123
436.000000	0.219475
437.000000	0.219107
438.000000	0.219261
439.000000	0.219255
440.000000	0.219053
441.000000	0.219916
442.000000	0.219900
443.000000	0.219238
444.000000	0.219857
445.000000	0.219960
446.000000	0.219896
447.000000	0.220319
448.000000	0.220872
449.000000	0.221371
450.000000	0.221755
451.000000	0.222146
452.000000	0.222907
453.000000	0.223843
454.000000	0.224281
455.000000	0.224862
456.000000	0.225536
457.000000	0.225893
458.000000	0.226998
459.000000	0.227927
460.000000	0.227984
461.000000	0.228542
462.000000	0.229230
463.000000	0.229663
464.000000	0.229976
465.000000	0.230292
466.000000	0.230713
467.000000	0.231441
468.000000	0.231743
469.000000	0.231826
470.000000	0.232220
471.000000	0.232485
472.000000	0.232684
473.000000	0.232931
474.000000	0.233218
475.000000	0.233641
476.000000	0.234166
477.000000	0.234238
478.000000	0.234602
479.000000	0.235155
480.000000	0.235185
481.000000	0.235355
482.000000	0.235737
483.000000	0.236065
484.000000	0.236261
485.000000	0.236553
486.000000	0.237097
487.000000	0.237375
488.000000	0.237487
489.000000	0.237624
490.000000	0.238055
491.000000	0.238275
492.000000	0.238512
493.000000	0.238993
494.000000	0.239406
495.000000	0.239720
496.000000	0.239946
497.000000	0.240280
498.000000	0.240637
499.000000	0.241012
500.000000	0.241302
501.000000	0.241686
502.000000	0.242114
503.000000	0.242365
504.000000	0.242744
505.000000	0.243178
506.000000	0.243551
507.000000	0.243870
508.000000	0.244210
509.000000	0.244571
510.000000	0.244933
511.000000	0.245210
512.000000	0.245488
513.000000	0.245949
514.000000	0.246444
515.000000	0.246854
516.000000	0.247054
517.000000	0.247383
518.000000	0.247843
519.000000	0.248293
520.000000	0.248682
521.000000	0.249012
522.000000	0.249316
523.000000	0.249652
524.000000	0.250056
525.000000	0.250476
526.000000	0.250847
527.000000	0.251170
528.000000	0.251497
529.000000	0.251924
530.000000	0.252424
531.000000	0.252891
532.000000	0.253220
533.000000	0.253623
534.000000	0.254128
535.000000	0.254666
536.000000	0.255092
537.000000	0.255454
538.000000	0.255808
539.000000	0.256202
540.000000	0.256557
541.000000	0.256926
542.000000	0.257374
543.000000	0.257718
544.000000	0.258108
545.000000	0.258541
546.000000	0.258946
547.000000	0.259365
548.000000	0.259822
549.000000	0.260239
550.000000	0.260661
551.000000	0.261098
552.000000	0.261504
553.000000	0.261905
554.000000	0.262349
555.000000	0.262850
556.000000	0.263305
557.000000	0.263645
558.000000	0.264011
559.000000	0.264486
560.000000	0.264885
561.000000	0.265275
562.000000	0.265695
563.000000	0.266051
564.000000	0.266431
565.000000	0.266822
566.000000	0.267164
567.000000	0.267576
568.000000	0.268073
569.000000	0.268507
570.000000	0.268836
571.000000	0.269098
572.000000	0.269436
573.000000	0.269775
574.000000	0.270111
575.000000	0.270500
576.000000	0.270859
577.000000	0.271171
578.000000	0.271496
579.000000	0.271792
580.000000	0.272168
581.000000	0.272599
582.000000	0.272813
583.000000	0.273154
584.000000	0.273575
585.000000	0.273818
586.000000	0.274062
587.000000	0.274320
588.000000	0.274576
589.000000	0.274847
590.000000	0.275090
591.000000	0.275291
592.000000	0.275494
593.000000	0.275774
594.000000	0.276101
595.000000	0.276335
596.000000	0.276559
597.000000	0.276801
598.000000	0.276981
599.000000	0.277066
600.000000	0.277185
601.000000	0.277375
602.000000	0.277637
603.000000	0.277834
604.000000	0.277954
605.000000	0.278197
606.000000	0.278286
607.000000	0.278299
608.000000	0.278543
609.000000	0.278851
610.000000	0.279045
611.000000	0.279030
612.000000	0.279273
613.000000	0.279527
614.000000	0.279636
615.000000	0.279677
616.000000	0.279762
617.000000	0.279893
618.000000	0.280064
619.000000	0.280215
620.000000	0.280306
621.000000	0.280375
622.000000	0.280483
623.000000	0.280582
624.000000	0.280637
625.000000	0.280733
626.000000	0.280845
627.000000	0.280959
628.000000	0.281065
629.000000	0.281250
630.000000	0.281407
631.000000	0.281591
632.000000	0.281755
633.000000	0.281917
634.000000	0.282094
635.000000	0.282317
636.000000	0.282549
637.000000	0.282742
638.000000	0.282878
639.000000	0.283046
640.000000	0.283271
641.000000	0.283361
642.000000	0.283530
643.000000	0.283737
644.000000	0.283872
645.000000	0.283953
646.000000	0.284013
647.000000	0.284079
648.000000	0.284266
649.000000	0.284445
650.000000	0.284584
651.000000	0.284843
652.000000	0.284987
653.000000	0.285102
654.000000	0.285321
655.000000	0.285483
656.000000	0.285661
657.000000	0.285868
658.000000	0.286010
659.000000	0.286150
660.000000	0.286315
661.000000	0.286526
662.000000	0.286653
663.000000	0.286766
664.000000	0.286951
665.000000	0.287124
666.000000	0.287268
667.000000	0.287369
668.000000	0.287522
669.000000	0.287675
670.000000	0.287811
671.000000	0.287989
672.000000	0.288204
673.000000	0.288446
674.000000	0.288720
675.000000	0.288957
676.000000	0.289170
677.000000	0.289405
678.000000	0.289609
679.000000	0.289764
680.000000	0.289884
681.000000	0.290012
682.000000	0.290158
683.000000	0.290287
684.000000	0.290531
685.000000	0.290755
686.000000	0.290977
687.000000	0.291208
688.000000	0.291447
689.000000	0.291667
690.000000	0.291868
691.000000	0.291986
692.000000	0.292088
693.000000	0.292280
694.000000	0.292554
695.000000	0.292755
696.000000	0.292927
697.000000	0.293191
698.000000	0.293384
699.000000	0.293559
700.000000	0.293773
701.000000	0.293954
702.000000	0.294144
703.000000	0.294339
704.000000	0.294516
705.000000	0.294761
706.000000	0.295019
707.000000	0.295258
708.000000	0.295446
709.000000	0.295597
710.000000	0.295749
711.000000	0.295872
712.000000	0.296021
713.000000	0.296227
714.000000	0.296426
715.000000	0.296615
716.000000	0.296817
717.000000	0.297036
718.000000	0.297165
719.000000	0.297272
720.000000	0.297435
721.000000	0.297595
722.000000	0.297728
723.000000	0.297895
724.000000	0.298093
725.000000	0.298278
726.000000	0.298496
727.000000	0.298668
728.000000	0.298818
729.000000	0.298970
730.000000	0.299095
731.000000	0.299239
732.000000	0.299362
733.000000	0.299498
734.000000	0.299665
735.000000	0.299821
736.000000	0.300030
737.000000	0.300154
738.000000	0.300248
739.000000	0.300414
740.000000	0.300552
741.000000	0.300712
742.000000	0.300863
743.000000	0.301005
744.000000	0.301273
745.000000	0.301456
746.000000	0.301572
747.000000	0.301621
748.000000	0.301680
749.000000	0.301720
750.000000	0.301717
751.000000	0.301822
752.000000	0.301917
753.000000	0.301989
754.000000	0.302090
755.000000	0.302167
756.000000	0.302238
757.000000	0.302297
758.000000	0.302429
759.000000	0.302594
760.000000	0.302684
761.000000	0.302734
762.000000	0.302776
763.000000	0.302818
764.000000	0.302930
765.000000	0.303063
766.000000	0.303186
767.000000	0.303276
768.000000	0.303374
769.000000	0.303430
770.000000	0.303440
771.000000	0.303471
772.000000	0.303537
773.000000	0.303557
774.000000	0.303552
775.000000	0.303593
776.000000	0.303673
777.000000	0.303739
778.000000	0.303699
779.000000	0.303715
780.000000	0.303817
781.000000	0.303888
782.000000	0.303916
783.000000	0.303995
784.000000	0.304056
785.000000	0.304069
786.000000	0.304083
787.000000	0.304119
788.000000	0.304165
789.000000	0.304206
790.000000	0.304218
791.000000	0.304219
792.000000	0.304195
793.000000	0.304193
794.000000	0.304241
795.000000	0.304252
796.000000	0.304280
797.000000	0.304311
798.000000	0.304264
799.000000	0.304175
800.000000	0.304099
801.000000	0.304096
802.000000	0.304168
803.000000	0.304196
804.000000	0.304159
805.000000	0.304114
806.000000	0.304024
807.000000	0.303994
808.000000	0.304035
809.000000	0.304032
810.000000	0.304024
811.000000	0.304015
812.000000	0.303894
813.000000	0.303727
814.000000	0.303581
815.000000	0.303546
816.000000	0.303550
817.000000	0.303521
818.000000	0.303357
819.000000	0.303334
820.000000	0.303347
821.000000	0.303308
822.000000	0.303333
823.000000	0.303395
824.000000	0.303379
825.000000	0.303278
826.000000	0.303172
827.000000	0.303056
828.000000	0.302988
829.000000	0.303047
830.000000	0.303047
831.000000	0.303009
832.000000	0.302898
833.000000	0.302697
834.000000	0.302562
835.000000	0.302593
836.000000	0.302510
837.000000	0.302428
838.000000	0.302402
839.000000	0.302394
840.000000	0.302310
841.000000	0.302215
842.000000	0.302129
843.000000	0.301947
844.000000	0.301783
845.000000	0.301637
846.000000	0.301446
847.000000	0.301368
848.000000	0.301318
849.000000	0.301201
850.000000	0.301031
851.000000	0.300884
852.000000	0.300834
853.000000	0.300854
854.000000	0.300839
855.000000	0.300792
856.000000	0.300590
857.000000	0.300355
858.000000	0.300294
859.000000	0.300364
860.000000	0.300372
861.000000	0.300274
862.000000	0.300195
863.000000	0.300205
864.000000	0.300049
865.000000	0.299848
866.000000	0.299730
867.000000	0.299710
868.000000	0.299676
869.000000	0.299565
870.000000	0.299443
871.000000	0.299244
872.000000	0.299029
873.000000	0.298834
874.000000	0.298859
875.000000	0.298733
876.000000	0.298547
877.000000	0.298478
878.000000	0.298178
879.000000	0.297917
880.000000	0.297744
881.000000	0.297659
882.000000	0.297598
883.000000	0.297539
884.000000	0.297417
885.000000	0.297295
886.000000	0.297111
887.000000	0.296877
888.000000	0.296664
889.000000	0.296447
890.000000	0.296198
891.000000	0.296097
892.000000	0.296053
893.000000	0.295968
894.000000	0.295896
895.000000	0.295746
896.000000	0.295534
897.000000	0.295267
898.000000	0.294964
899.000000	0.294691
900.000000	0.294509
901.000000	0.294392
902.000000	0.294328
903.000000	0.294147
904.000000	0.293948
905.000000	0.293754
906.000000	0.293450
907.000000	0.293216
908.000000	0.293104
909.000000	0.292857
910.000000	0.292756
911.000000	0.292625
912.000000	0.292326
913.000000	0.292156
914.000000	0.291889
915.000000	0.291569
916.000000	0.291289
917.000000	0.291065
918.000000	0.290871
919.000000	0.290678
920.000000	0.290577
921.000000	0.290467
922.000000	0.290286
923.000000	0.289987
924.000000	0.289723
925.000000	0.289431
926.000000	0.289176
927.000000	0.289190
928.000000	0.289054
929.000000	0.288764
930.000000	0.288475
931.000000	0.288271
932.000000	0.288076
933.000000	0.287838
934.000000	0.287449
935.000000	0.287253
936.000000	0.287077
937.000000	0.286678
938.000000	0.286436
939.000000	0.286268
940.000000	0.286108
941.000000	0.286029
942.000000	0.285736
943.000000	0.285420
944.000000	0.285173
945.000000	0.285237
946.000000	0.284939
947.000000	0.284498
948.000000	0.284267
949.000000	0.283972
950.000000	0.283828
951.000000	0.283797
952.000000	0.283699
953.000000	0.283436
954.000000	0.283174
955.000000	0.282950
956.000000	0.282595
957.000000	0.282437
958.000000	0.282397
959.000000	0.282345
960.000000	0.282205
961.000000	0.282045
962.000000	0.281842
963.000000	0.281520
964.000000	0.281415
965.000000	0.281309
966.000000	0.280901
967.000000	0.280517
968.000000	0.280172
969.000000	0.279802
970.000000	0.279455
971.000000	0.279376
972.000000	0.279245
973.000000	0.278952
974.000000	0.278870
975.000000	0.278623
976.000000	0.278394
977.000000	0.278305
978.000000	0.277953
979.000000	0.277828
980.000000	0.277750
981.000000	0.277686
982.000000	0.277413
983.000000	0.277201
984.000000	0.277133
985.000000	0.276930
986.000000	0.276965
987.000000	0.276859
988.000000	0.276344
989.000000	0.276118
990.000000	0.275825
991.000000	0.275706
992.000000	0.276026
993.000000	0.276023
994.000000	0.275636
995.000000	0.275167
996.000000	0.274838
997.000000	0.275296
998.000000	0.275587
999.000000	0.275242
1000.000000	0.274591
1001.000000	0.275642
1002.000000	0.275050
1003.000000	0.274727
1004.000000	0.274577
1005.000000	0.274168
1006.000000	0.273957
1007.000000	0.274189
1008.000000	0.274529
1009.000000	0.274291
1010.000000	0.273780
1011.000000	0.273976
1012.000000	0.273733
1013.000000	0.273060
1014.000000	0.273333
1015.000000	0.273503
1016.000000	0.273693
1017.000000	0.273871
1018.000000	0.273574
1019.000000	0.273686
1020.000000	0.274058
1021.000000	0.273771
1022.000000	0.273855
1023.000000	0.273803
1024.000000	0.272928
1025.000000	0.272292
1026.000000	0.272853
1027.000000	0.273232
1028.000000	0.273904
1029.000000	0.274332
1030.000000	0.273748
1031.000000	0.273357
1032.000000	0.273561
1033.000000	0.273859
1034.000000	0.273883
1035.000000	0.274164
1036.000000	0.274044
1037.000000	0.273116
1038.000000	0.273048
1039.000000	0.273548
1040.000000	0.273888
1041.000000	0.274226
1042.000000	0.274525
1043.000000	0.274260
1044.000000	0.273894
1045.000000	0.273803
1046.000000	0.273713
1047.000000	0.274037
1048.000000	0.274859
1049.000000	0.275080
1050.000000	0.275360
1051.000000	0.275463
1052.000000	0.274739
1053.000000	0.274763
1054.000000	0.275627
1055.000000	0.276081
1056.000000	0.276689
1057.000000	0.277072
1058.000000	0.277175
1059.000000	0.276678
1060.000000	0.276381
1061.000000	0.276765
1062.000000	0.277003
1063.000000	0.277089
1064.000000	0.277407
1065.000000	0.277668
1066.000000	0.278074
1067.000000	0.278916
1068.000000	0.279220
1069.000000	0.279168
1070.000000	0.279202
1071.000000	0.278950
1072.000000	0.279009
1073.000000	0.279331
1074.000000	0.279693
1075.000000	0.279911
1076.000000	0.280025
1077.000000	0.280187
1078.000000	0.280534
1079.000000	0.280632
1080.000000	0.280717
1081.000000	0.280898
1082.000000	0.281072
1083.000000	0.281109
1084.000000	0.281140
1085.000000	0.281460
1086.000000	0.281568
1087.000000	0.282001
1088.000000	0.283309
1089.000000	0.283730
1090.000000	0.283630
1091.000000	0.283564
1092.000000	0.283492
1093.000000	0.283353
1094.000000	0.283490
1095.000000	0.283954
1096.000000	0.284369
1097.000000	0.284822
1098.000000	0.285184
1099.000000	0.285662
1100.000000	0.286026
1101.000000	0.286194
1102.000000	0.286342
1103.000000	0.286405
1104.000000	0.286560
1105.000000	0.286573
1106.000000	0.286784
1107.000000	0.287214
1108.000000	0.287501
1109.000000	0.287876
1110.000000	0.288112
1111.000000	0.288446
1112.000000	0.288776
1113.000000	0.289058
1114.000000	0.289519
1115.000000	0.289587
1116.000000	0.289224
1117.000000	0.289330
1118.000000	0.289473
1119.000000	0.289566
1120.000000	0.289874
1121.000000	0.290143
1122.000000	0.290491
1123.000000	0.290792
1124.000000	0.290894
1125.000000	0.291101
1126.000000	0.290982
1127.000000	0.291065
1128.000000	0.291270
1129.000000	0.291803
1130.000000	0.292013
1131.000000	0.292214
1132.000000	0.292313
1133.000000	0.292166
1134.000000	0.292395
1135.000000	0.292727
1136.000000	0.293041
1137.000000	0.293719
1138.000000	0.293910
1139.000000	0.293939
1140.000000	0.293977
1141.000000	0.293630
1142.000000	0.293523
1143.000000	0.293474
1144.000000	0.293515
1145.000000	0.293379
1146.000000	0.293360
1147.000000	0.293585
1148.000000	0.293899
1149.000000	0.294104
1150.000000	0.294559
1151.000000	0.294767
1152.000000	0.294650
1153.000000	0.294771
1154.000000	0.294952
1155.000000	0.295073
1156.000000	0.295276
1157.000000	0.295341
1158.000000	0.295188
1159.000000	0.295208
1160.000000	0.295288
1161.000000	0.295260
1162.000000	0.295216
1163.000000	0.295467
1164.000000	0.295388
1165.000000	0.295394
1166.000000	0.295560
1167.000000	0.295891
1168.000000	0.295954
1169.000000	0.296044
1170.000000	0.296105
1171.000000	0.296048
1172.000000	0.296073
1173.000000	0.296076
1174.000000	0.296155
1175.000000	0.296219
1176.000000	0.296275
1177.000000	0.296578
1178.000000	0.296674
1179.000000	0.296600
1180.000000	0.296537
1181.000000	0.296429
1182.000000	0.296396
1183.000000	0.296447
1184.000000	0.296605
1185.000000	0.296718
1186.000000	0.296908
1187.000000	0.296956
1188.000000	0.296953
1189.000000	0.296870
1190.000000	0.296732
1191.000000	0.296642
1192.000000	0.296560
1193.000000	0.296648
1194.000000	0.296718
1195.000000	0.296767
1196.000000	0.296868
1197.000000	0.296920
1198.000000	0.296897
1199.000000	0.296942
1200.000000	0.297015
1201.000000	0.297107
1202.000000	0.297032
1203.000000	0.297060
1204.000000	0.297017
1205.000000	0.296789
1206.000000	0.296732
1207.000000	0.296873
1208.000000	0.296874
1209.000000	0.296942
1210.000000	0.296947
1211.000000	0.296844
1212.000000	0.296829
1213.000000	0.296880
1214.000000	0.296931
1215.000000	0.297082
1216.000000	0.297073
1217.000000	0.296890
1218.000000	0.296827
1219.000000	0.296853
1220.000000	0.296697
1221.000000	0.296635
1222.000000	0.296611
1223.000000	0.296372
1224.000000	0.296248
1225.000000	0.296100
1226.000000	0.295971
1227.000000	0.296146
1228.000000	0.296327
1229.000000	0.296429
1230.000000	0.296681
1231.000000	0.296714
1232.000000	0.296611
1233.000000	0.296692
1234.000000	0.296770
1235.000000	0.296861
1236.000000	0.296935
1237.000000	0.297039
1238.000000	0.297153
1239.000000	0.297173
1240.000000	0.297112
1241.000000	0.297160
1242.000000	0.297053
1243.000000	0.297039
1244.000000	0.297084
1245.000000	0.296976
1246.000000	0.296951
1247.000000	0.296977
1248.000000	0.296930
1249.000000	0.296927
1250.000000	0.296841
1251.000000	0.296782
1252.000000	0.296805
1253.000000	0.296943
1254.000000	0.297012
1255.000000	0.297173
1256.000000	0.297162
1257.000000	0.297021
1258.000000	0.297012
1259.000000	0.296901
1260.000000	0.296930
1261.000000	0.297040
1262.000000	0.297056
1263.000000	0.297101
1264.000000	0.297093
1265.000000	0.297028
1266.000000	0.297072
1267.000000	0.297113
1268.000000	0.297085
1269.000000	0.297098
1270.000000	0.297217
1271.000000	0.297197
1272.000000	0.297292
1273.000000	0.297392
1274.000000	0.297244
1275.000000	0.297181
1276.000000	0.297168
1277.000000	0.297148
1278.000000	0.296995
1279.000000	0.296977
1280.000000	0.296941
1281.000000	0.296922
1282.000000	0.297060
1283.000000	0.297145
1284.000000	0.297176
1285.000000	0.297167
1286.000000	0.297059
1287.000000	0.296995
1288.000000	0.297003
1289.000000	0.296995
1290.000000	0.296979
1291.000000	0.296908
1292.000000	0.296835
1293.000000	0.296722
1294.000000	0.296686
1295.000000	0.296803
1296.000000	0.296937
1297.000000	0.297040
1298.000000	0.297119
1299.000000	0.297095
1300.000000	0.296998
1301.000000	0.296942
1302.000000	0.296876
1303.000000	0.296944
1304.000000	0.296955
1305.000000	0.297020
1306.000000	0.297053
1307.000000	0.297222
1308.000000	0.297256
1309.000000	0.297184
1310.000000	0.297157
1311.000000	0.297124
1312.000000	0.296957
1313.000000	0.296917
1314.000000	0.296904
1315.000000	0.296886
1316.000000	0.297003
1317.000000	0.297070
1318.000000	0.297013
1319.000000	0.296981
1320.000000	0.297008
1321.000000	0.296957
1322.000000	0.296954
1323.000000	0.296970
1324.000000	0.296880
1325.000000	0.296699
1326.000000	0.296599
1327.000000	0.296623
1328.000000	0.296630
1329.000000	0.296548
1330.000000	0.296520
1331.000000	0.296486
1332.000000	0.296367
1333.000000	0.296290
1334.000000	0.296387
1335.000000	0.296346
1336.000000	0.296208
1337.000000	0.296097
1338.000000	0.295848
1339.000000	0.295734
1340.000000	0.295802
1341.000000	0.295850
1342.000000	0.295913
1343.000000	0.295874
1344.000000	0.295763
1345.000000	0.295606
1346.000000	0.295639
1347.000000	0.295700
1348.000000	0.295659
1349.000000	0.295611
1350.000000	0.295507
1351.000000	0.295308
1352.000000	0.295121
1353.000000	0.294964
1354.000000	0.295021
1355.000000	0.295035
1356.000000	0.294978
1357.000000	0.294998
1358.000000	0.294927
1359.000000	0.294746
1360.000000	0.294610
1361.000000	0.294495
1362.000000	0.294418
1363.000000	0.294351
1364.000000	0.294320
1365.000000	0.294313
1366.000000	0.294348
1367.000000	0.294419
1368.000000	0.294354
1369.000000	0.294509
1370.000000	0.294545
1371.000000	0.294348
1372.000000	0.294263
1373.000000	0.294219
1374.000000	0.294100
1375.000000	0.294106
1376.000000	0.294290
1377.000000	0.294306
1378.000000	0.294187
1379.000000	0.294056
1380.000000	0.293906
1381.000000	0.293731
1382.000000	0.293736
1383.000000	0.293820
1384.000000	0.293650
1385.000000	0.293353
1386.000000	0.293081
1387.000000	0.292900
1388.000000	0.292760
1389.000000	0.292610
1390.000000	0.292470
1391.000000	0.292187
1392.000000	0.291910
1393.000000	0.291652
1394.000000	0.291463
1395.000000	0.291314
1396.000000	0.291203
1397.000000	0.290952
1398.000000	0.290627
1399.000000	0.290392
1400.000000	0.290130
1401.000000	0.289861
1402.000000	0.289688
1403.000000	0.289497
1404.000000	0.289188
1405.000000	0.288738
1406.000000	0.288435
1407.000000	0.288239
1408.000000	0.287939
1409.000000	0.287753
1410.000000	0.287639
1411.000000	0.287319
1412.000000	0.287055
1413.000000	0.286849
1414.000000	0.286571
1415.000000	0.286411
1416.000000	0.286318
1417.000000	0.286240
1418.000000	0.286112
1419.000000	0.286085
1420.000000	0.286007
1421.000000	0.285945
1422.000000	0.285910
1423.000000	0.285775
1424.000000	0.285476
1425.000000	0.285200
1426.000000	0.284915
1427.000000	0.284613
1428.000000	0.284400
1429.000000	0.284237
1430.000000	0.284007
1431.000000	0.283790
1432.000000	0.283612
1433.000000	0.283483
1434.000000	0.283313
1435.000000	0.283253
1436.000000	0.283139
1437.000000	0.282927
1438.000000	0.282811
1439.000000	0.282771
1440.000000	0.282768
1441.000000	0.282850
1442.000000	0.282909
1443.000000	0.282940
1444.000000	0.282958
1445.000000	0.282923
1446.000000	0.282892
1447.000000	0.282877
1448.000000	0.282891
1449.000000	0.283027
1450.000000	0.283148
1451.000000	0.283191
1452.000000	0.283186
1453.000000	0.283132
1454.000000	0.283089
1455.000000	0.283102
1456.000000	0.283268
1457.000000	0.283432
1458.000000	0.283479
1459.000000	0.283494
1460.000000	0.283423
1461.000000	0.283315
1462.000000	0.283207
1463.000000	0.283097
1464.000000	0.283087
1465.000000	0.283062
1466.000000	0.283052
1467.000000	0.283141
1468.000000	0.283140
1469.000000	0.283137
1470.000000	0.283054
1471.000000	0.283018
1472.000000	0.283067
1473.000000	0.283121
1474.000000	0.283225
1475.000000	0.283310
1476.000000	0.283242
1477.000000	0.283240
1478.000000	0.283211
1479.000000	0.283095
1480.000000	0.283114
1481.000000	0.283091
1482.000000	0.283067
1483.000000	0.283126
1484.000000	0.283259
1485.000000	0.283344
1486.000000	0.283391
1487.000000	0.283571
1488.000000	0.283884
1489.000000	0.284050
1490.000000	0.284104
1491.000000	0.284230
1492.000000	0.284216
1493.000000	0.284322
1494.000000	0.284556
1495.000000	0.284680
1496.000000	0.284751
1497.000000	0.284785
1498.000000	0.284742
1499.000000	0.284840
1500.000000	0.284942
1501.000000	0.284997
1502.000000	0.285101
1503.000000	0.285221
1504.000000	0.285296
1505.000000	0.285489
1506.000000	0.285721
1507.000000	0.285771
1508.000000	0.285841
1509.000000	0.285852
1510.000000	0.285805
1511.000000	0.285880
1512.000000	0.285922
1513.000000	0.285957
1514.000000	0.285967
1515.000000	0.285914
1516.000000	0.285970
1517.000000	0.285953
1518.000000	0.285898
1519.000000	0.285885
1520.000000	0.285829
1521.000000	0.285753
1522.000000	0.285796
1523.000000	0.285846
1524.000000	0.285758
1525.000000	0.285825
1526.000000	0.286034
1527.000000	0.286074
1528.000000	0.286109
1529.000000	0.286175
1530.000000	0.286012
1531.000000	0.285979
1532.000000	0.286226
1533.000000	0.286409
1534.000000	0.286524
1535.000000	0.286613
1536.000000	0.286508
1537.000000	0.286462
1538.000000	0.286466
1539.000000	0.286385
1540.000000	0.286394
1541.000000	0.286401
1542.000000	0.286410
1543.000000	0.286475
1544.000000	0.286521
1545.000000	0.286648
1546.000000	0.286705
1547.000000	0.286742
1548.000000	0.286818
1549.000000	0.286757
1550.000000	0.286609
1551.000000	0.286476
1552.000000	0.286480
1553.000000	0.286477
1554.000000	0.286480
1555.000000	0.286552
1556.000000	0.286463
1557.000000	0.286285
1558.000000	0.286197
1559.000000	0.286066
1560.000000	0.285994
1561.000000	0.286023
1562.000000	0.286007
1563.000000	0.286033
1564.000000	0.286041
1565.000000	0.286021
1566.000000	0.285976
1567.000000	0.286040
1568.000000	0.286044
1569.000000	0.286072
1570.000000	0.286111
1571.000000	0.286078
1572.000000	0.286101
1573.000000	0.286229
1574.000000	0.286250
1575.000000	0.286286
1576.000000	0.286305
1577.000000	0.286220
1578.000000	0.286172
1579.000000	0.286162
1580.000000	0.286147
1581.000000	0.286222
1582.000000	0.286271
1583.000000	0.286312
1584.000000	0.286301
1585.000000	0.286374
1586.000000	0.286343
1587.000000	0.286176
1588.000000	0.286192
1589.000000	0.286241
1590.000000	0.286265
1591.000000	0.286453
1592.000000	0.286504
1593.000000	0.286477
1594.000000	0.286478
1595.000000	0.286476
1596.000000	0.286496
1597.000000	0.286586
1598.000000	0.286527
1599.000000	0.286443
1600.000000	0.286381
1601.000000	0.286283
1602.000000	0.286245
1603.000000	0.286291
1604.000000	0.286273
1605.000000	0.286260
1606.000000	0.286254
1607.000000	0.286327
1608.000000	0.286340
1609.000000	0.286386
1610.000000	0.286333
1611.000000	0.286170
1612.000000	0.286102
1613.000000	0.286147
1614.000000	0.286120
1615.000000	0.286147
1616.000000	0.286223
1617.000000	0.286254
1618.000000	0.286246
1619.000000	0.286285
1620.000000	0.286292
1621.000000	0.286200
1622.000000	0.286236
1623.000000	0.286339
1624.000000	0.286367
1625.000000	0.286321
1626.000000	0.286195
1627.000000	0.285933
1628.000000	0.285912
1629.000000	0.285910
1630.000000	0.285985
1631.000000	0.286233
1632.000000	0.286275
1633.000000	0.286228
1634.000000	0.286259
1635.000000	0.286287
1636.000000	0.286338
1637.000000	0.286482
1638.000000	0.286541
1639.000000	0.286606
1640.000000	0.286625
1641.000000	0.286654
1642.000000	0.286658
1643.000000	0.286642
1644.000000	0.286708
1645.000000	0.286877
1646.000000	0.286832
1647.000000	0.286721
1648.000000	0.286606
1649.000000	0.286429
1650.000000	0.286370
1651.000000	0.286446
1652.000000	0.286494
1653.000000	0.286494
1654.000000	0.286508
1655.000000	0.286498
1656.000000	0.286453
1657.000000	0.286408
1658.000000	0.286406
1659.000000	0.286516
1660.000000	0.286647
1661.000000	0.286775
1662.000000	0.286858
1663.000000	0.286920
1664.000000	0.286941
1665.000000	0.286866
1666.000000	0.286985
1667.000000	0.287109
1668.000000	0.287176
1669.000000	0.287294
1670.000000	0.287330
1671.000000	0.287364
1672.000000	0.287458
1673.000000	0.287551
1674.000000	0.287615
1675.000000	0.287784
1676.000000	0.287735
1677.000000	0.287586
1678.000000	0.287498
1679.000000	0.287289
1680.000000	0.287176
1681.000000	0.287276
1682.000000	0.287295
1683.000000	0.287386
1684.000000	0.287526
1685.000000	0.287596
1686.000000	0.287661
1687.000000	0.287682
1688.000000	0.287583
1689.000000	0.287517
1690.000000	0.287392
1691.000000	0.287281
1692.000000	0.287193
1693.000000	0.287103
1694.000000	0.287052
1695.000000	0.287007
1696.000000	0.286824
1697.000000	0.286747
1698.000000	0.286780
1699.000000	0.286801
1700.000000	0.286885
1701.000000	0.287061
1702.000000	0.287123
1703.000000	0.287130
1704.000000	0.287303
1705.000000	0.287344
1706.000000	0.287247
1707.000000	0.287216
1708.000000	0.287137
1709.000000	0.287063
1710.000000	0.287113
1711.000000	0.287132
1712.000000	0.287191
1713.000000	0.287161
1714.000000	0.287058
1715.000000	0.287071
1716.000000	0.287129
1717.000000	0.287148
1718.000000	0.287255
1719.000000	0.287227
1720.000000	0.287104
1721.000000	0.287026
1722.000000	0.286890
1723.000000	0.286852
1724.000000	0.286899
1725.000000	0.286941
1726.000000	0.286983
1727.000000	0.286992
1728.000000	0.286888
1729.000000	0.286818
1730.000000	0.286864
1731.000000	0.286912
1732.000000	0.287004
1733.000000	0.287159
1734.000000	0.287241
1735.000000	0.287339
1736.000000	0.287457
1737.000000	0.287526
1738.000000	0.287577
1739.000000	0.287646
1740.000000	0.287722
1741.000000	0.287689
1742.000000	0.287616
1743.000000	0.287614
1744.000000	0.287532
1745.000000	0.287516
1746.000000	0.287594
1747.000000	0.287479
1748.000000	0.287365
1749.000000	0.287139
1750.000000	0.287036
1751.000000	0.287189
1752.000000	0.287342
1753.000000	0.287558
1754.000000	0.287591
1755.000000	0.287292
1756.000000	0.287239
1757.000000	0.287280
1758.000000	0.287254
1759.000000	0.287332
1760.000000	0.287383
1761.000000	0.287225
1762.000000	0.287222
1763.000000	0.287357
1764.000000	0.287543
1765.000000	0.287811
1766.000000	0.288003
1767.000000	0.288208
1768.000000	0.288286
1769.000000	0.288358
1770.000000	0.288371
1771.000000	0.288204
1772.000000	0.288179
1773.000000	0.288157
1774.000000	0.288042
1775.000000	0.287985
1776.000000	0.287982
1777.000000	0.287820
1778.000000	0.287806
1779.000000	0.288028
1780.000000	0.288012
1781.000000	0.287897
1782.000000	0.287717
1783.000000	0.287398
1784.000000	0.287402
1785.000000	0.287323
1786.000000	0.287269
1787.000000	0.287436
1788.000000	0.287471
1789.000000	0.287424
1790.000000	0.287541
1791.000000	0.287517
1792.000000	0.287408
1793.000000	0.287340
1794.000000	0.287270
1795.000000	0.287247
1796.000000	0.287217
1797.000000	0.287242
1798.000000	0.287372
1799.000000	0.287369
1800.000000	0.287349
1801.000000	0.287406
1802.000000	0.287493
1803.000000	0.287192
1804.000000	0.287079
1805.000000	0.286644
1806.000000	0.286548
1807.000000	0.286546
1808.000000	0.286633
1809.000000	0.287051
1810.000000	0.287469
1811.000000	0.287176
1812.000000	0.286363
1813.000000	0.286152
1814.000000	0.285317
1815.000000	0.285518
1816.000000	0.286967
1817.000000	0.287581
1818.000000	0.288572
1819.000000	0.289178
1820.000000	0.288784
1821.000000	0.288013
1822.000000	0.287459
1823.000000	0.286084
1824.000000	0.285489
1825.000000	0.284757
1826.000000	0.285065
1827.000000	0.285853
1828.000000	0.287463
1829.000000	0.288316
1830.000000	0.289393
1831.000000	0.289441
1832.000000	0.287883
1833.000000	0.287306
1834.000000	0.286807
1835.000000	0.286362
1836.000000	0.285854
1837.000000	0.285892
1838.000000	0.286430
1839.000000	0.286341
1840.000000	0.286426
1841.000000	0.286069
1842.000000	0.285926
1843.000000	0.285406
1844.000000	0.285144
1845.000000	0.284900
1846.000000	0.285128
1847.000000	0.285450
1848.000000	0.285470
1849.000000	0.286651
1850.000000	0.286871
1851.000000	0.287070
1852.000000	0.287046
1853.000000	0.287147
1854.000000	0.287146
1855.000000	0.286898
1856.000000	0.286573
1857.000000	0.285700
1858.000000	0.284789
1859.000000	0.283979
1860.000000	0.283247
1861.000000	0.282662
1862.000000	0.282313
1863.000000	0.282220
1864.000000	0.281942
1865.000000	0.281846
1866.000000	0.281829
1867.000000	0.281784
1868.000000	0.281722
1869.000000	0.281555
1870.000000	0.281236
1871.000000	0.280595
1872.000000	0.279877
1873.000000	0.279678
1874.000000	0.280018
1875.000000	0.279994
1876.000000	0.279859
1877.000000	0.279669
1878.000000	0.279155
1879.000000	0.278058
1880.000000	0.276916
1881.000000	0.276221
1882.000000	0.275437
1883.000000	0.274503
1884.000000	0.274006
1885.000000	0.273939
1886.000000	0.273160
1887.000000	0.272074
1888.000000	0.271419
1889.000000	0.270215
1890.000000	0.268839
1891.000000	0.268209
1892.000000	0.267615
1893.000000	0.266212
1894.000000	0.265251
1895.000000	0.264029
1896.000000	0.262755
1897.000000	0.260866
1898.000000	0.259585
1899.000000	0.258048
1900.000000	0.257077
1901.000000	0.256881
1902.000000	0.256355
1903.000000	0.256390
1904.000000	0.255840
1905.000000	0.254770
1906.000000	0.253966
1907.000000	0.253401
1908.000000	0.252381
1909.000000	0.251499
1910.000000	0.251116
1911.000000	0.250293
1912.000000	0.249770
1913.000000	0.249542
1914.000000	0.248743
1915.000000	0.248424
1916.000000	0.248287
1917.000000	0.247878
1918.000000	0.247472
1919.000000	0.247499
1920.000000	0.247002
1921.000000	0.246593
1922.000000	0.246376
1923.000000	0.245951
1924.000000	0.245732
1925.000000	0.245179
1926.000000	0.245111
1927.000000	0.245148
1928.000000	0.244810
1929.000000	0.244167
1930.000000	0.244199
1931.000000	0.244015
1932.000000	0.243804
1933.000000	0.244385
1934.000000	0.244685
1935.000000	0.244674
1936.000000	0.244858
1937.000000	0.244904
1938.000000	0.244582
1939.000000	0.244368
1940.000000	0.244190
1941.000000	0.243978
1942.000000	0.243689
1943.000000	0.243733
1944.000000	0.243575
1945.000000	0.243695
1946.000000	0.244149
1947.000000	0.244342
1948.000000	0.244663
1949.000000	0.244412
1950.000000	0.244019
1951.000000	0.243807
1952.000000	0.243639
1953.000000	0.243537
1954.000000	0.243640
1955.000000	0.243332
1956.000000	0.243148
1957.000000	0.242854
1958.000000	0.242510
1959.000000	0.242701
1960.000000	0.242605
1961.000000	0.242473
1962.000000	0.242365
1963.000000	0.242332
1964.000000	0.242347
1965.000000	0.242628
1966.000000	0.242437
1967.000000	0.242451
1968.000000	0.242536
1969.000000	0.242325
1970.000000	0.242518
1971.000000	0.242846
1972.000000	0.243058
1973.000000	0.242937
1974.000000	0.242747
1975.000000	0.242450
1976.000000	0.241730
1977.000000	0.241257
1978.000000	0.241400
1979.000000	0.241727
1980.000000	0.242224
1981.000000	0.242816
1982.000000	0.243302
1983.000000	0.243673
1984.000000	0.244014
1985.000000	0.244620
1986.000000	0.244814
1987.000000	0.244886
1988.000000	0.244654
1989.000000	0.244347
1990.000000	0.244369
1991.000000	0.244449
1992.000000	0.244924
1993.000000	0.244907
1994.000000	0.244779
1995.000000	0.245000
1996.000000	0.245190
1997.000000	0.245731
1998.000000	0.247435
1999.000000	0.248056
2000.000000	0.248386
2001.000000	0.248425
2002.000000	0.247856
2003.000000	0.247832
2004.000000	0.248179
2005.000000	0.248389
2006.000000	0.249120
2007.000000	0.249864
2008.000000	0.250367
2009.000000	0.250796
2010.000000	0.251023
2011.000000	0.250716
2012.000000	0.250783
2013.000000	0.250634
2014.000000	0.251159
2015.000000	0.251722
2016.000000	0.251771
2017.000000	0.251600
2018.000000	0.251211
2019.000000	0.250905
2020.000000	0.251264
2021.000000	0.251425
2022.000000	0.251539
2023.000000	0.251969
2024.000000	0.252560
2025.000000	0.253096
2026.000000	0.253885
2027.000000	0.254697
2028.000000	0.254373
2029.000000	0.254585
2030.000000	0.254707
2031.000000	0.254920
2032.000000	0.255727
2033.000000	0.256211
2034.000000	0.256550
2035.000000	0.256743
2036.000000	0.256855
2037.000000	0.256873
2038.000000	0.256916
2039.000000	0.257026
2040.000000	0.257006
2041.000000	0.256812
2042.000000	0.257623
2043.000000	0.258044
2044.000000	0.258392
2045.000000	0.258620
2046.000000	0.258504
2047.000000	0.258809
2048.000000	0.259353
2049.000000	0.259598
2050.000000	0.259695
2051.000000	0.259586
2052.000000	0.258801
2053.000000	0.258322
2054.000000	0.257944
2055.000000	0.258068
2056.000000	0.258484
2057.000000	0.259018
2058.000000	0.259296
2059.000000	0.259763
2060.000000	0.259904
2061.000000	0.259398
2062.000000	0.259444
2063.000000	0.259658
2064.000000	0.259845
2065.000000	0.260688
2066.000000	0.260951
2067.000000	0.261247
2068.000000	0.261581
2069.000000	0.261262
2070.000000	0.261013
2071.000000	0.260947
2072.000000	0.261357
2073.000000	0.262113
2074.000000	0.262247
2075.000000	0.262354
2076.000000	0.262329
2077.000000	0.262105
2078.000000	0.261238
2079.000000	0.261227
2080.000000	0.261582
2081.000000	0.261781
2082.000000	0.262342
2083.000000	0.263056
2084.000000	0.263008
2085.000000	0.263347
2086.000000	0.263696
2087.000000	0.263637
2088.000000	0.263895
2089.000000	0.263777
2090.000000	0.263692
2091.000000	0.263515
2092.000000	0.263584
2093.000000	0.263605
2094.000000	0.263855
2095.000000	0.264470
2096.000000	0.264920
2097.000000	0.265480
2098.000000	0.265840
2099.000000	0.265623
2100.000000	0.265137
2101.000000	0.265376
2102.000000	0.265388
2103.000000	0.265884
2104.000000	0.267062
2105.000000	0.267400
2106.000000	0.267125
2107.000000	0.267236
2108.000000	0.267177
2109.000000	0.267121
2110.000000	0.266889
2111.000000	0.267020
2112.000000	0.267145
2113.000000	0.267273
2114.000000	0.267684
2115.000000	0.267558
2116.000000	0.267235
2117.000000	0.266808
2118.000000	0.266216
2119.000000	0.266052
2120.000000	0.266012
2121.000000	0.265837
2122.000000	0.266244
2123.000000	0.267387
2124.000000	0.268037
2125.000000	0.269014
2126.000000	0.269434
2127.000000	0.269413
2128.000000	0.269502
2129.000000	0.269218
2130.000000	0.269230
2131.000000	0.269098
2132.000000	0.268463
2133.000000	0.268356
2134.000000	0.267930
2135.000000	0.267549
2136.000000	0.268353
2137.000000	0.268578
2138.000000	0.268838
2139.000000	0.269200
2140.000000	0.269395
2141.000000	0.269809
2142.000000	0.270523
2143.000000	0.270693
2144.000000	0.271167
2145.000000	0.271253
2146.000000	0.270547
2147.000000	0.271017
2148.000000	0.270925
2149.000000	0.270657
2150.000000	0.271116
2151.000000	0.271041
2152.000000	0.271441
2153.000000	0.271263
2154.000000	0.270702
2155.000000	0.269201
2156.000000	0.268905
2157.000000	0.268899
2158.000000	0.268952
2159.000000	0.270130
2160.000000	0.270478
2161.000000	0.269998
2162.000000	0.269905
2163.000000	0.269711
2164.000000	0.269397
2165.000000	0.268849
2166.000000	0.268921
2167.000000	0.268625
2168.000000	0.269063
2169.000000	0.269989
2170.000000	0.270735
2171.000000	0.271334
2172.000000	0.272180
2173.000000	0.272387
2174.000000	0.271926
2175.000000	0.271837
2176.000000	0.271767
2177.000000	0.271495
2178.000000	0.271350
2179.000000	0.271179
2180.000000	0.270385
2181.000000	0.270308
2182.000000	0.270238
2183.000000	0.270065
2184.000000	0.269902
2185.000000	0.269748
2186.000000	0.269703
2187.000000	0.269553
2188.000000	0.269706
2189.000000	0.269741
2190.000000	0.268644
2191.000000	0.267855
2192.000000	0.267092
2193.000000	0.265683
2194.000000	0.265094
2195.000000	0.265261
2196.000000	0.265568
2197.000000	0.266396
2198.000000	0.267072
2199.000000	0.268372
2200.000000	0.269053
2201.000000	0.269442
2202.000000	0.269590
2203.000000	0.269015
2204.000000	0.268763
2205.000000	0.267155
2206.000000	0.267365
2207.000000	0.266921
2208.000000	0.266387
2209.000000	0.266683
2210.000000	0.265890
2211.000000	0.267323
2212.000000	0.269932
2213.000000	0.271090
2214.000000	0.272557
2215.000000	0.273305
2216.000000	0.272543
2217.000000	0.272389
2218.000000	0.272999
2219.000000	0.272995
2220.000000	0.272835
2221.000000	0.271829
2222.000000	0.269433
2223.000000	0.267995
2224.000000	0.266258
2225.000000	0.265104
2226.000000	0.264427
2227.000000	0.265359
2228.000000	0.265249
2229.000000	0.265048
2230.000000	0.267901
2231.000000	0.268637
2232.000000	0.269881
2233.000000	0.272466
2234.000000	0.271238
2235.000000	0.271440
2236.000000	0.271746
2237.000000	0.272305
2238.000000	0.271851
2239.000000	0.271540
2240.000000	0.270564
2241.000000	0.268094
2242.000000	0.267275
2243.000000	0.266582
2244.000000	0.266408
2245.000000	0.267335
2246.000000	0.267958
2247.000000	0.269081
2248.000000	0.269831
2249.000000	0.271983
2250.000000	0.270639
2251.000000	0.267266
2252.000000	0.267088
2253.000000	0.265398
2254.000000	0.264386
2255.000000	0.267869
2256.000000	0.268026
2257.000000	0.267821
2258.000000	0.269813
2259.000000	0.268215
2260.000000	0.268217
2261.000000	0.267061
2262.000000	0.264390
2263.000000	0.262987
2264.000000	0.261175
2265.000000	0.261451
2266.000000	0.264279
2267.000000	0.265645
2268.000000	0.267667
2269.000000	0.268228
2270.000000	0.267316
2271.000000	0.267255
2272.000000	0.267535
2273.000000	0.267318
2274.000000	0.265260
2275.000000	0.264979
2276.000000	0.265664
2277.000000	0.266429
2278.000000	0.267114
2279.000000	0.269903
2280.000000	0.268410
2281.000000	0.267045
2282.000000	0.266484
2283.000000	0.266376
2284.000000	0.267598
2285.000000	0.266781
2286.000000	0.264313
2287.000000	0.262310
2288.000000	0.260520
2289.000000	0.259510
2290.000000	0.260877
2291.000000	0.260394
2292.000000	0.258923
2293.000000	0.258772
2294.000000	0.258553
2295.000000	0.257599
2296.000000	0.258062
2297.000000	0.260160
2298.000000	0.260741
2299.000000	0.260628
2300.000000	0.261097
2301.000000	0.261793
2302.000000	0.261930
2303.000000	0.261979
2304.000000	0.262446
2305.000000	0.263252
2306.000000	0.262820
2307.000000	0.261830
2308.000000	0.260989
2309.000000	0.261430
2310.000000	0.260007
2311.000000	0.258576
2312.000000	0.258784
2313.000000	0.255813
2314.000000	0.253295
2315.000000	0.255925
2316.000000	0.258481
2317.000000	0.259617
2318.000000	0.261381
2319.000000	0.260492
2320.000000	0.257880
2321.000000	0.258231
2322.000000	0.258165
2323.000000	0.256830
2324.000000	0.258817
2325.000000	0.259524
2326.000000	0.258444
2327.000000	0.258148
2328.000000	0.253377
2329.000000	0.247991
2330.000000	0.245117
2331.000000	0.244353
2332.000000	0.248464
2333.000000	0.253736
2334.000000	0.256222
2335.000000	0.258603
2336.000000	0.259659
2337.000000	0.259999
2338.000000	0.259943
2339.000000	0.259227
2340.000000	0.256929
2341.000000	0.255227
2342.000000	0.251934
2343.000000	0.251597
2344.000000	0.253824
2345.000000	0.254586
2346.000000	0.256130
2347.000000	0.255770
2348.000000	0.254671
2349.000000	0.251471
2350.000000	0.248262
2351.000000	0.250340
2352.000000	0.249508
2353.000000	0.250324
2354.000000	0.252334
2355.000000	0.249058
2356.000000	0.247149
2357.000000	0.247226
2358.000000	0.244748
2359.000000	0.245547
2360.000000	0.249189
2361.000000	0.248880
2362.000000	0.249090
2363.000000	0.249645
2364.000000	0.247050
2365.000000	0.246182
2366.000000	0.247312
2367.000000	0.247109
2368.000000	0.248328
2369.000000	0.249579
2370.000000	0.248800
2371.000000	0.250400
2372.000000	0.250838
2373.000000	0.252117
2374.000000	0.255120
2375.000000	0.254710
2376.000000	0.255180
2377.000000	0.255653
2378.000000	0.249735
2379.000000	0.241788
2380.000000	0.234656
2381.000000	0.229010
2382.000000	0.229682
2383.000000	0.232907
2384.000000	0.237793
2385.000000	0.238327
2386.000000	0.234960
2387.000000	0.239245
2388.000000	0.243808
2389.000000	0.247647
2390.000000	0.255030
2391.000000	0.257654
2392.000000	0.256787
2393.000000	0.254779
2394.000000	0.249114
2395.000000	0.245261
2396.000000	0.241584
2397.000000	0.239690
2398.000000	0.243853
2399.000000	0.242455
2400.000000	0.237894
2401.000000	0.238171
2402.000000	0.236718
2403.000000	0.235250
2404.000000	0.236963
2405.000000	0.235196
2406.000000	0.227071
2407.000000	0.220747
2408.000000	0.219049
2409.000000	0.221580
2410.000000	0.227346
2411.000000	0.228713
2412.000000	0.226293
2413.000000	0.223314
2414.000000	0.224950
2415.000000	0.233646
2416.000000	0.240212
2417.000000	0.241547
2418.000000	0.240720
2419.000000	0.227905
2420.000000	0.220421
2421.000000	0.226018
2422.000000	0.228392
2423.000000	0.240827
2424.000000	0.247612
2425.000000	0.236036
2426.000000	0.223546
2427.000000	0.215810
2428.000000	0.209189
2429.000000	0.213910
2430.000000	0.231290
2431.000000	0.234273
2432.000000	0.229444
2433.000000	0.235352
2434.000000	0.237922
2435.000000	0.238195
2436.000000	0.252542
2437.000000	0.258474
2438.000000	0.249877
2439.000000	0.239448
2440.000000	0.228712
2441.000000	0.221104
2442.000000	0.223560
2443.000000	0.225091
2444.000000	0.224266
2445.000000	0.227059
2446.000000	0.220564
2447.000000	0.224579
2448.000000	0.234379
2449.000000	0.232225
2450.000000	0.229726
2451.000000	0.222968
2452.000000	0.208996
2453.000000	0.208745
2454.000000	0.209117
2455.000000	0.202680
2456.000000	0.210139
2457.000000	0.203415
2458.000000	0.194701
2459.000000	0.213670
2460.000000	0.226504
2461.000000	0.238554
2462.000000	0.261039
2463.000000	0.269265
2464.000000	0.258852
2465.000000	0.258064
2466.000000	0.269082
2467.000000	0.244800
2468.000000	0.231862
2469.000000	0.227756
2470.000000	0.198193
2471.000000	0.200842
2472.000000	0.200053
2473.000000	0.192240
2474.000000	0.206221
2475.000000	0.207319
2476.000000	0.210257
2477.000000	0.201723
2478.000000	0.183696
2479.000000	0.189366
2480.000000	0.192254
2481.000000	0.198477
2482.000000	0.212890
2483.000000	0.206614
2484.000000	0.230596
2485.000000	0.263652
2486.000000	0.266856
2487.000000	0.281631
2488.000000	0.267544
2489.000000	0.231396
2490.000000	0.213286
2491.000000	0.187016
2492.000000	0.160435
2493.000000	0.143420
2494.000000	0.130444
2495.000000	0.096611
2496.000000	0.087109
2497.000000	0.090265
2498.000000	0.100673
2499.000000	0.153281
2500.000000	0.184916
