# Wavelength	NAu-1-60_HEX-30_FV7-10_00001.asd.rts.txt
350.000000	0.145699
351.000000	0.117148
352.000000	0.112806
353.000000	0.114791
354.000000	0.110310
355.000000	0.101824
356.000000	0.097060
357.000000	0.098277
358.000000	0.102767
359.000000	0.109947
360.000000	0.112070
361.000000	0.103522
362.000000	0.102237
363.000000	0.106301
364.000000	0.110692
365.000000	0.107387
366.000000	0.110272
367.000000	0.117763
368.000000	0.115393
369.000000	0.112219
370.000000	0.110045
371.000000	0.108991
372.000000	0.111169
373.000000	0.112493
374.000000	0.111330
375.000000	0.112743
376.000000	0.115878
377.000000	0.118409
378.000000	0.116632
379.000000	0.114344
380.000000	0.114135
381.000000	0.117719
382.000000	0.119162
383.000000	0.119671
384.000000	0.120856
385.000000	0.122471
386.000000	0.124002
387.000000	0.125598
388.000000	0.128084
389.000000	0.129797
390.000000	0.131250
391.000000	0.133489
392.000000	0.136211
393.000000	0.137782
394.000000	0.137811
395.000000	0.140537
396.000000	0.142137
397.000000	0.142159
398.000000	0.144843
399.000000	0.147209
400.000000	0.148830
401.000000	0.150118
402.000000	0.151802
403.000000	0.153408
404.000000	0.154711
405.000000	0.156996
406.000000	0.159111
407.000000	0.160738
408.000000	0.163057
409.000000	0.164648
410.000000	0.165522
411.000000	0.166472
412.000000	0.168373
413.000000	0.170111
414.000000	0.170567
415.000000	0.171252
416.000000	0.172319
417.000000	0.173458
418.000000	0.173551
419.000000	0.173449
420.000000	0.173698
421.000000	0.174699
422.000000	0.175573
423.000000	0.175602
424.000000	0.174509
425.000000	0.174736
426.000000	0.175597
427.000000	0.176130
428.000000	0.175838
429.000000	0.175607
430.000000	0.175723
431.000000	0.175763
432.000000	0.175222
433.000000	0.174668
434.000000	0.175192
435.000000	0.175083
436.000000	0.174689
437.000000	0.174570
438.000000	0.174397
439.000000	0.174139
440.000000	0.173762
441.000000	0.172905
442.000000	0.172057
443.000000	0.171382
444.000000	0.170953
445.000000	0.170990
446.000000	0.171351
447.000000	0.171704
448.000000	0.172196
449.000000	0.173293
450.000000	0.175155
451.000000	0.177029
452.000000	0.179280
453.000000	0.181917
454.000000	0.184728
455.000000	0.187826
456.000000	0.191212
457.000000	0.194702
458.000000	0.197937
459.000000	0.200954
460.000000	0.203861
461.000000	0.206474
462.000000	0.208910
463.000000	0.211150
464.000000	0.213381
465.000000	0.215122
466.000000	0.216439
467.000000	0.217872
468.000000	0.219443
469.000000	0.220761
470.000000	0.221598
471.000000	0.222526
472.000000	0.223430
473.000000	0.224274
474.000000	0.225343
475.000000	0.226227
476.000000	0.226925
477.000000	0.227552
478.000000	0.228171
479.000000	0.228925
480.000000	0.229663
481.000000	0.230393
482.000000	0.231109
483.000000	0.231647
484.000000	0.232242
485.000000	0.233006
486.000000	0.234006
487.000000	0.234721
488.000000	0.235408
489.000000	0.236136
490.000000	0.236847
491.000000	0.237676
492.000000	0.238557
493.000000	0.239275
494.000000	0.240077
495.000000	0.240927
496.000000	0.241736
497.000000	0.242505
498.000000	0.243352
499.000000	0.244337
500.000000	0.245278
501.000000	0.246210
502.000000	0.247150
503.000000	0.248042
504.000000	0.249013
505.000000	0.249983
506.000000	0.250879
507.000000	0.251825
508.000000	0.252879
509.000000	0.253985
510.000000	0.255000
511.000000	0.255984
512.000000	0.257037
513.000000	0.258248
514.000000	0.259407
515.000000	0.260529
516.000000	0.261632
517.000000	0.262676
518.000000	0.263813
519.000000	0.265060
520.000000	0.266327
521.000000	0.267590
522.000000	0.268849
523.000000	0.270104
524.000000	0.271466
525.000000	0.272891
526.000000	0.274286
527.000000	0.275645
528.000000	0.277043
529.000000	0.278575
530.000000	0.279945
531.000000	0.281396
532.000000	0.282989
533.000000	0.284639
534.000000	0.286165
535.000000	0.287602
536.000000	0.289264
537.000000	0.290904
538.000000	0.292517
539.000000	0.294167
540.000000	0.295754
541.000000	0.297356
542.000000	0.299061
543.000000	0.300661
544.000000	0.302312
545.000000	0.303998
546.000000	0.305632
547.000000	0.307256
548.000000	0.308882
549.000000	0.310402
550.000000	0.311943
551.000000	0.313565
552.000000	0.315233
553.000000	0.316924
554.000000	0.318545
555.000000	0.320064
556.000000	0.321629
557.000000	0.323173
558.000000	0.324751
559.000000	0.326121
560.000000	0.327541
561.000000	0.329029
562.000000	0.330326
563.000000	0.331666
564.000000	0.333064
565.000000	0.334358
566.000000	0.335553
567.000000	0.336752
568.000000	0.337963
569.000000	0.339038
570.000000	0.340089
571.000000	0.341136
572.000000	0.342165
573.000000	0.343046
574.000000	0.343823
575.000000	0.344662
576.000000	0.345477
577.000000	0.346228
578.000000	0.346978
579.000000	0.347761
580.000000	0.348440
581.000000	0.348994
582.000000	0.349601
583.000000	0.350075
584.000000	0.350486
585.000000	0.351047
586.000000	0.351469
587.000000	0.351782
588.000000	0.352098
589.000000	0.352496
590.000000	0.352874
591.000000	0.353158
592.000000	0.353363
593.000000	0.353625
594.000000	0.353943
595.000000	0.354180
596.000000	0.354358
597.000000	0.354537
598.000000	0.354676
599.000000	0.354742
600.000000	0.354842
601.000000	0.354958
602.000000	0.355011
603.000000	0.355020
604.000000	0.355022
605.000000	0.355033
606.000000	0.355085
607.000000	0.355170
608.000000	0.355244
609.000000	0.355302
610.000000	0.355364
611.000000	0.355446
612.000000	0.355486
613.000000	0.355459
614.000000	0.355411
615.000000	0.355382
616.000000	0.355394
617.000000	0.355400
618.000000	0.355392
619.000000	0.355386
620.000000	0.355366
621.000000	0.355366
622.000000	0.355269
623.000000	0.355191
624.000000	0.355236
625.000000	0.355330
626.000000	0.355373
627.000000	0.355367
628.000000	0.355472
629.000000	0.355665
630.000000	0.355748
631.000000	0.355764
632.000000	0.355868
633.000000	0.356011
634.000000	0.356102
635.000000	0.356234
636.000000	0.356412
637.000000	0.356595
638.000000	0.356735
639.000000	0.356889
640.000000	0.357073
641.000000	0.357072
642.000000	0.357122
643.000000	0.357259
644.000000	0.357450
645.000000	0.357608
646.000000	0.357734
647.000000	0.357839
648.000000	0.358092
649.000000	0.358372
650.000000	0.358604
651.000000	0.358840
652.000000	0.359038
653.000000	0.359256
654.000000	0.359488
655.000000	0.359717
656.000000	0.359966
657.000000	0.360198
658.000000	0.360483
659.000000	0.360840
660.000000	0.361224
661.000000	0.361545
662.000000	0.361848
663.000000	0.362174
664.000000	0.362446
665.000000	0.362831
666.000000	0.363282
667.000000	0.363669
668.000000	0.363986
669.000000	0.364341
670.000000	0.364783
671.000000	0.365203
672.000000	0.365620
673.000000	0.366053
674.000000	0.366548
675.000000	0.367025
676.000000	0.367473
677.000000	0.367926
678.000000	0.368399
679.000000	0.368871
680.000000	0.369338
681.000000	0.369798
682.000000	0.370340
683.000000	0.370870
684.000000	0.371370
685.000000	0.371928
686.000000	0.372565
687.000000	0.373202
688.000000	0.373774
689.000000	0.374341
690.000000	0.374981
691.000000	0.375572
692.000000	0.376159
693.000000	0.376822
694.000000	0.377456
695.000000	0.378121
696.000000	0.378817
697.000000	0.379517
698.000000	0.380172
699.000000	0.380868
700.000000	0.381658
701.000000	0.382376
702.000000	0.383068
703.000000	0.383742
704.000000	0.384417
705.000000	0.385102
706.000000	0.385804
707.000000	0.386636
708.000000	0.387452
709.000000	0.388158
710.000000	0.388763
711.000000	0.389494
712.000000	0.390247
713.000000	0.391001
714.000000	0.391780
715.000000	0.392514
716.000000	0.393227
717.000000	0.393948
718.000000	0.394692
719.000000	0.395421
720.000000	0.396119
721.000000	0.396799
722.000000	0.397469
723.000000	0.398198
724.000000	0.398910
725.000000	0.399523
726.000000	0.400165
727.000000	0.400842
728.000000	0.401543
729.000000	0.402169
730.000000	0.402627
731.000000	0.403261
732.000000	0.403917
733.000000	0.404572
734.000000	0.405223
735.000000	0.405786
736.000000	0.406408
737.000000	0.406997
738.000000	0.407572
739.000000	0.408206
740.000000	0.408715
741.000000	0.409174
742.000000	0.409599
743.000000	0.409989
744.000000	0.410436
745.000000	0.410852
746.000000	0.411285
747.000000	0.411695
748.000000	0.412166
749.000000	0.412617
750.000000	0.412959
751.000000	0.413283
752.000000	0.413583
753.000000	0.413878
754.000000	0.414172
755.000000	0.414496
756.000000	0.414806
757.000000	0.414998
758.000000	0.415192
759.000000	0.415426
760.000000	0.415609
761.000000	0.415768
762.000000	0.415920
763.000000	0.416073
764.000000	0.416323
765.000000	0.416418
766.000000	0.416444
767.000000	0.416514
768.000000	0.416559
769.000000	0.416554
770.000000	0.416519
771.000000	0.416533
772.000000	0.416565
773.000000	0.416504
774.000000	0.416395
775.000000	0.416301
776.000000	0.416216
777.000000	0.416093
778.000000	0.415908
779.000000	0.415724
780.000000	0.415563
781.000000	0.415384
782.000000	0.415186
783.000000	0.415078
784.000000	0.414924
785.000000	0.414717
786.000000	0.414432
787.000000	0.414099
788.000000	0.413885
789.000000	0.413597
790.000000	0.413247
791.000000	0.412998
792.000000	0.412678
793.000000	0.412317
794.000000	0.411947
795.000000	0.411427
796.000000	0.410974
797.000000	0.410628
798.000000	0.410262
799.000000	0.409852
800.000000	0.409386
801.000000	0.408886
802.000000	0.408439
803.000000	0.407987
804.000000	0.407542
805.000000	0.407086
806.000000	0.406592
807.000000	0.406166
808.000000	0.405765
809.000000	0.405304
810.000000	0.404799
811.000000	0.404270
812.000000	0.403781
813.000000	0.403270
814.000000	0.402744
815.000000	0.402292
816.000000	0.401808
817.000000	0.401298
818.000000	0.400699
819.000000	0.400190
820.000000	0.399739
821.000000	0.399260
822.000000	0.398795
823.000000	0.398343
824.000000	0.397835
825.000000	0.397341
826.000000	0.396817
827.000000	0.396335
828.000000	0.395960
829.000000	0.395518
830.000000	0.394982
831.000000	0.394426
832.000000	0.393787
833.000000	0.393240
834.000000	0.392726
835.000000	0.392217
836.000000	0.391727
837.000000	0.391214
838.000000	0.390712
839.000000	0.390254
840.000000	0.389749
841.000000	0.389244
842.000000	0.388745
843.000000	0.388239
844.000000	0.387778
845.000000	0.387349
846.000000	0.386962
847.000000	0.386619
848.000000	0.386229
849.000000	0.385753
850.000000	0.385257
851.000000	0.384732
852.000000	0.384237
853.000000	0.383792
854.000000	0.383314
855.000000	0.382890
856.000000	0.382407
857.000000	0.381800
858.000000	0.381392
859.000000	0.381169
860.000000	0.380839
861.000000	0.380461
862.000000	0.380072
863.000000	0.379618
864.000000	0.379160
865.000000	0.378738
866.000000	0.378394
867.000000	0.378108
868.000000	0.377761
869.000000	0.377313
870.000000	0.376906
871.000000	0.376496
872.000000	0.376108
873.000000	0.375706
874.000000	0.375399
875.000000	0.375007
876.000000	0.374598
877.000000	0.374256
878.000000	0.373996
879.000000	0.373822
880.000000	0.373529
881.000000	0.373105
882.000000	0.372785
883.000000	0.372547
884.000000	0.372201
885.000000	0.371990
886.000000	0.371778
887.000000	0.371530
888.000000	0.371366
889.000000	0.371178
890.000000	0.370897
891.000000	0.370725
892.000000	0.370487
893.000000	0.370169
894.000000	0.369947
895.000000	0.369821
896.000000	0.369565
897.000000	0.369304
898.000000	0.369227
899.000000	0.369095
900.000000	0.368901
901.000000	0.368649
902.000000	0.368489
903.000000	0.368305
904.000000	0.368202
905.000000	0.368149
906.000000	0.367963
907.000000	0.367770
908.000000	0.367647
909.000000	0.367396
910.000000	0.367276
911.000000	0.367211
912.000000	0.367080
913.000000	0.366803
914.000000	0.366490
915.000000	0.366278
916.000000	0.366117
917.000000	0.366000
918.000000	0.365993
919.000000	0.366039
920.000000	0.365840
921.000000	0.365654
922.000000	0.365572
923.000000	0.365551
924.000000	0.365522
925.000000	0.365397
926.000000	0.365224
927.000000	0.365131
928.000000	0.365289
929.000000	0.365427
930.000000	0.365226
931.000000	0.364983
932.000000	0.364834
933.000000	0.364820
934.000000	0.364763
935.000000	0.364743
936.000000	0.364804
937.000000	0.364803
938.000000	0.364565
939.000000	0.364533
940.000000	0.364583
941.000000	0.364484
942.000000	0.364523
943.000000	0.364698
944.000000	0.364822
945.000000	0.364979
946.000000	0.364936
947.000000	0.364872
948.000000	0.364934
949.000000	0.364865
950.000000	0.364863
951.000000	0.364948
952.000000	0.365083
953.000000	0.364828
954.000000	0.364557
955.000000	0.364494
956.000000	0.364410
957.000000	0.364466
958.000000	0.364643
959.000000	0.364946
960.000000	0.364941
961.000000	0.364957
962.000000	0.365095
963.000000	0.365202
964.000000	0.365337
965.000000	0.365338
966.000000	0.365073
967.000000	0.365267
968.000000	0.365446
969.000000	0.365417
970.000000	0.365334
971.000000	0.365508
972.000000	0.365724
973.000000	0.365868
974.000000	0.366233
975.000000	0.366278
976.000000	0.366233
977.000000	0.366391
978.000000	0.366767
979.000000	0.367010
980.000000	0.366968
981.000000	0.367177
982.000000	0.367528
983.000000	0.367718
984.000000	0.367830
985.000000	0.368162
986.000000	0.368525
987.000000	0.368871
988.000000	0.369033
989.000000	0.369013
990.000000	0.369212
991.000000	0.369484
992.000000	0.369672
993.000000	0.370297
994.000000	0.370669
995.000000	0.370930
996.000000	0.371327
997.000000	0.371692
998.000000	0.371814
999.000000	0.371838
1000.000000	0.372101
1001.000000	0.371832
1002.000000	0.371906
1003.000000	0.372015
1004.000000	0.372263
1005.000000	0.372156
1006.000000	0.372406
1007.000000	0.373058
1008.000000	0.374024
1009.000000	0.374156
1010.000000	0.373839
1011.000000	0.374226
1012.000000	0.374794
1013.000000	0.374404
1014.000000	0.374987
1015.000000	0.375534
1016.000000	0.375182
1017.000000	0.375564
1018.000000	0.376363
1019.000000	0.377114
1020.000000	0.377810
1021.000000	0.378202
1022.000000	0.379346
1023.000000	0.379935
1024.000000	0.379574
1025.000000	0.380087
1026.000000	0.380502
1027.000000	0.380470
1028.000000	0.380832
1029.000000	0.380851
1030.000000	0.381036
1031.000000	0.382093
1032.000000	0.382968
1033.000000	0.383506
1034.000000	0.384102
1035.000000	0.384321
1036.000000	0.384687
1037.000000	0.385322
1038.000000	0.385712
1039.000000	0.386065
1040.000000	0.386505
1041.000000	0.386820
1042.000000	0.387493
1043.000000	0.388408
1044.000000	0.389102
1045.000000	0.389513
1046.000000	0.389696
1047.000000	0.390288
1048.000000	0.390904
1049.000000	0.391451
1050.000000	0.392121
1051.000000	0.392930
1052.000000	0.393808
1053.000000	0.394187
1054.000000	0.394769
1055.000000	0.395477
1056.000000	0.396017
1057.000000	0.396161
1058.000000	0.397083
1059.000000	0.397828
1060.000000	0.398167
1061.000000	0.399258
1062.000000	0.399972
1063.000000	0.400230
1064.000000	0.400742
1065.000000	0.401005
1066.000000	0.401495
1067.000000	0.402132
1068.000000	0.402771
1069.000000	0.403397
1070.000000	0.404042
1071.000000	0.405063
1072.000000	0.405630
1073.000000	0.405802
1074.000000	0.406356
1075.000000	0.407217
1076.000000	0.407729
1077.000000	0.408393
1078.000000	0.409140
1079.000000	0.409843
1080.000000	0.410280
1081.000000	0.410946
1082.000000	0.412182
1083.000000	0.412855
1084.000000	0.413066
1085.000000	0.413673
1086.000000	0.414292
1087.000000	0.414880
1088.000000	0.415437
1089.000000	0.416213
1090.000000	0.417108
1091.000000	0.417733
1092.000000	0.418910
1093.000000	0.419694
1094.000000	0.420276
1095.000000	0.420328
1096.000000	0.420968
1097.000000	0.421632
1098.000000	0.422480
1099.000000	0.423573
1100.000000	0.424655
1101.000000	0.425925
1102.000000	0.426737
1103.000000	0.427280
1104.000000	0.428011
1105.000000	0.428519
1106.000000	0.429089
1107.000000	0.429763
1108.000000	0.430431
1109.000000	0.431233
1110.000000	0.431620
1111.000000	0.432386
1112.000000	0.433300
1113.000000	0.434251
1114.000000	0.435508
1115.000000	0.436242
1116.000000	0.436761
1117.000000	0.437419
1118.000000	0.437764
1119.000000	0.438240
1120.000000	0.438962
1121.000000	0.439554
1122.000000	0.440010
1123.000000	0.440905
1124.000000	0.441811
1125.000000	0.442620
1126.000000	0.443454
1127.000000	0.444148
1128.000000	0.444733
1129.000000	0.445152
1130.000000	0.445765
1131.000000	0.446364
1132.000000	0.447043
1133.000000	0.448039
1134.000000	0.448667
1135.000000	0.449038
1136.000000	0.449547
1137.000000	0.449942
1138.000000	0.450296
1139.000000	0.450809
1140.000000	0.451414
1141.000000	0.451782
1142.000000	0.452376
1143.000000	0.453228
1144.000000	0.454027
1145.000000	0.454734
1146.000000	0.455079
1147.000000	0.455568
1148.000000	0.455796
1149.000000	0.456218
1150.000000	0.456792
1151.000000	0.457231
1152.000000	0.457459
1153.000000	0.457962
1154.000000	0.458451
1155.000000	0.458998
1156.000000	0.459879
1157.000000	0.460433
1158.000000	0.460651
1159.000000	0.461082
1160.000000	0.461448
1161.000000	0.461861
1162.000000	0.462406
1163.000000	0.463313
1164.000000	0.463791
1165.000000	0.464233
1166.000000	0.464767
1167.000000	0.465143
1168.000000	0.465648
1169.000000	0.466346
1170.000000	0.466961
1171.000000	0.467699
1172.000000	0.468320
1173.000000	0.468820
1174.000000	0.469309
1175.000000	0.469645
1176.000000	0.470052
1177.000000	0.470593
1178.000000	0.471109
1179.000000	0.471683
1180.000000	0.472099
1181.000000	0.472537
1182.000000	0.472995
1183.000000	0.473456
1184.000000	0.474003
1185.000000	0.474493
1186.000000	0.475025
1187.000000	0.475466
1188.000000	0.475807
1189.000000	0.476193
1190.000000	0.476709
1191.000000	0.477103
1192.000000	0.477600
1193.000000	0.478167
1194.000000	0.478497
1195.000000	0.478861
1196.000000	0.479170
1197.000000	0.479535
1198.000000	0.479961
1199.000000	0.480351
1200.000000	0.480734
1201.000000	0.481091
1202.000000	0.481580
1203.000000	0.481968
1204.000000	0.482362
1205.000000	0.482922
1206.000000	0.483260
1207.000000	0.483584
1208.000000	0.483825
1209.000000	0.484021
1210.000000	0.484355
1211.000000	0.484752
1212.000000	0.485032
1213.000000	0.485421
1214.000000	0.485760
1215.000000	0.485916
1216.000000	0.486170
1217.000000	0.486413
1218.000000	0.486725
1219.000000	0.487120
1220.000000	0.487533
1221.000000	0.487979
1222.000000	0.488438
1223.000000	0.488700
1224.000000	0.488827
1225.000000	0.488910
1226.000000	0.489009
1227.000000	0.489266
1228.000000	0.489602
1229.000000	0.489825
1230.000000	0.490102
1231.000000	0.490200
1232.000000	0.490233
1233.000000	0.490589
1234.000000	0.491098
1235.000000	0.491359
1236.000000	0.491527
1237.000000	0.491777
1238.000000	0.491726
1239.000000	0.491873
1240.000000	0.492271
1241.000000	0.492521
1242.000000	0.492553
1243.000000	0.492668
1244.000000	0.492842
1245.000000	0.493088
1246.000000	0.493398
1247.000000	0.493830
1248.000000	0.494256
1249.000000	0.494692
1250.000000	0.495132
1251.000000	0.495550
1252.000000	0.495826
1253.000000	0.495966
1254.000000	0.496144
1255.000000	0.496269
1256.000000	0.496398
1257.000000	0.496481
1258.000000	0.496759
1259.000000	0.497022
1260.000000	0.497341
1261.000000	0.497794
1262.000000	0.498060
1263.000000	0.498239
1264.000000	0.498378
1265.000000	0.498546
1266.000000	0.498748
1267.000000	0.498948
1268.000000	0.499044
1269.000000	0.499176
1270.000000	0.499376
1271.000000	0.499322
1272.000000	0.499403
1273.000000	0.499608
1274.000000	0.499472
1275.000000	0.499447
1276.000000	0.499579
1277.000000	0.499823
1278.000000	0.499871
1279.000000	0.499980
1280.000000	0.500235
1281.000000	0.500254
1282.000000	0.500140
1283.000000	0.500335
1284.000000	0.500497
1285.000000	0.500595
1286.000000	0.500759
1287.000000	0.500820
1288.000000	0.500828
1289.000000	0.501026
1290.000000	0.501079
1291.000000	0.501133
1292.000000	0.501281
1293.000000	0.501258
1294.000000	0.501209
1295.000000	0.501266
1296.000000	0.501286
1297.000000	0.501232
1298.000000	0.501226
1299.000000	0.501330
1300.000000	0.501486
1301.000000	0.501470
1302.000000	0.501362
1303.000000	0.501378
1304.000000	0.501288
1305.000000	0.501211
1306.000000	0.501103
1307.000000	0.501092
1308.000000	0.501063
1309.000000	0.500954
1310.000000	0.500846
1311.000000	0.500775
1312.000000	0.500681
1313.000000	0.500648
1314.000000	0.500478
1315.000000	0.500387
1316.000000	0.500250
1317.000000	0.499864
1318.000000	0.499641
1319.000000	0.499398
1320.000000	0.499160
1321.000000	0.499127
1322.000000	0.498931
1323.000000	0.498696
1324.000000	0.498697
1325.000000	0.498375
1326.000000	0.498101
1327.000000	0.498045
1328.000000	0.497820
1329.000000	0.497517
1330.000000	0.497219
1331.000000	0.496929
1332.000000	0.496662
1333.000000	0.496382
1334.000000	0.496215
1335.000000	0.496082
1336.000000	0.495823
1337.000000	0.495650
1338.000000	0.495505
1339.000000	0.495362
1340.000000	0.495200
1341.000000	0.495093
1342.000000	0.494868
1343.000000	0.494655
1344.000000	0.494420
1345.000000	0.494136
1346.000000	0.494027
1347.000000	0.493690
1348.000000	0.493455
1349.000000	0.493131
1350.000000	0.492681
1351.000000	0.492344
1352.000000	0.492041
1353.000000	0.491617
1354.000000	0.491173
1355.000000	0.490709
1356.000000	0.490296
1357.000000	0.489932
1358.000000	0.489635
1359.000000	0.489314
1360.000000	0.489036
1361.000000	0.488806
1362.000000	0.488531
1363.000000	0.488280
1364.000000	0.488036
1365.000000	0.487771
1366.000000	0.487465
1367.000000	0.487171
1368.000000	0.486691
1369.000000	0.486318
1370.000000	0.485695
1371.000000	0.484955
1372.000000	0.484212
1373.000000	0.483366
1374.000000	0.482499
1375.000000	0.481645
1376.000000	0.480902
1377.000000	0.480090
1378.000000	0.478968
1379.000000	0.477561
1380.000000	0.476201
1381.000000	0.474709
1382.000000	0.473130
1383.000000	0.471546
1384.000000	0.469586
1385.000000	0.467507
1386.000000	0.465523
1387.000000	0.463452
1388.000000	0.461149
1389.000000	0.458725
1390.000000	0.456300
1391.000000	0.453821
1392.000000	0.451514
1393.000000	0.449027
1394.000000	0.446558
1395.000000	0.444062
1396.000000	0.441480
1397.000000	0.438713
1398.000000	0.435862
1399.000000	0.433088
1400.000000	0.430096
1401.000000	0.427302
1402.000000	0.424766
1403.000000	0.422021
1404.000000	0.419478
1405.000000	0.416750
1406.000000	0.413892
1407.000000	0.411298
1408.000000	0.408521
1409.000000	0.405997
1410.000000	0.403886
1411.000000	0.401715
1412.000000	0.399531
1413.000000	0.397580
1414.000000	0.395776
1415.000000	0.394156
1416.000000	0.392918
1417.000000	0.391876
1418.000000	0.390759
1419.000000	0.389908
1420.000000	0.389149
1421.000000	0.388473
1422.000000	0.387834
1423.000000	0.387168
1424.000000	0.386327
1425.000000	0.385367
1426.000000	0.384192
1427.000000	0.382932
1428.000000	0.381757
1429.000000	0.380483
1430.000000	0.379369
1431.000000	0.378669
1432.000000	0.377993
1433.000000	0.377362
1434.000000	0.377062
1435.000000	0.377017
1436.000000	0.377257
1437.000000	0.377791
1438.000000	0.378517
1439.000000	0.379592
1440.000000	0.380771
1441.000000	0.382231
1442.000000	0.383742
1443.000000	0.385382
1444.000000	0.386975
1445.000000	0.388410
1446.000000	0.389744
1447.000000	0.391082
1448.000000	0.392241
1449.000000	0.393276
1450.000000	0.394150
1451.000000	0.394733
1452.000000	0.395121
1453.000000	0.395478
1454.000000	0.395738
1455.000000	0.395919
1456.000000	0.396156
1457.000000	0.396306
1458.000000	0.396408
1459.000000	0.396483
1460.000000	0.396418
1461.000000	0.396405
1462.000000	0.396463
1463.000000	0.396489
1464.000000	0.396679
1465.000000	0.396954
1466.000000	0.397020
1467.000000	0.397124
1468.000000	0.397376
1469.000000	0.397674
1470.000000	0.398027
1471.000000	0.398593
1472.000000	0.399125
1473.000000	0.399623
1474.000000	0.400331
1475.000000	0.401091
1476.000000	0.401695
1477.000000	0.402460
1478.000000	0.403238
1479.000000	0.403932
1480.000000	0.404783
1481.000000	0.405541
1482.000000	0.406308
1483.000000	0.407078
1484.000000	0.407826
1485.000000	0.408634
1486.000000	0.409516
1487.000000	0.410306
1488.000000	0.411035
1489.000000	0.411865
1490.000000	0.412487
1491.000000	0.413306
1492.000000	0.414334
1493.000000	0.415201
1494.000000	0.415968
1495.000000	0.416708
1496.000000	0.417292
1497.000000	0.418028
1498.000000	0.418834
1499.000000	0.419726
1500.000000	0.420521
1501.000000	0.421138
1502.000000	0.421645
1503.000000	0.422111
1504.000000	0.422663
1505.000000	0.423308
1506.000000	0.423870
1507.000000	0.424371
1508.000000	0.424975
1509.000000	0.425559
1510.000000	0.426224
1511.000000	0.426928
1512.000000	0.427455
1513.000000	0.427938
1514.000000	0.428362
1515.000000	0.428726
1516.000000	0.429151
1517.000000	0.429474
1518.000000	0.429847
1519.000000	0.430207
1520.000000	0.430537
1521.000000	0.430983
1522.000000	0.431551
1523.000000	0.431983
1524.000000	0.432289
1525.000000	0.432664
1526.000000	0.432938
1527.000000	0.433239
1528.000000	0.433720
1529.000000	0.434183
1530.000000	0.434504
1531.000000	0.434940
1532.000000	0.435326
1533.000000	0.435570
1534.000000	0.435897
1535.000000	0.436232
1536.000000	0.436498
1537.000000	0.436903
1538.000000	0.437294
1539.000000	0.437477
1540.000000	0.437693
1541.000000	0.438016
1542.000000	0.438191
1543.000000	0.438347
1544.000000	0.438609
1545.000000	0.438890
1546.000000	0.439182
1547.000000	0.439481
1548.000000	0.439730
1549.000000	0.439899
1550.000000	0.440040
1551.000000	0.440190
1552.000000	0.440350
1553.000000	0.440531
1554.000000	0.440700
1555.000000	0.440831
1556.000000	0.441043
1557.000000	0.441256
1558.000000	0.441398
1559.000000	0.441405
1560.000000	0.441540
1561.000000	0.441711
1562.000000	0.441781
1563.000000	0.441990
1564.000000	0.442120
1565.000000	0.442059
1566.000000	0.442114
1567.000000	0.442419
1568.000000	0.442557
1569.000000	0.442757
1570.000000	0.442930
1571.000000	0.443020
1572.000000	0.443032
1573.000000	0.443058
1574.000000	0.443064
1575.000000	0.442945
1576.000000	0.442999
1577.000000	0.443107
1578.000000	0.443172
1579.000000	0.443423
1580.000000	0.443570
1581.000000	0.443754
1582.000000	0.443876
1583.000000	0.443923
1584.000000	0.443897
1585.000000	0.443921
1586.000000	0.444012
1587.000000	0.444031
1588.000000	0.444185
1589.000000	0.444521
1590.000000	0.444755
1591.000000	0.445041
1592.000000	0.445249
1593.000000	0.445444
1594.000000	0.445548
1595.000000	0.445659
1596.000000	0.445790
1597.000000	0.445935
1598.000000	0.445987
1599.000000	0.446048
1600.000000	0.446055
1601.000000	0.446019
1602.000000	0.446076
1603.000000	0.446283
1604.000000	0.446351
1605.000000	0.446414
1606.000000	0.446477
1607.000000	0.446543
1608.000000	0.446587
1609.000000	0.446739
1610.000000	0.446788
1611.000000	0.446787
1612.000000	0.446787
1613.000000	0.446908
1614.000000	0.446973
1615.000000	0.447037
1616.000000	0.447219
1617.000000	0.447404
1618.000000	0.447550
1619.000000	0.447737
1620.000000	0.447875
1621.000000	0.447956
1622.000000	0.448154
1623.000000	0.448374
1624.000000	0.448592
1625.000000	0.448660
1626.000000	0.448750
1627.000000	0.448818
1628.000000	0.449011
1629.000000	0.449312
1630.000000	0.449511
1631.000000	0.449648
1632.000000	0.449726
1633.000000	0.449621
1634.000000	0.449827
1635.000000	0.450297
1636.000000	0.450524
1637.000000	0.450854
1638.000000	0.450975
1639.000000	0.450918
1640.000000	0.450976
1641.000000	0.451097
1642.000000	0.451246
1643.000000	0.451489
1644.000000	0.451647
1645.000000	0.451864
1646.000000	0.451943
1647.000000	0.451850
1648.000000	0.451951
1649.000000	0.452206
1650.000000	0.452485
1651.000000	0.453041
1652.000000	0.453372
1653.000000	0.453504
1654.000000	0.453735
1655.000000	0.453828
1656.000000	0.453912
1657.000000	0.454120
1658.000000	0.454349
1659.000000	0.454715
1660.000000	0.455024
1661.000000	0.455257
1662.000000	0.455487
1663.000000	0.455611
1664.000000	0.455860
1665.000000	0.456185
1666.000000	0.456517
1667.000000	0.456751
1668.000000	0.457004
1669.000000	0.457228
1670.000000	0.457413
1671.000000	0.457708
1672.000000	0.458130
1673.000000	0.458600
1674.000000	0.458792
1675.000000	0.459154
1676.000000	0.459339
1677.000000	0.459412
1678.000000	0.459558
1679.000000	0.459681
1680.000000	0.459687
1681.000000	0.459594
1682.000000	0.459700
1683.000000	0.459858
1684.000000	0.459926
1685.000000	0.460143
1686.000000	0.460273
1687.000000	0.460456
1688.000000	0.460664
1689.000000	0.460796
1690.000000	0.460812
1691.000000	0.460850
1692.000000	0.460842
1693.000000	0.460817
1694.000000	0.460820
1695.000000	0.460984
1696.000000	0.460926
1697.000000	0.460883
1698.000000	0.460993
1699.000000	0.460999
1700.000000	0.460890
1701.000000	0.461027
1702.000000	0.460928
1703.000000	0.460881
1704.000000	0.461108
1705.000000	0.461318
1706.000000	0.461666
1707.000000	0.461868
1708.000000	0.461980
1709.000000	0.462036
1710.000000	0.462113
1711.000000	0.462161
1712.000000	0.462265
1713.000000	0.462315
1714.000000	0.462325
1715.000000	0.462344
1716.000000	0.462356
1717.000000	0.462405
1718.000000	0.462435
1719.000000	0.462411
1720.000000	0.462460
1721.000000	0.462503
1722.000000	0.462463
1723.000000	0.462531
1724.000000	0.462821
1725.000000	0.462904
1726.000000	0.462771
1727.000000	0.462702
1728.000000	0.462392
1729.000000	0.462252
1730.000000	0.462468
1731.000000	0.462467
1732.000000	0.462469
1733.000000	0.462520
1734.000000	0.462262
1735.000000	0.462259
1736.000000	0.462323
1737.000000	0.462441
1738.000000	0.462753
1739.000000	0.462820
1740.000000	0.462815
1741.000000	0.462796
1742.000000	0.462584
1743.000000	0.462762
1744.000000	0.463164
1745.000000	0.463223
1746.000000	0.463272
1747.000000	0.463269
1748.000000	0.463190
1749.000000	0.463264
1750.000000	0.463234
1751.000000	0.463186
1752.000000	0.463297
1753.000000	0.463333
1754.000000	0.463329
1755.000000	0.463225
1756.000000	0.463146
1757.000000	0.463109
1758.000000	0.462993
1759.000000	0.462772
1760.000000	0.462641
1761.000000	0.462374
1762.000000	0.462223
1763.000000	0.462293
1764.000000	0.462257
1765.000000	0.462109
1766.000000	0.462087
1767.000000	0.461938
1768.000000	0.461887
1769.000000	0.462156
1770.000000	0.462291
1771.000000	0.462327
1772.000000	0.462404
1773.000000	0.462385
1774.000000	0.462375
1775.000000	0.462533
1776.000000	0.462514
1777.000000	0.462262
1778.000000	0.462214
1779.000000	0.462169
1780.000000	0.462165
1781.000000	0.462210
1782.000000	0.462302
1783.000000	0.462461
1784.000000	0.462733
1785.000000	0.462818
1786.000000	0.462798
1787.000000	0.463101
1788.000000	0.463254
1789.000000	0.463274
1790.000000	0.463349
1791.000000	0.463377
1792.000000	0.463664
1793.000000	0.463756
1794.000000	0.463626
1795.000000	0.463734
1796.000000	0.463875
1797.000000	0.463998
1798.000000	0.464339
1799.000000	0.464472
1800.000000	0.464466
1801.000000	0.464404
1802.000000	0.464488
1803.000000	0.464385
1804.000000	0.464894
1805.000000	0.465460
1806.000000	0.466262
1807.000000	0.468467
1808.000000	0.469068
1809.000000	0.468591
1810.000000	0.468535
1811.000000	0.468323
1812.000000	0.467301
1813.000000	0.467158
1814.000000	0.467738
1815.000000	0.467664
1816.000000	0.467241
1817.000000	0.467099
1818.000000	0.466511
1819.000000	0.467440
1820.000000	0.468217
1821.000000	0.467887
1822.000000	0.467505
1823.000000	0.465981
1824.000000	0.465383
1825.000000	0.464864
1826.000000	0.464685
1827.000000	0.464672
1828.000000	0.465259
1829.000000	0.465382
1830.000000	0.464796
1831.000000	0.464557
1832.000000	0.464033
1833.000000	0.464200
1834.000000	0.465017
1835.000000	0.465101
1836.000000	0.464782
1837.000000	0.464703
1838.000000	0.464101
1839.000000	0.464042
1840.000000	0.463868
1841.000000	0.463888
1842.000000	0.463361
1843.000000	0.461983
1844.000000	0.461437
1845.000000	0.461094
1846.000000	0.460577
1847.000000	0.460240
1848.000000	0.459248
1849.000000	0.458454
1850.000000	0.457469
1851.000000	0.456854
1852.000000	0.456557
1853.000000	0.455891
1854.000000	0.455069
1855.000000	0.454083
1856.000000	0.452672
1857.000000	0.451508
1858.000000	0.450318
1859.000000	0.448746
1860.000000	0.446771
1861.000000	0.445480
1862.000000	0.444058
1863.000000	0.442900
1864.000000	0.441260
1865.000000	0.439845
1866.000000	0.437632
1867.000000	0.434573
1868.000000	0.431734
1869.000000	0.428762
1870.000000	0.425425
1871.000000	0.421711
1872.000000	0.417968
1873.000000	0.414451
1874.000000	0.410496
1875.000000	0.407034
1876.000000	0.404023
1877.000000	0.400465
1878.000000	0.395736
1879.000000	0.391649
1880.000000	0.387275
1881.000000	0.382467
1882.000000	0.378445
1883.000000	0.373551
1884.000000	0.368230
1885.000000	0.362179
1886.000000	0.355849
1887.000000	0.348691
1888.000000	0.341708
1889.000000	0.334807
1890.000000	0.327879
1891.000000	0.320787
1892.000000	0.313775
1893.000000	0.306807
1894.000000	0.299704
1895.000000	0.292598
1896.000000	0.285678
1897.000000	0.279008
1898.000000	0.272067
1899.000000	0.265526
1900.000000	0.259838
1901.000000	0.253930
1902.000000	0.248434
1903.000000	0.244086
1904.000000	0.239980
1905.000000	0.236277
1906.000000	0.232850
1907.000000	0.230070
1908.000000	0.226808
1909.000000	0.224281
1910.000000	0.222737
1911.000000	0.221140
1912.000000	0.220109
1913.000000	0.219042
1914.000000	0.217651
1915.000000	0.216661
1916.000000	0.216078
1917.000000	0.215472
1918.000000	0.215107
1919.000000	0.214928
1920.000000	0.214942
1921.000000	0.215550
1922.000000	0.216324
1923.000000	0.217059
1924.000000	0.217776
1925.000000	0.217876
1926.000000	0.218351
1927.000000	0.219001
1928.000000	0.219227
1929.000000	0.219261
1930.000000	0.219525
1931.000000	0.219446
1932.000000	0.219382
1933.000000	0.220478
1934.000000	0.221676
1935.000000	0.222513
1936.000000	0.223550
1937.000000	0.224092
1938.000000	0.224253
1939.000000	0.224724
1940.000000	0.225392
1941.000000	0.226065
1942.000000	0.226644
1943.000000	0.227364
1944.000000	0.227741
1945.000000	0.228048
1946.000000	0.228789
1947.000000	0.228912
1948.000000	0.228504
1949.000000	0.228306
1950.000000	0.227710
1951.000000	0.227215
1952.000000	0.226659
1953.000000	0.226731
1954.000000	0.226997
1955.000000	0.226859
1956.000000	0.226781
1957.000000	0.227176
1958.000000	0.227603
1959.000000	0.228372
1960.000000	0.228957
1961.000000	0.229594
1962.000000	0.230228
1963.000000	0.230845
1964.000000	0.231002
1965.000000	0.231342
1966.000000	0.231683
1967.000000	0.231360
1968.000000	0.231355
1969.000000	0.231598
1970.000000	0.231421
1971.000000	0.231554
1972.000000	0.231917
1973.000000	0.232230
1974.000000	0.232925
1975.000000	0.233604
1976.000000	0.234426
1977.000000	0.234838
1978.000000	0.235365
1979.000000	0.235907
1980.000000	0.236561
1981.000000	0.237733
1982.000000	0.238901
1983.000000	0.240183
1984.000000	0.241091
1985.000000	0.241277
1986.000000	0.242084
1987.000000	0.243173
1988.000000	0.244374
1989.000000	0.244862
1990.000000	0.246432
1991.000000	0.247725
1992.000000	0.248530
1993.000000	0.250371
1994.000000	0.251422
1995.000000	0.251930
1996.000000	0.252837
1997.000000	0.253699
1998.000000	0.254717
1999.000000	0.255705
2000.000000	0.256788
2001.000000	0.257532
2002.000000	0.258561
2003.000000	0.259706
2004.000000	0.261655
2005.000000	0.263207
2006.000000	0.264251
2007.000000	0.265440
2008.000000	0.266665
2009.000000	0.267560
2010.000000	0.268799
2011.000000	0.270212
2012.000000	0.271515
2013.000000	0.272699
2014.000000	0.273837
2015.000000	0.275203
2016.000000	0.277004
2017.000000	0.278521
2018.000000	0.280016
2019.000000	0.281137
2020.000000	0.281981
2021.000000	0.283592
2022.000000	0.285784
2023.000000	0.287264
2024.000000	0.289311
2025.000000	0.290823
2026.000000	0.291588
2027.000000	0.291721
2028.000000	0.292741
2029.000000	0.293706
2030.000000	0.294654
2031.000000	0.296276
2032.000000	0.298138
2033.000000	0.299449
2034.000000	0.300668
2035.000000	0.301835
2036.000000	0.302952
2037.000000	0.304196
2038.000000	0.305117
2039.000000	0.306060
2040.000000	0.306770
2041.000000	0.306737
2042.000000	0.307031
2043.000000	0.308059
2044.000000	0.308674
2045.000000	0.309687
2046.000000	0.310610
2047.000000	0.311578
2048.000000	0.312277
2049.000000	0.313691
2050.000000	0.315443
2051.000000	0.316542
2052.000000	0.317286
2053.000000	0.318062
2054.000000	0.318492
2055.000000	0.319634
2056.000000	0.320940
2057.000000	0.322854
2058.000000	0.324559
2059.000000	0.325929
2060.000000	0.327117
2061.000000	0.328035
2062.000000	0.328810
2063.000000	0.329364
2064.000000	0.329839
2065.000000	0.330557
2066.000000	0.331186
2067.000000	0.331965
2068.000000	0.332551
2069.000000	0.333972
2070.000000	0.334499
2071.000000	0.334705
2072.000000	0.335901
2073.000000	0.336241
2074.000000	0.336600
2075.000000	0.337504
2076.000000	0.338998
2077.000000	0.339899
2078.000000	0.340851
2079.000000	0.341738
2080.000000	0.342458
2081.000000	0.343116
2082.000000	0.343808
2083.000000	0.344580
2084.000000	0.344900
2085.000000	0.345040
2086.000000	0.345392
2087.000000	0.345828
2088.000000	0.347020
2089.000000	0.348684
2090.000000	0.350096
2091.000000	0.352396
2092.000000	0.353528
2093.000000	0.353785
2094.000000	0.354292
2095.000000	0.353971
2096.000000	0.354602
2097.000000	0.355654
2098.000000	0.356917
2099.000000	0.358236
2100.000000	0.359822
2101.000000	0.360597
2102.000000	0.361130
2103.000000	0.362618
2104.000000	0.363172
2105.000000	0.363607
2106.000000	0.364045
2107.000000	0.364529
2108.000000	0.364344
2109.000000	0.364768
2110.000000	0.365095
2111.000000	0.365926
2112.000000	0.367401
2113.000000	0.367907
2114.000000	0.368585
2115.000000	0.369983
2116.000000	0.369853
2117.000000	0.369286
2118.000000	0.369407
2119.000000	0.369488
2120.000000	0.369973
2121.000000	0.371292
2122.000000	0.371773
2123.000000	0.372067
2124.000000	0.372164
2125.000000	0.371278
2126.000000	0.371440
2127.000000	0.372389
2128.000000	0.373086
2129.000000	0.374102
2130.000000	0.375128
2131.000000	0.375232
2132.000000	0.374257
2133.000000	0.373342
2134.000000	0.373303
2135.000000	0.373277
2136.000000	0.373964
2137.000000	0.374295
2138.000000	0.374799
2139.000000	0.375037
2140.000000	0.375037
2141.000000	0.374858
2142.000000	0.374646
2143.000000	0.373991
2144.000000	0.372895
2145.000000	0.372804
2146.000000	0.373269
2147.000000	0.373688
2148.000000	0.374189
2149.000000	0.374454
2150.000000	0.374429
2151.000000	0.373591
2152.000000	0.373955
2153.000000	0.374144
2154.000000	0.373967
2155.000000	0.373809
2156.000000	0.373614
2157.000000	0.372783
2158.000000	0.372725
2159.000000	0.373380
2160.000000	0.373762
2161.000000	0.374163
2162.000000	0.374618
2163.000000	0.375238
2164.000000	0.375069
2165.000000	0.373914
2166.000000	0.374194
2167.000000	0.374137
2168.000000	0.374159
2169.000000	0.375361
2170.000000	0.375908
2171.000000	0.376559
2172.000000	0.377262
2173.000000	0.377436
2174.000000	0.377673
2175.000000	0.377244
2176.000000	0.375458
2177.000000	0.374777
2178.000000	0.374526
2179.000000	0.374152
2180.000000	0.374562
2181.000000	0.374459
2182.000000	0.373041
2183.000000	0.371552
2184.000000	0.371309
2185.000000	0.370508
2186.000000	0.370290
2187.000000	0.370614
2188.000000	0.370759
2189.000000	0.370988
2190.000000	0.371086
2191.000000	0.371467
2192.000000	0.371264
2193.000000	0.369951
2194.000000	0.369961
2195.000000	0.370692
2196.000000	0.370930
2197.000000	0.371867
2198.000000	0.371765
2199.000000	0.371027
2200.000000	0.370100
2201.000000	0.368920
2202.000000	0.367266
2203.000000	0.364665
2204.000000	0.361023
2205.000000	0.358573
2206.000000	0.356764
2207.000000	0.355183
2208.000000	0.355198
2209.000000	0.354063
2210.000000	0.352946
2211.000000	0.353783
2212.000000	0.355938
2213.000000	0.357748
2214.000000	0.361441
2215.000000	0.363477
2216.000000	0.364057
2217.000000	0.365398
2218.000000	0.367005
2219.000000	0.368041
2220.000000	0.369539
2221.000000	0.370019
2222.000000	0.369457
2223.000000	0.369096
2224.000000	0.368207
2225.000000	0.367170
2226.000000	0.366417
2227.000000	0.366215
2228.000000	0.367798
2229.000000	0.368263
2230.000000	0.368033
2231.000000	0.367751
2232.000000	0.365440
2233.000000	0.363085
2234.000000	0.362431
2235.000000	0.363364
2236.000000	0.363878
2237.000000	0.365333
2238.000000	0.366162
2239.000000	0.366989
2240.000000	0.367157
2241.000000	0.366917
2242.000000	0.367130
2243.000000	0.366743
2244.000000	0.367052
2245.000000	0.368184
2246.000000	0.368837
2247.000000	0.370039
2248.000000	0.369397
2249.000000	0.368094
2250.000000	0.365923
2251.000000	0.361188
2252.000000	0.359976
2253.000000	0.362781
2254.000000	0.366166
2255.000000	0.370410
2256.000000	0.374547
2257.000000	0.372718
2258.000000	0.368935
2259.000000	0.365632
2260.000000	0.360321
2261.000000	0.356527
2262.000000	0.353132
2263.000000	0.350941
2264.000000	0.348944
2265.000000	0.347931
2266.000000	0.349482
2267.000000	0.348529
2268.000000	0.347803
2269.000000	0.345912
2270.000000	0.342454
2271.000000	0.338415
2272.000000	0.331801
2273.000000	0.328152
2274.000000	0.324857
2275.000000	0.322243
2276.000000	0.321895
2277.000000	0.321788
2278.000000	0.318173
2279.000000	0.315521
2280.000000	0.311404
2281.000000	0.305509
2282.000000	0.302899
2283.000000	0.300989
2284.000000	0.299983
2285.000000	0.299113
2286.000000	0.295835
2287.000000	0.293518
2288.000000	0.291608
2289.000000	0.290790
2290.000000	0.293639
2291.000000	0.295744
2292.000000	0.296114
2293.000000	0.298573
2294.000000	0.300960
2295.000000	0.302691
2296.000000	0.304930
2297.000000	0.309310
2298.000000	0.310902
2299.000000	0.309879
2300.000000	0.310706
2301.000000	0.310938
2302.000000	0.312390
2303.000000	0.316536
2304.000000	0.318615
2305.000000	0.320336
2306.000000	0.321115
2307.000000	0.320448
2308.000000	0.319447
2309.000000	0.319132
2310.000000	0.319701
2311.000000	0.319703
2312.000000	0.318634
2313.000000	0.318640
2314.000000	0.317708
2315.000000	0.316175
2316.000000	0.317332
2317.000000	0.318043
2318.000000	0.319398
2319.000000	0.322792
2320.000000	0.325569
2321.000000	0.326756
2322.000000	0.325265
2323.000000	0.324243
2324.000000	0.321267
2325.000000	0.317467
2326.000000	0.316321
2327.000000	0.313730
2328.000000	0.314278
2329.000000	0.316574
2330.000000	0.316264
2331.000000	0.316538
2332.000000	0.314872
2333.000000	0.311673
2334.000000	0.308832
2335.000000	0.306683
2336.000000	0.303573
2337.000000	0.301860
2338.000000	0.301962
2339.000000	0.301892
2340.000000	0.302528
2341.000000	0.303650
2342.000000	0.304986
2343.000000	0.304922
2344.000000	0.305237
2345.000000	0.303926
2346.000000	0.301154
2347.000000	0.298680
2348.000000	0.295417
2349.000000	0.292097
2350.000000	0.290736
2351.000000	0.288614
2352.000000	0.286026
2353.000000	0.287955
2354.000000	0.284963
2355.000000	0.280378
2356.000000	0.276853
2357.000000	0.271191
2358.000000	0.269176
2359.000000	0.268297
2360.000000	0.269429
2361.000000	0.270001
2362.000000	0.268389
2363.000000	0.267202
2364.000000	0.264987
2365.000000	0.261933
2366.000000	0.258824
2367.000000	0.261019
2368.000000	0.263504
2369.000000	0.263950
2370.000000	0.265328
2371.000000	0.263028
2372.000000	0.260889
2373.000000	0.260740
2374.000000	0.260404
2375.000000	0.261851
2376.000000	0.263791
2377.000000	0.262253
2378.000000	0.260339
2379.000000	0.257043
2380.000000	0.247981
2381.000000	0.245317
2382.000000	0.242311
2383.000000	0.237308
2384.000000	0.241098
2385.000000	0.241764
2386.000000	0.243482
2387.000000	0.247952
2388.000000	0.247567
2389.000000	0.247548
2390.000000	0.245747
2391.000000	0.243911
2392.000000	0.242976
2393.000000	0.237111
2394.000000	0.235208
2395.000000	0.233059
2396.000000	0.227552
2397.000000	0.227271
2398.000000	0.224430
2399.000000	0.217665
2400.000000	0.213058
2401.000000	0.211431
2402.000000	0.208964
2403.000000	0.211710
2404.000000	0.217484
2405.000000	0.212778
2406.000000	0.206787
2407.000000	0.199373
2408.000000	0.191133
2409.000000	0.193564
2410.000000	0.199679
2411.000000	0.200621
2412.000000	0.195791
2413.000000	0.194725
2414.000000	0.199921
2415.000000	0.209381
2416.000000	0.222236
2417.000000	0.225838
2418.000000	0.222003
2419.000000	0.218120
2420.000000	0.214866
2421.000000	0.218733
2422.000000	0.218714
2423.000000	0.217656
2424.000000	0.222727
2425.000000	0.219410
2426.000000	0.221976
2427.000000	0.229063
2428.000000	0.230087
2429.000000	0.228152
2430.000000	0.219841
2431.000000	0.213705
2432.000000	0.209898
2433.000000	0.207217
2434.000000	0.215484
2435.000000	0.233452
2436.000000	0.239701
2437.000000	0.242442
2438.000000	0.241358
2439.000000	0.213676
2440.000000	0.194560
2441.000000	0.190444
2442.000000	0.183911
2443.000000	0.182805
2444.000000	0.175129
2445.000000	0.165503
2446.000000	0.164772
2447.000000	0.169428
2448.000000	0.179720
2449.000000	0.179005
2450.000000	0.170403
2451.000000	0.162940
2452.000000	0.151680
2453.000000	0.159037
2454.000000	0.173458
2455.000000	0.188833
2456.000000	0.213152
2457.000000	0.213069
2458.000000	0.194153
2459.000000	0.191988
2460.000000	0.189872
2461.000000	0.191934
2462.000000	0.220979
2463.000000	0.232277
2464.000000	0.225563
2465.000000	0.233945
2466.000000	0.230673
2467.000000	0.223399
2468.000000	0.230149
2469.000000	0.222527
2470.000000	0.204618
2471.000000	0.186186
2472.000000	0.167321
2473.000000	0.162785
2474.000000	0.169137
2475.000000	0.192708
2476.000000	0.214812
2477.000000	0.217978
2478.000000	0.238280
2479.000000	0.252591
2480.000000	0.249175
2481.000000	0.249712
2482.000000	0.240089
2483.000000	0.216711
2484.000000	0.183591
2485.000000	0.163929
2486.000000	0.133877
2487.000000	0.133237
2488.000000	0.153373
2489.000000	0.122011
2490.000000	0.140793
2491.000000	0.104213
2492.000000	0.103223
2493.000000	0.196155
2494.000000	0.208610
2495.000000	0.157445
2496.000000	0.141776
2497.000000	0.091177
2498.000000	0.066667
2499.000000	0.081896
2500.000000	0.104602
