# Wavelength	NAu-2-10_HEX-40_FV7-50_00002.asd.rts.txt
350.000000	0.173470
351.000000	0.142233
352.000000	0.150998
353.000000	0.158193
354.000000	0.146116
355.000000	0.141298
356.000000	0.150527
357.000000	0.167372
358.000000	0.174405
359.000000	0.171484
360.000000	0.169668
361.000000	0.177739
362.000000	0.168739
363.000000	0.157961
364.000000	0.157564
365.000000	0.168523
366.000000	0.168640
367.000000	0.158920
368.000000	0.160840
369.000000	0.165717
370.000000	0.169590
371.000000	0.169540
372.000000	0.162884
373.000000	0.162848
374.000000	0.173982
375.000000	0.175720
376.000000	0.171642
377.000000	0.167191
378.000000	0.170573
379.000000	0.170923
380.000000	0.169355
381.000000	0.170690
382.000000	0.170337
383.000000	0.170267
384.000000	0.172044
385.000000	0.173607
386.000000	0.175201
387.000000	0.176593
388.000000	0.176571
389.000000	0.177344
390.000000	0.178399
391.000000	0.178176
392.000000	0.177282
393.000000	0.177107
394.000000	0.178330
395.000000	0.179619
396.000000	0.179193
397.000000	0.177412
398.000000	0.177330
399.000000	0.179232
400.000000	0.180932
401.000000	0.179278
402.000000	0.179521
403.000000	0.180531
404.000000	0.180575
405.000000	0.179518
406.000000	0.179552
407.000000	0.181166
408.000000	0.182105
409.000000	0.182304
410.000000	0.182312
411.000000	0.183111
412.000000	0.183532
413.000000	0.183548
414.000000	0.183482
415.000000	0.183938
416.000000	0.184387
417.000000	0.184585
418.000000	0.185069
419.000000	0.185633
420.000000	0.185947
421.000000	0.185484
422.000000	0.185618
423.000000	0.186027
424.000000	0.186045
425.000000	0.186776
426.000000	0.187430
427.000000	0.187408
428.000000	0.187378
429.000000	0.187495
430.000000	0.187835
431.000000	0.188447
432.000000	0.188540
433.000000	0.188320
434.000000	0.188541
435.000000	0.189024
436.000000	0.189328
437.000000	0.189172
438.000000	0.189312
439.000000	0.189804
440.000000	0.190469
441.000000	0.190415
442.000000	0.190436
443.000000	0.190718
444.000000	0.191202
445.000000	0.191590
446.000000	0.191710
447.000000	0.191413
448.000000	0.191505
449.000000	0.191907
450.000000	0.192375
451.000000	0.192399
452.000000	0.192644
453.000000	0.193166
454.000000	0.193512
455.000000	0.193853
456.000000	0.194260
457.000000	0.194629
458.000000	0.194912
459.000000	0.195140
460.000000	0.195402
461.000000	0.195731
462.000000	0.196232
463.000000	0.196661
464.000000	0.196461
465.000000	0.196546
466.000000	0.196913
467.000000	0.197091
468.000000	0.197147
469.000000	0.197249
470.000000	0.197657
471.000000	0.197947
472.000000	0.198192
473.000000	0.198462
474.000000	0.198585
475.000000	0.198729
476.000000	0.199085
477.000000	0.199648
478.000000	0.199708
479.000000	0.199661
480.000000	0.200038
481.000000	0.200230
482.000000	0.200513
483.000000	0.200957
484.000000	0.201108
485.000000	0.201379
486.000000	0.201909
487.000000	0.201777
488.000000	0.201849
489.000000	0.202184
490.000000	0.202317
491.000000	0.202610
492.000000	0.202909
493.000000	0.202913
494.000000	0.203218
495.000000	0.203599
496.000000	0.203827
497.000000	0.204051
498.000000	0.204284
499.000000	0.204568
500.000000	0.204834
501.000000	0.204978
502.000000	0.205139
503.000000	0.205477
504.000000	0.205571
505.000000	0.205714
506.000000	0.206161
507.000000	0.206280
508.000000	0.206511
509.000000	0.206965
510.000000	0.207076
511.000000	0.207310
512.000000	0.207740
513.000000	0.208106
514.000000	0.208364
515.000000	0.208649
516.000000	0.209066
517.000000	0.209330
518.000000	0.209582
519.000000	0.209889
520.000000	0.210213
521.000000	0.210494
522.000000	0.210773
523.000000	0.211249
524.000000	0.211648
525.000000	0.211951
526.000000	0.212314
527.000000	0.212791
528.000000	0.213289
529.000000	0.213739
530.000000	0.214199
531.000000	0.214671
532.000000	0.215101
533.000000	0.215600
534.000000	0.216125
535.000000	0.216634
536.000000	0.217105
537.000000	0.217620
538.000000	0.218127
539.000000	0.218527
540.000000	0.218987
541.000000	0.219494
542.000000	0.220003
543.000000	0.220333
544.000000	0.220692
545.000000	0.221143
546.000000	0.221683
547.000000	0.222105
548.000000	0.222473
549.000000	0.222967
550.000000	0.223540
551.000000	0.224115
552.000000	0.224580
553.000000	0.225048
554.000000	0.225608
555.000000	0.226295
556.000000	0.227006
557.000000	0.227635
558.000000	0.228251
559.000000	0.228841
560.000000	0.229403
561.000000	0.230045
562.000000	0.230784
563.000000	0.231314
564.000000	0.231826
565.000000	0.232456
566.000000	0.233057
567.000000	0.233602
568.000000	0.234076
569.000000	0.234518
570.000000	0.235002
571.000000	0.235500
572.000000	0.235913
573.000000	0.236299
574.000000	0.236706
575.000000	0.237199
576.000000	0.237502
577.000000	0.237762
578.000000	0.238162
579.000000	0.238521
580.000000	0.238777
581.000000	0.238956
582.000000	0.239238
583.000000	0.239554
584.000000	0.239833
585.000000	0.239993
586.000000	0.240216
587.000000	0.240431
588.000000	0.240541
589.000000	0.240709
590.000000	0.240844
591.000000	0.240903
592.000000	0.240992
593.000000	0.241161
594.000000	0.241365
595.000000	0.241460
596.000000	0.241519
597.000000	0.241602
598.000000	0.241679
599.000000	0.241658
600.000000	0.241674
601.000000	0.241765
602.000000	0.241788
603.000000	0.241786
604.000000	0.241790
605.000000	0.241772
606.000000	0.241717
607.000000	0.241653
608.000000	0.241640
609.000000	0.241621
610.000000	0.241542
611.000000	0.241393
612.000000	0.241391
613.000000	0.241420
614.000000	0.241412
615.000000	0.241382
616.000000	0.241385
617.000000	0.241416
618.000000	0.241488
619.000000	0.241530
620.000000	0.241514
621.000000	0.241483
622.000000	0.241483
623.000000	0.241493
624.000000	0.241497
625.000000	0.241576
626.000000	0.241637
627.000000	0.241655
628.000000	0.241713
629.000000	0.241856
630.000000	0.241943
631.000000	0.241960
632.000000	0.241985
633.000000	0.242058
634.000000	0.242170
635.000000	0.242248
636.000000	0.242358
637.000000	0.242513
638.000000	0.242658
639.000000	0.242713
640.000000	0.242759
641.000000	0.242888
642.000000	0.243005
643.000000	0.243132
644.000000	0.243311
645.000000	0.243416
646.000000	0.243488
647.000000	0.243559
648.000000	0.243669
649.000000	0.243890
650.000000	0.244141
651.000000	0.244167
652.000000	0.244298
653.000000	0.244527
654.000000	0.244643
655.000000	0.244875
656.000000	0.245136
657.000000	0.245279
658.000000	0.245444
659.000000	0.245646
660.000000	0.245877
661.000000	0.246126
662.000000	0.246362
663.000000	0.246616
664.000000	0.246874
665.000000	0.247129
666.000000	0.247380
667.000000	0.247612
668.000000	0.247917
669.000000	0.248235
670.000000	0.248545
671.000000	0.248917
672.000000	0.249298
673.000000	0.249648
674.000000	0.249958
675.000000	0.250222
676.000000	0.250502
677.000000	0.250879
678.000000	0.251301
679.000000	0.251650
680.000000	0.251898
681.000000	0.252222
682.000000	0.252637
683.000000	0.253062
684.000000	0.253496
685.000000	0.253932
686.000000	0.254350
687.000000	0.254700
688.000000	0.255111
689.000000	0.255577
690.000000	0.256089
691.000000	0.256554
692.000000	0.256953
693.000000	0.257365
694.000000	0.257843
695.000000	0.258310
696.000000	0.258763
697.000000	0.259234
698.000000	0.259707
699.000000	0.260186
700.000000	0.260680
701.000000	0.261179
702.000000	0.261671
703.000000	0.262129
704.000000	0.262540
705.000000	0.263016
706.000000	0.263531
707.000000	0.264079
708.000000	0.264625
709.000000	0.265168
710.000000	0.265722
711.000000	0.266238
712.000000	0.266753
713.000000	0.267292
714.000000	0.267801
715.000000	0.268299
716.000000	0.268808
717.000000	0.269333
718.000000	0.269885
719.000000	0.270396
720.000000	0.270845
721.000000	0.271363
722.000000	0.271845
723.000000	0.272299
724.000000	0.272722
725.000000	0.273131
726.000000	0.273606
727.000000	0.274097
728.000000	0.274586
729.000000	0.275024
730.000000	0.275352
731.000000	0.275697
732.000000	0.276108
733.000000	0.276616
734.000000	0.277134
735.000000	0.277559
736.000000	0.277972
737.000000	0.278310
738.000000	0.278706
739.000000	0.279141
740.000000	0.279450
741.000000	0.279832
742.000000	0.280225
743.000000	0.280589
744.000000	0.280982
745.000000	0.281288
746.000000	0.281552
747.000000	0.281780
748.000000	0.282043
749.000000	0.282313
750.000000	0.282552
751.000000	0.282845
752.000000	0.283132
753.000000	0.283435
754.000000	0.283813
755.000000	0.284235
756.000000	0.284594
757.000000	0.284770
758.000000	0.285015
759.000000	0.285265
760.000000	0.285432
761.000000	0.285693
762.000000	0.285952
763.000000	0.286164
764.000000	0.286381
765.000000	0.286478
766.000000	0.286625
767.000000	0.286936
768.000000	0.287059
769.000000	0.287191
770.000000	0.287395
771.000000	0.287506
772.000000	0.287639
773.000000	0.287761
774.000000	0.287912
775.000000	0.288042
776.000000	0.288197
777.000000	0.288370
778.000000	0.288451
779.000000	0.288509
780.000000	0.288627
781.000000	0.288886
782.000000	0.288970
783.000000	0.289066
784.000000	0.289248
785.000000	0.289190
786.000000	0.289170
787.000000	0.289303
788.000000	0.289339
789.000000	0.289440
790.000000	0.289577
791.000000	0.289674
792.000000	0.289747
793.000000	0.289736
794.000000	0.289638
795.000000	0.289640
796.000000	0.289702
797.000000	0.289753
798.000000	0.289694
799.000000	0.289616
800.000000	0.289625
801.000000	0.289780
802.000000	0.289846
803.000000	0.289885
804.000000	0.289963
805.000000	0.289988
806.000000	0.290009
807.000000	0.290069
808.000000	0.290063
809.000000	0.290011
810.000000	0.289993
811.000000	0.290026
812.000000	0.289969
813.000000	0.289941
814.000000	0.289940
815.000000	0.289885
816.000000	0.289855
817.000000	0.289885
818.000000	0.289899
819.000000	0.289860
820.000000	0.289904
821.000000	0.289991
822.000000	0.289950
823.000000	0.289964
824.000000	0.289939
825.000000	0.289839
826.000000	0.289932
827.000000	0.289953
828.000000	0.289845
829.000000	0.289992
830.000000	0.289978
831.000000	0.289849
832.000000	0.289736
833.000000	0.289694
834.000000	0.289681
835.000000	0.289694
836.000000	0.289798
837.000000	0.289755
838.000000	0.289593
839.000000	0.289505
840.000000	0.289404
841.000000	0.289348
842.000000	0.289334
843.000000	0.289223
844.000000	0.289134
845.000000	0.289072
846.000000	0.288984
847.000000	0.289006
848.000000	0.289043
849.000000	0.289002
850.000000	0.288970
851.000000	0.288934
852.000000	0.288873
853.000000	0.288644
854.000000	0.288406
855.000000	0.288320
856.000000	0.288312
857.000000	0.288167
858.000000	0.288010
859.000000	0.287848
860.000000	0.287692
861.000000	0.287558
862.000000	0.287493
863.000000	0.287463
864.000000	0.287390
865.000000	0.287319
866.000000	0.287294
867.000000	0.287258
868.000000	0.287245
869.000000	0.287176
870.000000	0.287056
871.000000	0.286964
872.000000	0.286860
873.000000	0.286658
874.000000	0.286401
875.000000	0.286259
876.000000	0.286148
877.000000	0.285835
878.000000	0.285541
879.000000	0.285430
880.000000	0.285385
881.000000	0.285245
882.000000	0.285082
883.000000	0.284941
884.000000	0.284793
885.000000	0.284621
886.000000	0.284386
887.000000	0.284123
888.000000	0.283929
889.000000	0.283762
890.000000	0.283525
891.000000	0.283330
892.000000	0.283262
893.000000	0.283118
894.000000	0.282901
895.000000	0.282610
896.000000	0.282367
897.000000	0.282211
898.000000	0.282129
899.000000	0.282012
900.000000	0.281907
901.000000	0.281765
902.000000	0.281512
903.000000	0.281398
904.000000	0.281337
905.000000	0.281092
906.000000	0.280853
907.000000	0.280602
908.000000	0.280397
909.000000	0.280221
910.000000	0.280005
911.000000	0.279778
912.000000	0.279577
913.000000	0.279297
914.000000	0.279025
915.000000	0.278819
916.000000	0.278565
917.000000	0.278373
918.000000	0.278307
919.000000	0.278299
920.000000	0.278039
921.000000	0.277759
922.000000	0.277458
923.000000	0.277028
924.000000	0.276776
925.000000	0.276580
926.000000	0.276370
927.000000	0.276134
928.000000	0.275974
929.000000	0.275811
930.000000	0.275546
931.000000	0.275308
932.000000	0.275100
933.000000	0.275008
934.000000	0.275105
935.000000	0.274775
936.000000	0.274382
937.000000	0.274195
938.000000	0.273843
939.000000	0.273590
940.000000	0.273411
941.000000	0.273242
942.000000	0.272872
943.000000	0.272553
944.000000	0.272351
945.000000	0.272295
946.000000	0.272004
947.000000	0.271662
948.000000	0.271484
949.000000	0.271117
950.000000	0.270892
951.000000	0.270794
952.000000	0.270574
953.000000	0.270345
954.000000	0.270218
955.000000	0.270114
956.000000	0.269727
957.000000	0.269438
958.000000	0.269162
959.000000	0.268812
960.000000	0.268846
961.000000	0.268802
962.000000	0.268505
963.000000	0.268248
964.000000	0.268147
965.000000	0.268046
966.000000	0.267714
967.000000	0.267357
968.000000	0.267003
969.000000	0.266763
970.000000	0.266811
971.000000	0.266549
972.000000	0.266491
973.000000	0.266578
974.000000	0.266152
975.000000	0.265761
976.000000	0.265496
977.000000	0.265318
978.000000	0.265187
979.000000	0.264858
980.000000	0.264430
981.000000	0.264487
982.000000	0.264432
983.000000	0.264200
984.000000	0.263933
985.000000	0.263795
986.000000	0.263570
987.000000	0.263430
988.000000	0.263369
989.000000	0.263209
990.000000	0.262998
991.000000	0.262864
992.000000	0.262925
993.000000	0.262906
994.000000	0.262717
995.000000	0.262588
996.000000	0.262557
997.000000	0.262182
998.000000	0.261761
999.000000	0.261677
1000.000000	0.262049
1001.000000	0.261082
1002.000000	0.261964
1003.000000	0.262441
1004.000000	0.262397
1005.000000	0.261572
1006.000000	0.261070
1007.000000	0.260161
1008.000000	0.260155
1009.000000	0.260488
1010.000000	0.260592
1011.000000	0.260941
1012.000000	0.261197
1013.000000	0.261004
1014.000000	0.260963
1015.000000	0.260784
1016.000000	0.260420
1017.000000	0.260467
1018.000000	0.260609
1019.000000	0.260744
1020.000000	0.261481
1021.000000	0.261307
1022.000000	0.260775
1023.000000	0.260606
1024.000000	0.260111
1025.000000	0.259598
1026.000000	0.259774
1027.000000	0.259629
1028.000000	0.259635
1029.000000	0.260116
1030.000000	0.260388
1031.000000	0.260177
1032.000000	0.259981
1033.000000	0.260177
1034.000000	0.260343
1035.000000	0.260763
1036.000000	0.260847
1037.000000	0.260958
1038.000000	0.260837
1039.000000	0.260272
1040.000000	0.260042
1041.000000	0.260731
1042.000000	0.261083
1043.000000	0.261594
1044.000000	0.262433
1045.000000	0.262327
1046.000000	0.261896
1047.000000	0.261960
1048.000000	0.262007
1049.000000	0.261987
1050.000000	0.262314
1051.000000	0.262438
1052.000000	0.262185
1053.000000	0.262094
1054.000000	0.262450
1055.000000	0.262424
1056.000000	0.261891
1057.000000	0.262057
1058.000000	0.262342
1059.000000	0.262145
1060.000000	0.262400
1061.000000	0.262615
1062.000000	0.262971
1063.000000	0.263347
1064.000000	0.263748
1065.000000	0.264483
1066.000000	0.264858
1067.000000	0.265064
1068.000000	0.265074
1069.000000	0.264583
1070.000000	0.264571
1071.000000	0.264599
1072.000000	0.264755
1073.000000	0.265266
1074.000000	0.265968
1075.000000	0.266443
1076.000000	0.266401
1077.000000	0.266079
1078.000000	0.266121
1079.000000	0.266187
1080.000000	0.266136
1081.000000	0.266374
1082.000000	0.267112
1083.000000	0.267437
1084.000000	0.267724
1085.000000	0.268067
1086.000000	0.268390
1087.000000	0.268493
1088.000000	0.268174
1089.000000	0.268318
1090.000000	0.268512
1091.000000	0.268798
1092.000000	0.269258
1093.000000	0.269662
1094.000000	0.269701
1095.000000	0.269101
1096.000000	0.269164
1097.000000	0.269347
1098.000000	0.269599
1099.000000	0.270104
1100.000000	0.270453
1101.000000	0.270691
1102.000000	0.270980
1103.000000	0.271360
1104.000000	0.271635
1105.000000	0.271772
1106.000000	0.272023
1107.000000	0.272099
1108.000000	0.272348
1109.000000	0.272743
1110.000000	0.273499
1111.000000	0.273674
1112.000000	0.273649
1113.000000	0.273846
1114.000000	0.273902
1115.000000	0.273932
1116.000000	0.274128
1117.000000	0.274266
1118.000000	0.274021
1119.000000	0.274145
1120.000000	0.274640
1121.000000	0.274966
1122.000000	0.275508
1123.000000	0.275945
1124.000000	0.276006
1125.000000	0.276245
1126.000000	0.276492
1127.000000	0.276584
1128.000000	0.276631
1129.000000	0.276749
1130.000000	0.276812
1131.000000	0.276705
1132.000000	0.276724
1133.000000	0.276868
1134.000000	0.277013
1135.000000	0.277177
1136.000000	0.277214
1137.000000	0.277195
1138.000000	0.277206
1139.000000	0.277166
1140.000000	0.277280
1141.000000	0.277606
1142.000000	0.277711
1143.000000	0.277545
1144.000000	0.277662
1145.000000	0.277631
1146.000000	0.277657
1147.000000	0.277701
1148.000000	0.277855
1149.000000	0.277880
1150.000000	0.277726
1151.000000	0.277858
1152.000000	0.278068
1153.000000	0.278281
1154.000000	0.278815
1155.000000	0.278836
1156.000000	0.278449
1157.000000	0.278370
1158.000000	0.278079
1159.000000	0.277959
1160.000000	0.278159
1161.000000	0.278230
1162.000000	0.278285
1163.000000	0.278399
1164.000000	0.278556
1165.000000	0.278608
1166.000000	0.278688
1167.000000	0.278740
1168.000000	0.278704
1169.000000	0.278625
1170.000000	0.278602
1171.000000	0.278557
1172.000000	0.278586
1173.000000	0.278684
1174.000000	0.278701
1175.000000	0.278616
1176.000000	0.278603
1177.000000	0.278703
1178.000000	0.278734
1179.000000	0.278792
1180.000000	0.278800
1181.000000	0.278837
1182.000000	0.278741
1183.000000	0.278945
1184.000000	0.279052
1185.000000	0.279140
1186.000000	0.279296
1187.000000	0.279340
1188.000000	0.279253
1189.000000	0.279227
1190.000000	0.279223
1191.000000	0.279245
1192.000000	0.279424
1193.000000	0.279544
1194.000000	0.279485
1195.000000	0.279538
1196.000000	0.279538
1197.000000	0.279585
1198.000000	0.279749
1199.000000	0.279878
1200.000000	0.280029
1201.000000	0.280106
1202.000000	0.280083
1203.000000	0.280144
1204.000000	0.280065
1205.000000	0.279923
1206.000000	0.279830
1207.000000	0.279801
1208.000000	0.279757
1209.000000	0.279827
1210.000000	0.279822
1211.000000	0.279768
1212.000000	0.279742
1213.000000	0.279657
1214.000000	0.279713
1215.000000	0.279975
1216.000000	0.280040
1217.000000	0.280037
1218.000000	0.280051
1219.000000	0.280072
1220.000000	0.279876
1221.000000	0.279725
1222.000000	0.279774
1223.000000	0.279660
1224.000000	0.279561
1225.000000	0.279804
1226.000000	0.279947
1227.000000	0.279938
1228.000000	0.280156
1229.000000	0.280167
1230.000000	0.279945
1231.000000	0.279837
1232.000000	0.279817
1233.000000	0.279911
1234.000000	0.280099
1235.000000	0.280163
1236.000000	0.280233
1237.000000	0.280237
1238.000000	0.279976
1239.000000	0.279895
1240.000000	0.279915
1241.000000	0.279867
1242.000000	0.279853
1243.000000	0.279926
1244.000000	0.279771
1245.000000	0.279761
1246.000000	0.279930
1247.000000	0.280060
1248.000000	0.280191
1249.000000	0.280256
1250.000000	0.280241
1251.000000	0.280213
1252.000000	0.280168
1253.000000	0.280219
1254.000000	0.280205
1255.000000	0.280073
1256.000000	0.279992
1257.000000	0.279962
1258.000000	0.280053
1259.000000	0.280171
1260.000000	0.280195
1261.000000	0.280224
1262.000000	0.280207
1263.000000	0.280018
1264.000000	0.279956
1265.000000	0.280046
1266.000000	0.280105
1267.000000	0.280276
1268.000000	0.280381
1269.000000	0.280318
1270.000000	0.280327
1271.000000	0.280328
1272.000000	0.280300
1273.000000	0.280459
1274.000000	0.280615
1275.000000	0.280593
1276.000000	0.280392
1277.000000	0.280422
1278.000000	0.280332
1279.000000	0.280375
1280.000000	0.280591
1281.000000	0.280621
1282.000000	0.280617
1283.000000	0.280739
1284.000000	0.280832
1285.000000	0.280865
1286.000000	0.280951
1287.000000	0.280904
1288.000000	0.280782
1289.000000	0.280646
1290.000000	0.280538
1291.000000	0.280496
1292.000000	0.280495
1293.000000	0.280572
1294.000000	0.280674
1295.000000	0.280725
1296.000000	0.280624
1297.000000	0.280474
1298.000000	0.280461
1299.000000	0.280508
1300.000000	0.280584
1301.000000	0.280649
1302.000000	0.280618
1303.000000	0.280521
1304.000000	0.280479
1305.000000	0.280590
1306.000000	0.280531
1307.000000	0.280427
1308.000000	0.280409
1309.000000	0.280296
1310.000000	0.280287
1311.000000	0.280470
1312.000000	0.280496
1313.000000	0.280373
1314.000000	0.280187
1315.000000	0.280035
1316.000000	0.280008
1317.000000	0.279981
1318.000000	0.280078
1319.000000	0.280016
1320.000000	0.279849
1321.000000	0.279709
1322.000000	0.279552
1323.000000	0.279654
1324.000000	0.279673
1325.000000	0.279630
1326.000000	0.279749
1327.000000	0.279648
1328.000000	0.279678
1329.000000	0.279766
1330.000000	0.280083
1331.000000	0.280091
1332.000000	0.280045
1333.000000	0.279982
1334.000000	0.279785
1335.000000	0.279726
1336.000000	0.279786
1337.000000	0.279689
1338.000000	0.279481
1339.000000	0.279290
1340.000000	0.279050
1341.000000	0.278984
1342.000000	0.279025
1343.000000	0.279056
1344.000000	0.279041
1345.000000	0.278897
1346.000000	0.278891
1347.000000	0.278642
1348.000000	0.278346
1349.000000	0.278348
1350.000000	0.278419
1351.000000	0.278453
1352.000000	0.278499
1353.000000	0.278445
1354.000000	0.278350
1355.000000	0.278258
1356.000000	0.278196
1357.000000	0.278107
1358.000000	0.278021
1359.000000	0.277884
1360.000000	0.277754
1361.000000	0.277698
1362.000000	0.277595
1363.000000	0.277372
1364.000000	0.277299
1365.000000	0.277321
1366.000000	0.277275
1367.000000	0.277245
1368.000000	0.277184
1369.000000	0.277169
1370.000000	0.277063
1371.000000	0.276979
1372.000000	0.276921
1373.000000	0.276765
1374.000000	0.276544
1375.000000	0.276370
1376.000000	0.276287
1377.000000	0.276143
1378.000000	0.276143
1379.000000	0.276227
1380.000000	0.276115
1381.000000	0.275931
1382.000000	0.275805
1383.000000	0.275514
1384.000000	0.275062
1385.000000	0.274787
1386.000000	0.274533
1387.000000	0.274126
1388.000000	0.273843
1389.000000	0.273699
1390.000000	0.273448
1391.000000	0.273133
1392.000000	0.272970
1393.000000	0.272659
1394.000000	0.272215
1395.000000	0.271805
1396.000000	0.271356
1397.000000	0.270890
1398.000000	0.270392
1399.000000	0.269976
1400.000000	0.269593
1401.000000	0.269145
1402.000000	0.268737
1403.000000	0.268225
1404.000000	0.267820
1405.000000	0.267361
1406.000000	0.266999
1407.000000	0.266701
1408.000000	0.266181
1409.000000	0.265821
1410.000000	0.265486
1411.000000	0.264958
1412.000000	0.264435
1413.000000	0.263898
1414.000000	0.263354
1415.000000	0.262919
1416.000000	0.262574
1417.000000	0.262252
1418.000000	0.261881
1419.000000	0.261549
1420.000000	0.261114
1421.000000	0.260670
1422.000000	0.260168
1423.000000	0.259670
1424.000000	0.259171
1425.000000	0.258754
1426.000000	0.258403
1427.000000	0.258057
1428.000000	0.257751
1429.000000	0.257403
1430.000000	0.257065
1431.000000	0.256841
1432.000000	0.256537
1433.000000	0.256219
1434.000000	0.255931
1435.000000	0.255684
1436.000000	0.255396
1437.000000	0.255128
1438.000000	0.254869
1439.000000	0.254636
1440.000000	0.254399
1441.000000	0.254155
1442.000000	0.253940
1443.000000	0.253640
1444.000000	0.253505
1445.000000	0.253367
1446.000000	0.253297
1447.000000	0.253329
1448.000000	0.253223
1449.000000	0.253072
1450.000000	0.252977
1451.000000	0.252898
1452.000000	0.252815
1453.000000	0.252784
1454.000000	0.252786
1455.000000	0.252732
1456.000000	0.252736
1457.000000	0.252826
1458.000000	0.252798
1459.000000	0.252696
1460.000000	0.252659
1461.000000	0.252670
1462.000000	0.252721
1463.000000	0.252774
1464.000000	0.252786
1465.000000	0.252736
1466.000000	0.252647
1467.000000	0.252629
1468.000000	0.252711
1469.000000	0.252737
1470.000000	0.252660
1471.000000	0.252710
1472.000000	0.252715
1473.000000	0.252783
1474.000000	0.252951
1475.000000	0.253057
1476.000000	0.253083
1477.000000	0.253201
1478.000000	0.253422
1479.000000	0.253584
1480.000000	0.253716
1481.000000	0.253875
1482.000000	0.254043
1483.000000	0.254201
1484.000000	0.254462
1485.000000	0.254597
1486.000000	0.254523
1487.000000	0.254614
1488.000000	0.254796
1489.000000	0.254926
1490.000000	0.255022
1491.000000	0.255172
1492.000000	0.255208
1493.000000	0.255358
1494.000000	0.255605
1495.000000	0.255768
1496.000000	0.255861
1497.000000	0.256024
1498.000000	0.256212
1499.000000	0.256461
1500.000000	0.256632
1501.000000	0.256824
1502.000000	0.256868
1503.000000	0.256856
1504.000000	0.256932
1505.000000	0.256981
1506.000000	0.257094
1507.000000	0.257234
1508.000000	0.257436
1509.000000	0.257703
1510.000000	0.257877
1511.000000	0.257996
1512.000000	0.258035
1513.000000	0.258110
1514.000000	0.258239
1515.000000	0.258354
1516.000000	0.258483
1517.000000	0.258485
1518.000000	0.258538
1519.000000	0.258536
1520.000000	0.258569
1521.000000	0.258638
1522.000000	0.258543
1523.000000	0.258540
1524.000000	0.258656
1525.000000	0.258755
1526.000000	0.258862
1527.000000	0.258967
1528.000000	0.258953
1529.000000	0.258882
1530.000000	0.258845
1531.000000	0.258901
1532.000000	0.259040
1533.000000	0.259164
1534.000000	0.259240
1535.000000	0.259296
1536.000000	0.259242
1537.000000	0.259223
1538.000000	0.259335
1539.000000	0.259397
1540.000000	0.259409
1541.000000	0.259441
1542.000000	0.259434
1543.000000	0.259502
1544.000000	0.259641
1545.000000	0.259784
1546.000000	0.259913
1547.000000	0.260058
1548.000000	0.260176
1549.000000	0.260198
1550.000000	0.260245
1551.000000	0.260280
1552.000000	0.260319
1553.000000	0.260442
1554.000000	0.260467
1555.000000	0.260412
1556.000000	0.260441
1557.000000	0.260452
1558.000000	0.260465
1559.000000	0.260549
1560.000000	0.260434
1561.000000	0.260170
1562.000000	0.260056
1563.000000	0.259926
1564.000000	0.259913
1565.000000	0.260048
1566.000000	0.260004
1567.000000	0.260030
1568.000000	0.259972
1569.000000	0.259810
1570.000000	0.259832
1571.000000	0.259919
1572.000000	0.259938
1573.000000	0.260116
1574.000000	0.260115
1575.000000	0.259915
1576.000000	0.259872
1577.000000	0.259825
1578.000000	0.259802
1579.000000	0.259909
1580.000000	0.259965
1581.000000	0.260089
1582.000000	0.260089
1583.000000	0.260007
1584.000000	0.259958
1585.000000	0.259908
1586.000000	0.259926
1587.000000	0.260021
1588.000000	0.260044
1589.000000	0.260091
1590.000000	0.260021
1591.000000	0.259886
1592.000000	0.259832
1593.000000	0.259685
1594.000000	0.259694
1595.000000	0.259899
1596.000000	0.259991
1597.000000	0.260185
1598.000000	0.260284
1599.000000	0.260357
1600.000000	0.260294
1601.000000	0.260122
1602.000000	0.260081
1603.000000	0.260099
1604.000000	0.260035
1605.000000	0.260009
1606.000000	0.259981
1607.000000	0.259842
1608.000000	0.259821
1609.000000	0.260056
1610.000000	0.260081
1611.000000	0.259977
1612.000000	0.260027
1613.000000	0.260176
1614.000000	0.260226
1615.000000	0.260417
1616.000000	0.260549
1617.000000	0.260480
1618.000000	0.260544
1619.000000	0.260701
1620.000000	0.260756
1621.000000	0.260810
1622.000000	0.260907
1623.000000	0.260935
1624.000000	0.261028
1625.000000	0.261100
1626.000000	0.261109
1627.000000	0.261083
1628.000000	0.261129
1629.000000	0.261164
1630.000000	0.261202
1631.000000	0.261233
1632.000000	0.261298
1633.000000	0.261351
1634.000000	0.261429
1635.000000	0.261616
1636.000000	0.261711
1637.000000	0.261793
1638.000000	0.261819
1639.000000	0.261826
1640.000000	0.261865
1641.000000	0.261898
1642.000000	0.261966
1643.000000	0.262173
1644.000000	0.262251
1645.000000	0.262270
1646.000000	0.262268
1647.000000	0.262200
1648.000000	0.262158
1649.000000	0.262228
1650.000000	0.262230
1651.000000	0.262184
1652.000000	0.262291
1653.000000	0.262415
1654.000000	0.262516
1655.000000	0.262682
1656.000000	0.262715
1657.000000	0.262660
1658.000000	0.262734
1659.000000	0.262965
1660.000000	0.263053
1661.000000	0.263068
1662.000000	0.263120
1663.000000	0.263090
1664.000000	0.263157
1665.000000	0.263242
1666.000000	0.263410
1667.000000	0.263579
1668.000000	0.263698
1669.000000	0.263881
1670.000000	0.263938
1671.000000	0.263950
1672.000000	0.264025
1673.000000	0.264047
1674.000000	0.264187
1675.000000	0.264416
1676.000000	0.264503
1677.000000	0.264509
1678.000000	0.264492
1679.000000	0.264458
1680.000000	0.264418
1681.000000	0.264455
1682.000000	0.264484
1683.000000	0.264414
1684.000000	0.264388
1685.000000	0.264427
1686.000000	0.264415
1687.000000	0.264328
1688.000000	0.264276
1689.000000	0.264352
1690.000000	0.264339
1691.000000	0.264508
1692.000000	0.264698
1693.000000	0.264660
1694.000000	0.264589
1695.000000	0.264592
1696.000000	0.264652
1697.000000	0.264631
1698.000000	0.264728
1699.000000	0.264780
1700.000000	0.264685
1701.000000	0.264708
1702.000000	0.264564
1703.000000	0.264580
1704.000000	0.264896
1705.000000	0.265002
1706.000000	0.265162
1707.000000	0.265262
1708.000000	0.265085
1709.000000	0.265046
1710.000000	0.265183
1711.000000	0.265317
1712.000000	0.265538
1713.000000	0.265657
1714.000000	0.265869
1715.000000	0.265923
1716.000000	0.265749
1717.000000	0.265781
1718.000000	0.265866
1719.000000	0.265826
1720.000000	0.265881
1721.000000	0.265886
1722.000000	0.265707
1723.000000	0.265691
1724.000000	0.265829
1725.000000	0.265918
1726.000000	0.265950
1727.000000	0.265988
1728.000000	0.265986
1729.000000	0.265959
1730.000000	0.266034
1731.000000	0.266037
1732.000000	0.266023
1733.000000	0.266058
1734.000000	0.265964
1735.000000	0.265921
1736.000000	0.265882
1737.000000	0.265846
1738.000000	0.265807
1739.000000	0.265801
1740.000000	0.265812
1741.000000	0.265820
1742.000000	0.265842
1743.000000	0.265925
1744.000000	0.266045
1745.000000	0.266044
1746.000000	0.266018
1747.000000	0.265952
1748.000000	0.265889
1749.000000	0.265909
1750.000000	0.265879
1751.000000	0.265954
1752.000000	0.266023
1753.000000	0.265853
1754.000000	0.265875
1755.000000	0.265982
1756.000000	0.266017
1757.000000	0.266184
1758.000000	0.266265
1759.000000	0.266186
1760.000000	0.266154
1761.000000	0.266084
1762.000000	0.266059
1763.000000	0.266026
1764.000000	0.266079
1765.000000	0.266217
1766.000000	0.266311
1767.000000	0.266412
1768.000000	0.266383
1769.000000	0.266328
1770.000000	0.266332
1771.000000	0.266219
1772.000000	0.266229
1773.000000	0.266296
1774.000000	0.266330
1775.000000	0.266439
1776.000000	0.266540
1777.000000	0.266620
1778.000000	0.266644
1779.000000	0.266647
1780.000000	0.266673
1781.000000	0.266582
1782.000000	0.266685
1783.000000	0.267014
1784.000000	0.266876
1785.000000	0.266854
1786.000000	0.266869
1787.000000	0.266838
1788.000000	0.267125
1789.000000	0.267349
1790.000000	0.267429
1791.000000	0.267382
1792.000000	0.267166
1793.000000	0.267149
1794.000000	0.267232
1795.000000	0.267213
1796.000000	0.267212
1797.000000	0.267311
1798.000000	0.267304
1799.000000	0.267408
1800.000000	0.267843
1801.000000	0.267022
1802.000000	0.267479
1803.000000	0.268055
1804.000000	0.268455
1805.000000	0.269697
1806.000000	0.270154
1807.000000	0.270002
1808.000000	0.269752
1809.000000	0.269370
1810.000000	0.268797
1811.000000	0.268203
1812.000000	0.267091
1813.000000	0.266625
1814.000000	0.266218
1815.000000	0.266266
1816.000000	0.266891
1817.000000	0.267149
1818.000000	0.267573
1819.000000	0.268389
1820.000000	0.268243
1821.000000	0.268126
1822.000000	0.268254
1823.000000	0.268264
1824.000000	0.268314
1825.000000	0.268461
1826.000000	0.268757
1827.000000	0.269310
1828.000000	0.269311
1829.000000	0.268865
1830.000000	0.268862
1831.000000	0.268532
1832.000000	0.267335
1833.000000	0.267101
1834.000000	0.267495
1835.000000	0.267488
1836.000000	0.267737
1837.000000	0.267698
1838.000000	0.267087
1839.000000	0.266775
1840.000000	0.266455
1841.000000	0.266603
1842.000000	0.267227
1843.000000	0.269101
1844.000000	0.269340
1845.000000	0.269111
1846.000000	0.268919
1847.000000	0.267696
1848.000000	0.266695
1849.000000	0.266330
1850.000000	0.265955
1851.000000	0.266131
1852.000000	0.267032
1853.000000	0.267130
1854.000000	0.267298
1855.000000	0.267290
1856.000000	0.267097
1857.000000	0.265381
1858.000000	0.265127
1859.000000	0.264726
1860.000000	0.263912
1861.000000	0.263775
1862.000000	0.263269
1863.000000	0.262690
1864.000000	0.262343
1865.000000	0.262006
1866.000000	0.261543
1867.000000	0.261252
1868.000000	0.260813
1869.000000	0.259677
1870.000000	0.259260
1871.000000	0.258679
1872.000000	0.257810
1873.000000	0.256985
1874.000000	0.255878
1875.000000	0.255094
1876.000000	0.254222
1877.000000	0.253312
1878.000000	0.252724
1879.000000	0.251869
1880.000000	0.250440
1881.000000	0.248511
1882.000000	0.246475
1883.000000	0.245023
1884.000000	0.243630
1885.000000	0.242677
1886.000000	0.241272
1887.000000	0.239971
1888.000000	0.237618
1889.000000	0.235713
1890.000000	0.234289
1891.000000	0.232651
1892.000000	0.231238
1893.000000	0.229358
1894.000000	0.226964
1895.000000	0.224712
1896.000000	0.222326
1897.000000	0.220388
1898.000000	0.218461
1899.000000	0.216821
1900.000000	0.215831
1901.000000	0.214505
1902.000000	0.212893
1903.000000	0.211091
1904.000000	0.209174
1905.000000	0.207299
1906.000000	0.205484
1907.000000	0.203972
1908.000000	0.202358
1909.000000	0.200325
1910.000000	0.199108
1911.000000	0.197654
1912.000000	0.196496
1913.000000	0.196263
1914.000000	0.195449
1915.000000	0.195033
1916.000000	0.194645
1917.000000	0.193903
1918.000000	0.192957
1919.000000	0.192205
1920.000000	0.191066
1921.000000	0.190468
1922.000000	0.190010
1923.000000	0.189380
1924.000000	0.189568
1925.000000	0.189350
1926.000000	0.188900
1927.000000	0.189195
1928.000000	0.189208
1929.000000	0.188910
1930.000000	0.188729
1931.000000	0.189077
1932.000000	0.189061
1933.000000	0.189131
1934.000000	0.189801
1935.000000	0.190503
1936.000000	0.191332
1937.000000	0.191758
1938.000000	0.191228
1939.000000	0.191064
1940.000000	0.190888
1941.000000	0.190219
1942.000000	0.189705
1943.000000	0.189804
1944.000000	0.189514
1945.000000	0.189858
1946.000000	0.190066
1947.000000	0.190131
1948.000000	0.190070
1949.000000	0.189369
1950.000000	0.188871
1951.000000	0.188433
1952.000000	0.188120
1953.000000	0.187549
1954.000000	0.187537
1955.000000	0.187799
1956.000000	0.187610
1957.000000	0.187530
1958.000000	0.187101
1959.000000	0.186369
1960.000000	0.185981
1961.000000	0.186173
1962.000000	0.186111
1963.000000	0.186243
1964.000000	0.186123
1965.000000	0.186224
1966.000000	0.185906
1967.000000	0.185830
1968.000000	0.186608
1969.000000	0.186772
1970.000000	0.186644
1971.000000	0.186797
1972.000000	0.186419
1973.000000	0.186030
1974.000000	0.185575
1975.000000	0.185481
1976.000000	0.185376
1977.000000	0.185471
1978.000000	0.185761
1979.000000	0.185955
1980.000000	0.186314
1981.000000	0.186646
1982.000000	0.186790
1983.000000	0.187395
1984.000000	0.187870
1985.000000	0.188030
1986.000000	0.188524
1987.000000	0.189508
1988.000000	0.190153
1989.000000	0.190444
1990.000000	0.190812
1991.000000	0.190698
1992.000000	0.191005
1993.000000	0.191162
1994.000000	0.191452
1995.000000	0.191637
1996.000000	0.191629
1997.000000	0.191876
1998.000000	0.192419
1999.000000	0.192756
2000.000000	0.193264
2001.000000	0.193318
2002.000000	0.193516
2003.000000	0.193800
2004.000000	0.194653
2005.000000	0.196290
2006.000000	0.197590
2007.000000	0.198661
2008.000000	0.199259
2009.000000	0.199058
2010.000000	0.199277
2011.000000	0.199218
2012.000000	0.199425
2013.000000	0.199854
2014.000000	0.200051
2015.000000	0.200319
2016.000000	0.200791
2017.000000	0.201484
2018.000000	0.202058
2019.000000	0.202641
2020.000000	0.203172
2021.000000	0.203733
2022.000000	0.204214
2023.000000	0.204775
2024.000000	0.205483
2025.000000	0.206179
2026.000000	0.206803
2027.000000	0.207278
2028.000000	0.208045
2029.000000	0.208283
2030.000000	0.208140
2031.000000	0.208536
2032.000000	0.209203
2033.000000	0.209659
2034.000000	0.210115
2035.000000	0.210949
2036.000000	0.211304
2037.000000	0.211405
2038.000000	0.211752
2039.000000	0.212083
2040.000000	0.212554
2041.000000	0.213218
2042.000000	0.213480
2043.000000	0.214055
2044.000000	0.214168
2045.000000	0.214356
2046.000000	0.214524
2047.000000	0.214610
2048.000000	0.214462
2049.000000	0.214873
2050.000000	0.215368
2051.000000	0.215753
2052.000000	0.216243
2053.000000	0.216534
2054.000000	0.216989
2055.000000	0.216837
2056.000000	0.216949
2057.000000	0.217796
2058.000000	0.218376
2059.000000	0.218952
2060.000000	0.219300
2061.000000	0.219221
2062.000000	0.219611
2063.000000	0.220291
2064.000000	0.220578
2065.000000	0.221310
2066.000000	0.221708
2067.000000	0.221984
2068.000000	0.221775
2069.000000	0.222125
2070.000000	0.222885
2071.000000	0.223557
2072.000000	0.224612
2073.000000	0.225474
2074.000000	0.225892
2075.000000	0.226332
2076.000000	0.226466
2077.000000	0.226668
2078.000000	0.227093
2079.000000	0.227016
2080.000000	0.226324
2081.000000	0.226380
2082.000000	0.226646
2083.000000	0.226666
2084.000000	0.227027
2085.000000	0.227597
2086.000000	0.227980
2087.000000	0.228186
2088.000000	0.228688
2089.000000	0.228988
2090.000000	0.229296
2091.000000	0.229486
2092.000000	0.229677
2093.000000	0.229814
2094.000000	0.230172
2095.000000	0.230557
2096.000000	0.231075
2097.000000	0.231803
2098.000000	0.232485
2099.000000	0.233100
2100.000000	0.233356
2101.000000	0.233610
2102.000000	0.233630
2103.000000	0.233321
2104.000000	0.233402
2105.000000	0.233620
2106.000000	0.233912
2107.000000	0.234303
2108.000000	0.235118
2109.000000	0.235570
2110.000000	0.235683
2111.000000	0.236013
2112.000000	0.236519
2113.000000	0.236309
2114.000000	0.236452
2115.000000	0.236780
2116.000000	0.236088
2117.000000	0.235761
2118.000000	0.235733
2119.000000	0.235279
2120.000000	0.235709
2121.000000	0.237206
2122.000000	0.237965
2123.000000	0.239071
2124.000000	0.239499
2125.000000	0.239526
2126.000000	0.239218
2127.000000	0.237893
2128.000000	0.237553
2129.000000	0.237298
2130.000000	0.237107
2131.000000	0.237897
2132.000000	0.238532
2133.000000	0.239008
2134.000000	0.239235
2135.000000	0.238803
2136.000000	0.239333
2137.000000	0.239731
2138.000000	0.240496
2139.000000	0.240848
2140.000000	0.241178
2141.000000	0.241158
2142.000000	0.240572
2143.000000	0.239971
2144.000000	0.239465
2145.000000	0.239118
2146.000000	0.238351
2147.000000	0.238643
2148.000000	0.239204
2149.000000	0.239699
2150.000000	0.240985
2151.000000	0.242372
2152.000000	0.243082
2153.000000	0.243481
2154.000000	0.243462
2155.000000	0.242254
2156.000000	0.241994
2157.000000	0.242160
2158.000000	0.242045
2159.000000	0.242274
2160.000000	0.242468
2161.000000	0.242126
2162.000000	0.242361
2163.000000	0.242943
2164.000000	0.243375
2165.000000	0.244485
2166.000000	0.244475
2167.000000	0.244014
2168.000000	0.244499
2169.000000	0.243480
2170.000000	0.242606
2171.000000	0.241905
2172.000000	0.240599
2173.000000	0.240238
2174.000000	0.240513
2175.000000	0.240626
2176.000000	0.241701
2177.000000	0.241770
2178.000000	0.241320
2179.000000	0.241246
2180.000000	0.240760
2181.000000	0.240774
2182.000000	0.240792
2183.000000	0.240485
2184.000000	0.241562
2185.000000	0.240058
2186.000000	0.239397
2187.000000	0.240472
2188.000000	0.241017
2189.000000	0.242595
2190.000000	0.243140
2191.000000	0.242068
2192.000000	0.241513
2193.000000	0.239433
2194.000000	0.238704
2195.000000	0.239900
2196.000000	0.239546
2197.000000	0.237408
2198.000000	0.237029
2199.000000	0.237000
2200.000000	0.236890
2201.000000	0.239061
2202.000000	0.239928
2203.000000	0.239797
2204.000000	0.238871
2205.000000	0.237585
2206.000000	0.237734
2207.000000	0.237136
2208.000000	0.236745
2209.000000	0.239979
2210.000000	0.240824
2211.000000	0.241360
2212.000000	0.244333
2213.000000	0.244465
2214.000000	0.241342
2215.000000	0.241173
2216.000000	0.241662
2217.000000	0.241617
2218.000000	0.242714
2219.000000	0.242487
2220.000000	0.240491
2221.000000	0.240081
2222.000000	0.240373
2223.000000	0.240684
2224.000000	0.241334
2225.000000	0.242684
2226.000000	0.243492
2227.000000	0.242846
2228.000000	0.244482
2229.000000	0.244809
2230.000000	0.243241
2231.000000	0.242240
2232.000000	0.239408
2233.000000	0.236652
2234.000000	0.236115
2235.000000	0.236307
2236.000000	0.236652
2237.000000	0.238159
2238.000000	0.239309
2239.000000	0.240435
2240.000000	0.241529
2241.000000	0.243787
2242.000000	0.243039
2243.000000	0.240495
2244.000000	0.238336
2245.000000	0.233020
2246.000000	0.231763
2247.000000	0.233356
2248.000000	0.234409
2249.000000	0.237894
2250.000000	0.238981
2251.000000	0.238343
2252.000000	0.237270
2253.000000	0.237440
2254.000000	0.238140
2255.000000	0.241403
2256.000000	0.243251
2257.000000	0.245899
2258.000000	0.247890
2259.000000	0.246810
2260.000000	0.247647
2261.000000	0.246183
2262.000000	0.241525
2263.000000	0.240066
2264.000000	0.238724
2265.000000	0.238478
2266.000000	0.240487
2267.000000	0.241307
2268.000000	0.242297
2269.000000	0.242466
2270.000000	0.242094
2271.000000	0.241808
2272.000000	0.241318
2273.000000	0.240908
2274.000000	0.240200
2275.000000	0.239523
2276.000000	0.238384
2277.000000	0.237987
2278.000000	0.238051
2279.000000	0.238146
2280.000000	0.238241
2281.000000	0.238015
2282.000000	0.236768
2283.000000	0.235530
2284.000000	0.234985
2285.000000	0.233956
2286.000000	0.232639
2287.000000	0.231894
2288.000000	0.230313
2289.000000	0.228542
2290.000000	0.227722
2291.000000	0.227298
2292.000000	0.227474
2293.000000	0.227348
2294.000000	0.227623
2295.000000	0.228519
2296.000000	0.228875
2297.000000	0.229354
2298.000000	0.229272
2299.000000	0.228318
2300.000000	0.228310
2301.000000	0.228666
2302.000000	0.228547
2303.000000	0.228898
2304.000000	0.228615
2305.000000	0.226456
2306.000000	0.225823
2307.000000	0.225722
2308.000000	0.226967
2309.000000	0.226870
2310.000000	0.229479
2311.000000	0.230059
2312.000000	0.228244
2313.000000	0.227370
2314.000000	0.225320
2315.000000	0.224580
2316.000000	0.224612
2317.000000	0.224537
2318.000000	0.226035
2319.000000	0.226550
2320.000000	0.225785
2321.000000	0.226800
2322.000000	0.227490
2323.000000	0.226625
2324.000000	0.226794
2325.000000	0.226692
2326.000000	0.223544
2327.000000	0.222922
2328.000000	0.225116
2329.000000	0.225328
2330.000000	0.226885
2331.000000	0.228104
2332.000000	0.226019
2333.000000	0.224154
2334.000000	0.223975
2335.000000	0.223102
2336.000000	0.222037
2337.000000	0.220420
2338.000000	0.217778
2339.000000	0.215184
2340.000000	0.210829
2341.000000	0.210285
2342.000000	0.212637
2343.000000	0.213849
2344.000000	0.218341
2345.000000	0.218101
2346.000000	0.214071
2347.000000	0.211737
2348.000000	0.207719
2349.000000	0.204682
2350.000000	0.205468
2351.000000	0.203182
2352.000000	0.201152
2353.000000	0.202854
2354.000000	0.201774
2355.000000	0.204519
2356.000000	0.208242
2357.000000	0.207680
2358.000000	0.209389
2359.000000	0.209590
2360.000000	0.208702
2361.000000	0.210254
2362.000000	0.209731
2363.000000	0.208203
2364.000000	0.204759
2365.000000	0.200964
2366.000000	0.200109
2367.000000	0.199988
2368.000000	0.202409
2369.000000	0.204102
2370.000000	0.203541
2371.000000	0.203681
2372.000000	0.205326
2373.000000	0.207205
2374.000000	0.205368
2375.000000	0.204674
2376.000000	0.200402
2377.000000	0.193152
2378.000000	0.192650
2379.000000	0.190319
2380.000000	0.188492
2381.000000	0.192695
2382.000000	0.191244
2383.000000	0.186732
2384.000000	0.183972
2385.000000	0.178063
2386.000000	0.177250
2387.000000	0.180685
2388.000000	0.183189
2389.000000	0.188483
2390.000000	0.190812
2391.000000	0.193169
2392.000000	0.195914
2393.000000	0.196093
2394.000000	0.199908
2395.000000	0.196717
2396.000000	0.190954
2397.000000	0.187961
2398.000000	0.183178
2399.000000	0.183354
2400.000000	0.180412
2401.000000	0.178588
2402.000000	0.179000
2403.000000	0.181973
2404.000000	0.192986
2405.000000	0.202699
2406.000000	0.204046
2407.000000	0.198387
2408.000000	0.194183
2409.000000	0.193310
2410.000000	0.199400
2411.000000	0.202689
2412.000000	0.199232
2413.000000	0.191750
2414.000000	0.179424
2415.000000	0.174807
2416.000000	0.178038
2417.000000	0.178948
2418.000000	0.173547
2419.000000	0.171969
2420.000000	0.174297
2421.000000	0.177946
2422.000000	0.183993
2423.000000	0.186426
2424.000000	0.178330
2425.000000	0.169870
2426.000000	0.177517
2427.000000	0.186014
2428.000000	0.203039
2429.000000	0.222460
2430.000000	0.215079
2431.000000	0.212410
2432.000000	0.207999
2433.000000	0.186057
2434.000000	0.181029
2435.000000	0.169932
2436.000000	0.153872
2437.000000	0.176097
2438.000000	0.200438
2439.000000	0.217034
2440.000000	0.236058
2441.000000	0.217010
2442.000000	0.190687
2443.000000	0.179697
2444.000000	0.171576
2445.000000	0.178659
2446.000000	0.189877
2447.000000	0.195786
2448.000000	0.198011
2449.000000	0.198395
2450.000000	0.196514
2451.000000	0.199934
2452.000000	0.202547
2453.000000	0.193899
2454.000000	0.180690
2455.000000	0.146830
2456.000000	0.123123
2457.000000	0.123150
2458.000000	0.117235
2459.000000	0.138580
2460.000000	0.170513
2461.000000	0.188525
2462.000000	0.198945
2463.000000	0.185695
2464.000000	0.164253
2465.000000	0.143668
2466.000000	0.138168
2467.000000	0.146083
2468.000000	0.155046
2469.000000	0.155520
2470.000000	0.156052
2471.000000	0.160502
2472.000000	0.166011
2473.000000	0.174396
2474.000000	0.178234
2475.000000	0.177688
2476.000000	0.152596
2477.000000	0.100852
2478.000000	0.062313
2479.000000	0.065474
2480.000000	0.083436
2481.000000	0.116835
2482.000000	0.153831
2483.000000	0.150922
2484.000000	0.147243
2485.000000	0.160283
2486.000000	0.156700
2487.000000	0.156751
2488.000000	0.149518
2489.000000	0.143607
2490.000000	0.161392
2491.000000	0.158818
2492.000000	0.140856
2493.000000	0.092408
2494.000000	0.099363
2495.000000	0.126985
2496.000000	0.150706
2497.000000	0.241052
2498.000000	0.259741
2499.000000	0.247121
2500.000000	0.222141
