# Wavelength	NAu-1-80_HEX-10_FV7-10_00000.asd.rts.txt
350.000000	0.091850
351.000000	0.072396
352.000000	0.083195
353.000000	0.101429
354.000000	0.109890
355.000000	0.102692
356.000000	0.096379
357.000000	0.099015
358.000000	0.112534
359.000000	0.117722
360.000000	0.107375
361.000000	0.083070
362.000000	0.087390
363.000000	0.095950
364.000000	0.092884
365.000000	0.097136
366.000000	0.094759
367.000000	0.088045
368.000000	0.093909
369.000000	0.095349
370.000000	0.091921
371.000000	0.088508
372.000000	0.091841
373.000000	0.095871
374.000000	0.096455
375.000000	0.096486
376.000000	0.096721
377.000000	0.097488
378.000000	0.098905
379.000000	0.099859
380.000000	0.100749
381.000000	0.102340
382.000000	0.100235
383.000000	0.099137
384.000000	0.101330
385.000000	0.098863
386.000000	0.100053
387.000000	0.105119
388.000000	0.105522
389.000000	0.105971
390.000000	0.107571
391.000000	0.110002
392.000000	0.110345
393.000000	0.111043
394.000000	0.113783
395.000000	0.115751
396.000000	0.116446
397.000000	0.116880
398.000000	0.120472
399.000000	0.122545
400.000000	0.123788
401.000000	0.126818
402.000000	0.127808
403.000000	0.128831
404.000000	0.131622
405.000000	0.131769
406.000000	0.132807
407.000000	0.135849
408.000000	0.137793
409.000000	0.138770
410.000000	0.139561
411.000000	0.141452
412.000000	0.142877
413.000000	0.144142
414.000000	0.145743
415.000000	0.146598
416.000000	0.147235
417.000000	0.147937
418.000000	0.148109
419.000000	0.148439
420.000000	0.149161
421.000000	0.150190
422.000000	0.150691
423.000000	0.150661
424.000000	0.150447
425.000000	0.150100
426.000000	0.149986
427.000000	0.150199
428.000000	0.149956
429.000000	0.149874
430.000000	0.150069
431.000000	0.149976
432.000000	0.149900
433.000000	0.149796
434.000000	0.149563
435.000000	0.149469
436.000000	0.149343
437.000000	0.149020
438.000000	0.148911
439.000000	0.148320
440.000000	0.147210
441.000000	0.146712
442.000000	0.146132
443.000000	0.145409
444.000000	0.144976
445.000000	0.145007
446.000000	0.145246
447.000000	0.145317
448.000000	0.145860
449.000000	0.146956
450.000000	0.148547
451.000000	0.150355
452.000000	0.152693
453.000000	0.155556
454.000000	0.158746
455.000000	0.162035
456.000000	0.165288
457.000000	0.168380
458.000000	0.172158
459.000000	0.175790
460.000000	0.178562
461.000000	0.181251
462.000000	0.183776
463.000000	0.185999
464.000000	0.188126
465.000000	0.189813
466.000000	0.191198
467.000000	0.192837
468.000000	0.194153
469.000000	0.195319
470.000000	0.196713
471.000000	0.197651
472.000000	0.198609
473.000000	0.199799
474.000000	0.200327
475.000000	0.200896
476.000000	0.201789
477.000000	0.202600
478.000000	0.203305
479.000000	0.204129
480.000000	0.205088
481.000000	0.205607
482.000000	0.206113
483.000000	0.206838
484.000000	0.207398
485.000000	0.208086
486.000000	0.209081
487.000000	0.209872
488.000000	0.210487
489.000000	0.211099
490.000000	0.211998
491.000000	0.212886
492.000000	0.213795
493.000000	0.214695
494.000000	0.215410
495.000000	0.216133
496.000000	0.216991
497.000000	0.218017
498.000000	0.218851
499.000000	0.219534
500.000000	0.220444
501.000000	0.221212
502.000000	0.221985
503.000000	0.223036
504.000000	0.224043
505.000000	0.224982
506.000000	0.225906
507.000000	0.226887
508.000000	0.227829
509.000000	0.228748
510.000000	0.230068
511.000000	0.231249
512.000000	0.232225
513.000000	0.233240
514.000000	0.234290
515.000000	0.235447
516.000000	0.236700
517.000000	0.237725
518.000000	0.238902
519.000000	0.240369
520.000000	0.241510
521.000000	0.242737
522.000000	0.244150
523.000000	0.245347
524.000000	0.246657
525.000000	0.248066
526.000000	0.249435
527.000000	0.250918
528.000000	0.252448
529.000000	0.253959
530.000000	0.255376
531.000000	0.256909
532.000000	0.258564
533.000000	0.260150
534.000000	0.261670
535.000000	0.263171
536.000000	0.264802
537.000000	0.266397
538.000000	0.267968
539.000000	0.269579
540.000000	0.271233
541.000000	0.272902
542.000000	0.274590
543.000000	0.276280
544.000000	0.277936
545.000000	0.279518
546.000000	0.281238
547.000000	0.282888
548.000000	0.284519
549.000000	0.286262
550.000000	0.287943
551.000000	0.289581
552.000000	0.291195
553.000000	0.292838
554.000000	0.294436
555.000000	0.295972
556.000000	0.297649
557.000000	0.299203
558.000000	0.300702
559.000000	0.302257
560.000000	0.303710
561.000000	0.305148
562.000000	0.306605
563.000000	0.307971
564.000000	0.309303
565.000000	0.310575
566.000000	0.311901
567.000000	0.313187
568.000000	0.314349
569.000000	0.315413
570.000000	0.316488
571.000000	0.317581
572.000000	0.318633
573.000000	0.319634
574.000000	0.320556
575.000000	0.321436
576.000000	0.322299
577.000000	0.323086
578.000000	0.323820
579.000000	0.324507
580.000000	0.325167
581.000000	0.325793
582.000000	0.326345
583.000000	0.326841
584.000000	0.327303
585.000000	0.327764
586.000000	0.328154
587.000000	0.328478
588.000000	0.328774
589.000000	0.329136
590.000000	0.329445
591.000000	0.329648
592.000000	0.329910
593.000000	0.330158
594.000000	0.330357
595.000000	0.330502
596.000000	0.330628
597.000000	0.330770
598.000000	0.330851
599.000000	0.330893
600.000000	0.330966
601.000000	0.331032
602.000000	0.331091
603.000000	0.331148
604.000000	0.331208
605.000000	0.331232
606.000000	0.331272
607.000000	0.331302
608.000000	0.331246
609.000000	0.331199
610.000000	0.331184
611.000000	0.331186
612.000000	0.331045
613.000000	0.330959
614.000000	0.331040
615.000000	0.330957
616.000000	0.330852
617.000000	0.330763
618.000000	0.330746
619.000000	0.330772
620.000000	0.330774
621.000000	0.330747
622.000000	0.330759
623.000000	0.330793
624.000000	0.330814
625.000000	0.330779
626.000000	0.330786
627.000000	0.330864
628.000000	0.330931
629.000000	0.330954
630.000000	0.330890
631.000000	0.331011
632.000000	0.331133
633.000000	0.331227
634.000000	0.331278
635.000000	0.331291
636.000000	0.331382
637.000000	0.331559
638.000000	0.331654
639.000000	0.331737
640.000000	0.331883
641.000000	0.332001
642.000000	0.332133
643.000000	0.332262
644.000000	0.332369
645.000000	0.332507
646.000000	0.332677
647.000000	0.332840
648.000000	0.332977
649.000000	0.333172
650.000000	0.333413
651.000000	0.333624
652.000000	0.333856
653.000000	0.334112
654.000000	0.334291
655.000000	0.334501
656.000000	0.334797
657.000000	0.335128
658.000000	0.335400
659.000000	0.335678
660.000000	0.335974
661.000000	0.336247
662.000000	0.336535
663.000000	0.336884
664.000000	0.337226
665.000000	0.337591
666.000000	0.337991
667.000000	0.338391
668.000000	0.338790
669.000000	0.339178
670.000000	0.339571
671.000000	0.340020
672.000000	0.340477
673.000000	0.340906
674.000000	0.341303
675.000000	0.341703
676.000000	0.342131
677.000000	0.342618
678.000000	0.343134
679.000000	0.343671
680.000000	0.344216
681.000000	0.344682
682.000000	0.345216
683.000000	0.345776
684.000000	0.346395
685.000000	0.346987
686.000000	0.347576
687.000000	0.348162
688.000000	0.348727
689.000000	0.349322
690.000000	0.350006
691.000000	0.350661
692.000000	0.351265
693.000000	0.351924
694.000000	0.352696
695.000000	0.353430
696.000000	0.354130
697.000000	0.354859
698.000000	0.355536
699.000000	0.356194
700.000000	0.356879
701.000000	0.357549
702.000000	0.358301
703.000000	0.359084
704.000000	0.359689
705.000000	0.360381
706.000000	0.361123
707.000000	0.361865
708.000000	0.362624
709.000000	0.363404
710.000000	0.364204
711.000000	0.364894
712.000000	0.365600
713.000000	0.366378
714.000000	0.367100
715.000000	0.367851
716.000000	0.368641
717.000000	0.369422
718.000000	0.370194
719.000000	0.370936
720.000000	0.371651
721.000000	0.372357
722.000000	0.373054
723.000000	0.373804
724.000000	0.374533
725.000000	0.375248
726.000000	0.376004
727.000000	0.376684
728.000000	0.377426
729.000000	0.378182
730.000000	0.378845
731.000000	0.379549
732.000000	0.380213
733.000000	0.380872
734.000000	0.381575
735.000000	0.382197
736.000000	0.382866
737.000000	0.383479
738.000000	0.384002
739.000000	0.384549
740.000000	0.385009
741.000000	0.385537
742.000000	0.386042
743.000000	0.386477
744.000000	0.386940
745.000000	0.387354
746.000000	0.387781
747.000000	0.388192
748.000000	0.388587
749.000000	0.388975
750.000000	0.389327
751.000000	0.389664
752.000000	0.390044
753.000000	0.390458
754.000000	0.390810
755.000000	0.391092
756.000000	0.391378
757.000000	0.391674
758.000000	0.391874
759.000000	0.392042
760.000000	0.392158
761.000000	0.392373
762.000000	0.392584
763.000000	0.392731
764.000000	0.392875
765.000000	0.392976
766.000000	0.393081
767.000000	0.393211
768.000000	0.393264
769.000000	0.393202
770.000000	0.393069
771.000000	0.393017
772.000000	0.393021
773.000000	0.392923
774.000000	0.392700
775.000000	0.392552
776.000000	0.392413
777.000000	0.392193
778.000000	0.391944
779.000000	0.391736
780.000000	0.391541
781.000000	0.391200
782.000000	0.390958
783.000000	0.390844
784.000000	0.390609
785.000000	0.390380
786.000000	0.390093
787.000000	0.389720
788.000000	0.389341
789.000000	0.388980
790.000000	0.388593
791.000000	0.388162
792.000000	0.387818
793.000000	0.387459
794.000000	0.387011
795.000000	0.386590
796.000000	0.386135
797.000000	0.385654
798.000000	0.385248
799.000000	0.384848
800.000000	0.384444
801.000000	0.384045
802.000000	0.383648
803.000000	0.383150
804.000000	0.382597
805.000000	0.382161
806.000000	0.381636
807.000000	0.381113
808.000000	0.380622
809.000000	0.380085
810.000000	0.379558
811.000000	0.379050
812.000000	0.378440
813.000000	0.377847
814.000000	0.377311
815.000000	0.376828
816.000000	0.376329
817.000000	0.375779
818.000000	0.375090
819.000000	0.374489
820.000000	0.373950
821.000000	0.373395
822.000000	0.372870
823.000000	0.372303
824.000000	0.371718
825.000000	0.371296
826.000000	0.370805
827.000000	0.370245
828.000000	0.369691
829.000000	0.369138
830.000000	0.368569
831.000000	0.368003
832.000000	0.367291
833.000000	0.366719
834.000000	0.366224
835.000000	0.365753
836.000000	0.365324
837.000000	0.364785
838.000000	0.364189
839.000000	0.363699
840.000000	0.363216
841.000000	0.362737
842.000000	0.362236
843.000000	0.361794
844.000000	0.361326
845.000000	0.360798
846.000000	0.360326
847.000000	0.359760
848.000000	0.359217
849.000000	0.358858
850.000000	0.358431
851.000000	0.357869
852.000000	0.357287
853.000000	0.356909
854.000000	0.356490
855.000000	0.356061
856.000000	0.355530
857.000000	0.355006
858.000000	0.354541
859.000000	0.354084
860.000000	0.353728
861.000000	0.353378
862.000000	0.353021
863.000000	0.352586
864.000000	0.352108
865.000000	0.351625
866.000000	0.351194
867.000000	0.350824
868.000000	0.350455
869.000000	0.349995
870.000000	0.349495
871.000000	0.349070
872.000000	0.348677
873.000000	0.348235
874.000000	0.347858
875.000000	0.347476
876.000000	0.347128
877.000000	0.346793
878.000000	0.346319
879.000000	0.345982
880.000000	0.345734
881.000000	0.345379
882.000000	0.345073
883.000000	0.344756
884.000000	0.344258
885.000000	0.343978
886.000000	0.343702
887.000000	0.343334
888.000000	0.343012
889.000000	0.342697
890.000000	0.342306
891.000000	0.342002
892.000000	0.341811
893.000000	0.341625
894.000000	0.341501
895.000000	0.341332
896.000000	0.341138
897.000000	0.340876
898.000000	0.340527
899.000000	0.340288
900.000000	0.340029
901.000000	0.339706
902.000000	0.339567
903.000000	0.339433
904.000000	0.339368
905.000000	0.339312
906.000000	0.339038
907.000000	0.338860
908.000000	0.338895
909.000000	0.338829
910.000000	0.338709
911.000000	0.338515
912.000000	0.338265
913.000000	0.338010
914.000000	0.337832
915.000000	0.337804
916.000000	0.337794
917.000000	0.337741
918.000000	0.337659
919.000000	0.337530
920.000000	0.337298
921.000000	0.337216
922.000000	0.337217
923.000000	0.337062
924.000000	0.336962
925.000000	0.336941
926.000000	0.336973
927.000000	0.336848
928.000000	0.336800
929.000000	0.336837
930.000000	0.336872
931.000000	0.336725
932.000000	0.336627
933.000000	0.336571
934.000000	0.336185
935.000000	0.336207
936.000000	0.336361
937.000000	0.336222
938.000000	0.336218
939.000000	0.336258
940.000000	0.336272
941.000000	0.336369
942.000000	0.336308
943.000000	0.336398
944.000000	0.336616
945.000000	0.336703
946.000000	0.336627
947.000000	0.336581
948.000000	0.336677
949.000000	0.336668
950.000000	0.336692
951.000000	0.336715
952.000000	0.336677
953.000000	0.336882
954.000000	0.337111
955.000000	0.337083
956.000000	0.336903
957.000000	0.336935
958.000000	0.337053
959.000000	0.337090
960.000000	0.337129
961.000000	0.337186
962.000000	0.337271
963.000000	0.337454
964.000000	0.337425
965.000000	0.337484
966.000000	0.337723
967.000000	0.337810
968.000000	0.338002
969.000000	0.338162
970.000000	0.338188
971.000000	0.338552
972.000000	0.338758
973.000000	0.338678
974.000000	0.338929
975.000000	0.339158
976.000000	0.339461
977.000000	0.339853
978.000000	0.339864
979.000000	0.340169
980.000000	0.340374
981.000000	0.340300
982.000000	0.340465
983.000000	0.340816
984.000000	0.341226
985.000000	0.341388
986.000000	0.341575
987.000000	0.341810
988.000000	0.342003
989.000000	0.342422
990.000000	0.342784
991.000000	0.342900
992.000000	0.342846
993.000000	0.343394
994.000000	0.343802
995.000000	0.343996
996.000000	0.344030
997.000000	0.344490
998.000000	0.344963
999.000000	0.345386
1000.000000	0.346082
1001.000000	0.345448
1002.000000	0.345532
1003.000000	0.345451
1004.000000	0.345825
1005.000000	0.346610
1006.000000	0.346887
1007.000000	0.347104
1008.000000	0.347684
1009.000000	0.347897
1010.000000	0.347252
1011.000000	0.347917
1012.000000	0.348929
1013.000000	0.348923
1014.000000	0.349284
1015.000000	0.349155
1016.000000	0.348869
1017.000000	0.349602
1018.000000	0.350473
1019.000000	0.350934
1020.000000	0.351761
1021.000000	0.351711
1022.000000	0.350472
1023.000000	0.350831
1024.000000	0.351672
1025.000000	0.352532
1026.000000	0.353375
1027.000000	0.354495
1028.000000	0.354868
1029.000000	0.354663
1030.000000	0.354790
1031.000000	0.355034
1032.000000	0.355481
1033.000000	0.356056
1034.000000	0.356646
1035.000000	0.357672
1036.000000	0.358323
1037.000000	0.358645
1038.000000	0.359056
1039.000000	0.359650
1040.000000	0.360051
1041.000000	0.360480
1042.000000	0.361025
1043.000000	0.361166
1044.000000	0.361711
1045.000000	0.362360
1046.000000	0.362975
1047.000000	0.363720
1048.000000	0.364798
1049.000000	0.365171
1050.000000	0.365075
1051.000000	0.365660
1052.000000	0.366246
1053.000000	0.366794
1054.000000	0.368140
1055.000000	0.368826
1056.000000	0.368937
1057.000000	0.369326
1058.000000	0.369864
1059.000000	0.370379
1060.000000	0.371269
1061.000000	0.372169
1062.000000	0.372661
1063.000000	0.373153
1064.000000	0.373868
1065.000000	0.374505
1066.000000	0.375275
1067.000000	0.376474
1068.000000	0.377073
1069.000000	0.377110
1070.000000	0.377548
1071.000000	0.377917
1072.000000	0.378543
1073.000000	0.379496
1074.000000	0.380640
1075.000000	0.381682
1076.000000	0.382435
1077.000000	0.382986
1078.000000	0.383554
1079.000000	0.384267
1080.000000	0.385041
1081.000000	0.385677
1082.000000	0.386586
1083.000000	0.387245
1084.000000	0.387536
1085.000000	0.388235
1086.000000	0.389233
1087.000000	0.389919
1088.000000	0.390370
1089.000000	0.391010
1090.000000	0.391580
1091.000000	0.391951
1092.000000	0.392806
1093.000000	0.394183
1094.000000	0.395089
1095.000000	0.395771
1096.000000	0.396850
1097.000000	0.398195
1098.000000	0.398929
1099.000000	0.399501
1100.000000	0.400251
1101.000000	0.400455
1102.000000	0.401004
1103.000000	0.401980
1104.000000	0.402808
1105.000000	0.403493
1106.000000	0.404177
1107.000000	0.404755
1108.000000	0.405518
1109.000000	0.406360
1110.000000	0.407341
1111.000000	0.408076
1112.000000	0.408833
1113.000000	0.409700
1114.000000	0.410489
1115.000000	0.411213
1116.000000	0.412089
1117.000000	0.412889
1118.000000	0.413369
1119.000000	0.414043
1120.000000	0.415046
1121.000000	0.415756
1122.000000	0.416255
1123.000000	0.417247
1124.000000	0.418190
1125.000000	0.419023
1126.000000	0.419881
1127.000000	0.420700
1128.000000	0.421438
1129.000000	0.421989
1130.000000	0.422710
1131.000000	0.423520
1132.000000	0.424315
1133.000000	0.425278
1134.000000	0.425986
1135.000000	0.426539
1136.000000	0.427137
1137.000000	0.427604
1138.000000	0.428002
1139.000000	0.428515
1140.000000	0.429118
1141.000000	0.429476
1142.000000	0.430028
1143.000000	0.430836
1144.000000	0.431548
1145.000000	0.431795
1146.000000	0.432278
1147.000000	0.432946
1148.000000	0.433525
1149.000000	0.434177
1150.000000	0.435214
1151.000000	0.435899
1152.000000	0.436178
1153.000000	0.436811
1154.000000	0.437487
1155.000000	0.438166
1156.000000	0.439059
1157.000000	0.439754
1158.000000	0.440232
1159.000000	0.440812
1160.000000	0.441338
1161.000000	0.441893
1162.000000	0.442555
1163.000000	0.443475
1164.000000	0.444022
1165.000000	0.444331
1166.000000	0.444945
1167.000000	0.445441
1168.000000	0.446041
1169.000000	0.446958
1170.000000	0.447682
1171.000000	0.448432
1172.000000	0.449052
1173.000000	0.449452
1174.000000	0.450034
1175.000000	0.450571
1176.000000	0.451063
1177.000000	0.451851
1178.000000	0.452443
1179.000000	0.452819
1180.000000	0.453192
1181.000000	0.453654
1182.000000	0.454032
1183.000000	0.454512
1184.000000	0.455099
1185.000000	0.455733
1186.000000	0.456507
1187.000000	0.457106
1188.000000	0.457743
1189.000000	0.458169
1190.000000	0.458420
1191.000000	0.458877
1192.000000	0.459489
1193.000000	0.460146
1194.000000	0.460768
1195.000000	0.461339
1196.000000	0.461813
1197.000000	0.462274
1198.000000	0.462724
1199.000000	0.463184
1200.000000	0.463635
1201.000000	0.463976
1202.000000	0.464369
1203.000000	0.464839
1204.000000	0.465172
1205.000000	0.465569
1206.000000	0.465968
1207.000000	0.466528
1208.000000	0.466966
1209.000000	0.467497
1210.000000	0.467971
1211.000000	0.468402
1212.000000	0.468786
1213.000000	0.469199
1214.000000	0.469620
1215.000000	0.470031
1216.000000	0.470341
1217.000000	0.470459
1218.000000	0.470770
1219.000000	0.471224
1220.000000	0.471521
1221.000000	0.471866
1222.000000	0.472274
1223.000000	0.472543
1224.000000	0.472747
1225.000000	0.473054
1226.000000	0.473554
1227.000000	0.473899
1228.000000	0.474184
1229.000000	0.474407
1230.000000	0.474510
1231.000000	0.474646
1232.000000	0.474926
1233.000000	0.475313
1234.000000	0.475763
1235.000000	0.476091
1236.000000	0.476299
1237.000000	0.476540
1238.000000	0.476550
1239.000000	0.476778
1240.000000	0.477112
1241.000000	0.477466
1242.000000	0.477844
1243.000000	0.478220
1244.000000	0.478390
1245.000000	0.478609
1246.000000	0.478924
1247.000000	0.479443
1248.000000	0.479970
1249.000000	0.480275
1250.000000	0.480413
1251.000000	0.480529
1252.000000	0.480752
1253.000000	0.481086
1254.000000	0.481327
1255.000000	0.481674
1256.000000	0.481856
1257.000000	0.481846
1258.000000	0.482055
1259.000000	0.482147
1260.000000	0.482417
1261.000000	0.482890
1262.000000	0.483131
1263.000000	0.483299
1264.000000	0.483540
1265.000000	0.483772
1266.000000	0.483817
1267.000000	0.483932
1268.000000	0.484156
1269.000000	0.484311
1270.000000	0.484579
1271.000000	0.484785
1272.000000	0.484873
1273.000000	0.484871
1274.000000	0.484768
1275.000000	0.484826
1276.000000	0.485111
1277.000000	0.485347
1278.000000	0.485526
1279.000000	0.485635
1280.000000	0.485529
1281.000000	0.485521
1282.000000	0.485577
1283.000000	0.485720
1284.000000	0.485962
1285.000000	0.486086
1286.000000	0.486098
1287.000000	0.486052
1288.000000	0.486268
1289.000000	0.486391
1290.000000	0.486531
1291.000000	0.486765
1292.000000	0.486910
1293.000000	0.486935
1294.000000	0.486782
1295.000000	0.486879
1296.000000	0.486957
1297.000000	0.486886
1298.000000	0.487146
1299.000000	0.487329
1300.000000	0.487425
1301.000000	0.487584
1302.000000	0.487602
1303.000000	0.487704
1304.000000	0.487693
1305.000000	0.487720
1306.000000	0.487710
1307.000000	0.487710
1308.000000	0.487773
1309.000000	0.487895
1310.000000	0.487921
1311.000000	0.488053
1312.000000	0.487878
1313.000000	0.487548
1314.000000	0.487236
1315.000000	0.486879
1316.000000	0.486882
1317.000000	0.487007
1318.000000	0.487059
1319.000000	0.487068
1320.000000	0.486705
1321.000000	0.486301
1322.000000	0.485952
1323.000000	0.485558
1324.000000	0.485630
1325.000000	0.485650
1326.000000	0.485573
1327.000000	0.485569
1328.000000	0.485469
1329.000000	0.485324
1330.000000	0.485187
1331.000000	0.485022
1332.000000	0.484908
1333.000000	0.484700
1334.000000	0.484493
1335.000000	0.484362
1336.000000	0.484188
1337.000000	0.484072
1338.000000	0.483970
1339.000000	0.483782
1340.000000	0.483608
1341.000000	0.483368
1342.000000	0.483021
1343.000000	0.482908
1344.000000	0.482823
1345.000000	0.482596
1346.000000	0.482625
1347.000000	0.482327
1348.000000	0.481842
1349.000000	0.481488
1350.000000	0.481257
1351.000000	0.480907
1352.000000	0.480583
1353.000000	0.480392
1354.000000	0.480140
1355.000000	0.479973
1356.000000	0.480063
1357.000000	0.479910
1358.000000	0.479641
1359.000000	0.479342
1360.000000	0.479059
1361.000000	0.478757
1362.000000	0.478565
1363.000000	0.478465
1364.000000	0.478274
1365.000000	0.478053
1366.000000	0.477745
1367.000000	0.477350
1368.000000	0.476939
1369.000000	0.476607
1370.000000	0.476114
1371.000000	0.475552
1372.000000	0.474827
1373.000000	0.474040
1374.000000	0.473351
1375.000000	0.472454
1376.000000	0.471682
1377.000000	0.470888
1378.000000	0.469787
1379.000000	0.468693
1380.000000	0.467397
1381.000000	0.465809
1382.000000	0.464196
1383.000000	0.462420
1384.000000	0.460421
1385.000000	0.458419
1386.000000	0.456371
1387.000000	0.454301
1388.000000	0.452129
1389.000000	0.449624
1390.000000	0.447143
1391.000000	0.444616
1392.000000	0.442071
1393.000000	0.439544
1394.000000	0.437188
1395.000000	0.434743
1396.000000	0.432257
1397.000000	0.429681
1398.000000	0.427076
1399.000000	0.424428
1400.000000	0.421607
1401.000000	0.418853
1402.000000	0.416182
1403.000000	0.413471
1404.000000	0.410816
1405.000000	0.408276
1406.000000	0.405701
1407.000000	0.403249
1408.000000	0.400998
1409.000000	0.398703
1410.000000	0.396603
1411.000000	0.394724
1412.000000	0.392696
1413.000000	0.391018
1414.000000	0.389832
1415.000000	0.388841
1416.000000	0.388199
1417.000000	0.387799
1418.000000	0.387287
1419.000000	0.386913
1420.000000	0.386575
1421.000000	0.386403
1422.000000	0.386320
1423.000000	0.386147
1424.000000	0.385743
1425.000000	0.385201
1426.000000	0.384402
1427.000000	0.383526
1428.000000	0.382808
1429.000000	0.382054
1430.000000	0.381298
1431.000000	0.380696
1432.000000	0.380353
1433.000000	0.380064
1434.000000	0.380258
1435.000000	0.380933
1436.000000	0.381856
1437.000000	0.383071
1438.000000	0.384549
1439.000000	0.386438
1440.000000	0.388488
1441.000000	0.390872
1442.000000	0.393325
1443.000000	0.395943
1444.000000	0.398558
1445.000000	0.401056
1446.000000	0.403494
1447.000000	0.405683
1448.000000	0.407510
1449.000000	0.409170
1450.000000	0.410641
1451.000000	0.411873
1452.000000	0.412876
1453.000000	0.413705
1454.000000	0.414279
1455.000000	0.414745
1456.000000	0.415247
1457.000000	0.415705
1458.000000	0.416166
1459.000000	0.416458
1460.000000	0.416542
1461.000000	0.416646
1462.000000	0.416694
1463.000000	0.416759
1464.000000	0.417134
1465.000000	0.417628
1466.000000	0.418095
1467.000000	0.418673
1468.000000	0.419242
1469.000000	0.419870
1470.000000	0.420436
1471.000000	0.420983
1472.000000	0.421673
1473.000000	0.422558
1474.000000	0.423368
1475.000000	0.424193
1476.000000	0.425029
1477.000000	0.425776
1478.000000	0.426536
1479.000000	0.427369
1480.000000	0.428244
1481.000000	0.429000
1482.000000	0.429670
1483.000000	0.430479
1484.000000	0.431295
1485.000000	0.432155
1486.000000	0.433188
1487.000000	0.434042
1488.000000	0.434803
1489.000000	0.435617
1490.000000	0.436216
1491.000000	0.436909
1492.000000	0.437576
1493.000000	0.438307
1494.000000	0.438983
1495.000000	0.439655
1496.000000	0.440447
1497.000000	0.441128
1498.000000	0.441735
1499.000000	0.442369
1500.000000	0.443020
1501.000000	0.443557
1502.000000	0.444102
1503.000000	0.444670
1504.000000	0.445154
1505.000000	0.445680
1506.000000	0.446323
1507.000000	0.446845
1508.000000	0.447409
1509.000000	0.448026
1510.000000	0.448483
1511.000000	0.448988
1512.000000	0.449487
1513.000000	0.449913
1514.000000	0.450383
1515.000000	0.450826
1516.000000	0.451293
1517.000000	0.451607
1518.000000	0.452020
1519.000000	0.452395
1520.000000	0.452693
1521.000000	0.453102
1522.000000	0.453420
1523.000000	0.453777
1524.000000	0.454138
1525.000000	0.454438
1526.000000	0.454788
1527.000000	0.455146
1528.000000	0.455537
1529.000000	0.455925
1530.000000	0.456144
1531.000000	0.456380
1532.000000	0.456634
1533.000000	0.456910
1534.000000	0.457287
1535.000000	0.457627
1536.000000	0.457862
1537.000000	0.458232
1538.000000	0.458629
1539.000000	0.458940
1540.000000	0.459285
1541.000000	0.459658
1542.000000	0.459971
1543.000000	0.460304
1544.000000	0.460724
1545.000000	0.461070
1546.000000	0.461350
1547.000000	0.461719
1548.000000	0.462001
1549.000000	0.462156
1550.000000	0.462312
1551.000000	0.462507
1552.000000	0.462822
1553.000000	0.463167
1554.000000	0.463465
1555.000000	0.463802
1556.000000	0.464059
1557.000000	0.464185
1558.000000	0.464376
1559.000000	0.464540
1560.000000	0.464603
1561.000000	0.464630
1562.000000	0.464708
1563.000000	0.464773
1564.000000	0.464932
1565.000000	0.465223
1566.000000	0.465262
1567.000000	0.465392
1568.000000	0.465502
1569.000000	0.465557
1570.000000	0.465651
1571.000000	0.465726
1572.000000	0.465856
1573.000000	0.466056
1574.000000	0.466187
1575.000000	0.466399
1576.000000	0.466583
1577.000000	0.466638
1578.000000	0.466768
1579.000000	0.467082
1580.000000	0.467251
1581.000000	0.467479
1582.000000	0.467562
1583.000000	0.467494
1584.000000	0.467442
1585.000000	0.467429
1586.000000	0.467479
1587.000000	0.467569
1588.000000	0.467669
1589.000000	0.467803
1590.000000	0.467890
1591.000000	0.467966
1592.000000	0.468126
1593.000000	0.468458
1594.000000	0.468558
1595.000000	0.468671
1596.000000	0.468769
1597.000000	0.468710
1598.000000	0.468708
1599.000000	0.468849
1600.000000	0.468877
1601.000000	0.468900
1602.000000	0.468988
1603.000000	0.469262
1604.000000	0.469260
1605.000000	0.469074
1606.000000	0.469099
1607.000000	0.469167
1608.000000	0.469177
1609.000000	0.469462
1610.000000	0.469521
1611.000000	0.469312
1612.000000	0.469356
1613.000000	0.469723
1614.000000	0.469835
1615.000000	0.469987
1616.000000	0.470165
1617.000000	0.470153
1618.000000	0.470187
1619.000000	0.470306
1620.000000	0.470377
1621.000000	0.470390
1622.000000	0.470525
1623.000000	0.470631
1624.000000	0.470807
1625.000000	0.470867
1626.000000	0.470906
1627.000000	0.471071
1628.000000	0.471186
1629.000000	0.471169
1630.000000	0.471282
1631.000000	0.471380
1632.000000	0.471406
1633.000000	0.471454
1634.000000	0.471562
1635.000000	0.471715
1636.000000	0.471794
1637.000000	0.471927
1638.000000	0.471939
1639.000000	0.471912
1640.000000	0.471936
1641.000000	0.472062
1642.000000	0.472168
1643.000000	0.472347
1644.000000	0.472404
1645.000000	0.472364
1646.000000	0.472356
1647.000000	0.472358
1648.000000	0.472396
1649.000000	0.472679
1650.000000	0.472776
1651.000000	0.472820
1652.000000	0.472913
1653.000000	0.472815
1654.000000	0.472978
1655.000000	0.473280
1656.000000	0.473318
1657.000000	0.473420
1658.000000	0.473497
1659.000000	0.473594
1660.000000	0.473759
1661.000000	0.473860
1662.000000	0.474042
1663.000000	0.474233
1664.000000	0.474371
1665.000000	0.474574
1666.000000	0.474789
1667.000000	0.474775
1668.000000	0.474836
1669.000000	0.474950
1670.000000	0.474930
1671.000000	0.475009
1672.000000	0.475103
1673.000000	0.475108
1674.000000	0.475176
1675.000000	0.475220
1676.000000	0.475234
1677.000000	0.475269
1678.000000	0.475413
1679.000000	0.475475
1680.000000	0.475310
1681.000000	0.475267
1682.000000	0.475321
1683.000000	0.475367
1684.000000	0.475392
1685.000000	0.475460
1686.000000	0.475331
1687.000000	0.475173
1688.000000	0.475188
1689.000000	0.475271
1690.000000	0.475404
1691.000000	0.475542
1692.000000	0.475568
1693.000000	0.475697
1694.000000	0.475609
1695.000000	0.475608
1696.000000	0.475647
1697.000000	0.475562
1698.000000	0.475498
1699.000000	0.475521
1700.000000	0.475499
1701.000000	0.475657
1702.000000	0.475798
1703.000000	0.475788
1704.000000	0.475887
1705.000000	0.475890
1706.000000	0.475765
1707.000000	0.475723
1708.000000	0.475682
1709.000000	0.475541
1710.000000	0.475542
1711.000000	0.475499
1712.000000	0.475341
1713.000000	0.475293
1714.000000	0.475366
1715.000000	0.475456
1716.000000	0.475753
1717.000000	0.475797
1718.000000	0.475671
1719.000000	0.475560
1720.000000	0.475354
1721.000000	0.475232
1722.000000	0.475202
1723.000000	0.475098
1724.000000	0.474957
1725.000000	0.474946
1726.000000	0.474913
1727.000000	0.474766
1728.000000	0.474571
1729.000000	0.474230
1730.000000	0.473774
1731.000000	0.473643
1732.000000	0.473739
1733.000000	0.473716
1734.000000	0.473618
1735.000000	0.473491
1736.000000	0.473132
1737.000000	0.472998
1738.000000	0.472987
1739.000000	0.473064
1740.000000	0.473310
1741.000000	0.473182
1742.000000	0.472983
1743.000000	0.472933
1744.000000	0.472630
1745.000000	0.472571
1746.000000	0.472823
1747.000000	0.472569
1748.000000	0.472353
1749.000000	0.472136
1750.000000	0.471846
1751.000000	0.471837
1752.000000	0.471764
1753.000000	0.471208
1754.000000	0.470952
1755.000000	0.470736
1756.000000	0.470533
1757.000000	0.470614
1758.000000	0.470530
1759.000000	0.470219
1760.000000	0.470063
1761.000000	0.469864
1762.000000	0.469719
1763.000000	0.469763
1764.000000	0.469703
1765.000000	0.469560
1766.000000	0.469443
1767.000000	0.469198
1768.000000	0.468901
1769.000000	0.468622
1770.000000	0.468575
1771.000000	0.468580
1772.000000	0.468511
1773.000000	0.468501
1774.000000	0.468429
1775.000000	0.468374
1776.000000	0.468190
1777.000000	0.467875
1778.000000	0.467727
1779.000000	0.467429
1780.000000	0.467410
1781.000000	0.467652
1782.000000	0.467688
1783.000000	0.467761
1784.000000	0.467855
1785.000000	0.467871
1786.000000	0.467949
1787.000000	0.468272
1788.000000	0.468444
1789.000000	0.468348
1790.000000	0.468266
1791.000000	0.468029
1792.000000	0.467723
1793.000000	0.467557
1794.000000	0.467373
1795.000000	0.467290
1796.000000	0.467398
1797.000000	0.467399
1798.000000	0.467282
1799.000000	0.467311
1800.000000	0.467592
1801.000000	0.466859
1802.000000	0.467132
1803.000000	0.468194
1804.000000	0.468472
1805.000000	0.469112
1806.000000	0.469507
1807.000000	0.469225
1808.000000	0.469211
1809.000000	0.469355
1810.000000	0.470172
1811.000000	0.469670
1812.000000	0.468143
1813.000000	0.467831
1814.000000	0.467347
1815.000000	0.467219
1816.000000	0.467901
1817.000000	0.468202
1818.000000	0.468441
1819.000000	0.468859
1820.000000	0.469850
1821.000000	0.470021
1822.000000	0.470224
1823.000000	0.470232
1824.000000	0.469945
1825.000000	0.469034
1826.000000	0.468816
1827.000000	0.468693
1828.000000	0.468282
1829.000000	0.468009
1830.000000	0.467304
1831.000000	0.466564
1832.000000	0.464905
1833.000000	0.464494
1834.000000	0.464829
1835.000000	0.464682
1836.000000	0.464652
1837.000000	0.464838
1838.000000	0.464582
1839.000000	0.464576
1840.000000	0.465631
1841.000000	0.466168
1842.000000	0.466067
1843.000000	0.465111
1844.000000	0.465077
1845.000000	0.464898
1846.000000	0.464618
1847.000000	0.464561
1848.000000	0.464457
1849.000000	0.464001
1850.000000	0.462914
1851.000000	0.461891
1852.000000	0.460605
1853.000000	0.459937
1854.000000	0.458778
1855.000000	0.458074
1856.000000	0.458055
1857.000000	0.457789
1858.000000	0.456831
1859.000000	0.455535
1860.000000	0.454033
1861.000000	0.452332
1862.000000	0.450639
1863.000000	0.449017
1864.000000	0.447457
1865.000000	0.445936
1866.000000	0.444168
1867.000000	0.442597
1868.000000	0.440199
1869.000000	0.437470
1870.000000	0.434642
1871.000000	0.430993
1872.000000	0.427325
1873.000000	0.424230
1874.000000	0.421606
1875.000000	0.418337
1876.000000	0.414861
1877.000000	0.411232
1878.000000	0.407003
1879.000000	0.402250
1880.000000	0.397909
1881.000000	0.393251
1882.000000	0.388272
1883.000000	0.383553
1884.000000	0.378371
1885.000000	0.372774
1886.000000	0.366937
1887.000000	0.361002
1888.000000	0.353741
1889.000000	0.346533
1890.000000	0.339822
1891.000000	0.332864
1892.000000	0.326074
1893.000000	0.319626
1894.000000	0.312622
1895.000000	0.305476
1896.000000	0.298082
1897.000000	0.291224
1898.000000	0.284192
1899.000000	0.278041
1900.000000	0.272734
1901.000000	0.267306
1902.000000	0.262664
1903.000000	0.257674
1904.000000	0.253023
1905.000000	0.249701
1906.000000	0.246775
1907.000000	0.244306
1908.000000	0.243018
1909.000000	0.242487
1910.000000	0.241837
1911.000000	0.241100
1912.000000	0.240963
1913.000000	0.241126
1914.000000	0.241470
1915.000000	0.241924
1916.000000	0.242476
1917.000000	0.243267
1918.000000	0.244138
1919.000000	0.245223
1920.000000	0.247265
1921.000000	0.249112
1922.000000	0.250148
1923.000000	0.251043
1924.000000	0.251365
1925.000000	0.251689
1926.000000	0.252944
1927.000000	0.254624
1928.000000	0.255973
1929.000000	0.257569
1930.000000	0.258797
1931.000000	0.259633
1932.000000	0.260390
1933.000000	0.261331
1934.000000	0.262619
1935.000000	0.263924
1936.000000	0.265035
1937.000000	0.265730
1938.000000	0.266689
1939.000000	0.267846
1940.000000	0.269254
1941.000000	0.270493
1942.000000	0.271680
1943.000000	0.272481
1944.000000	0.272771
1945.000000	0.273389
1946.000000	0.274480
1947.000000	0.275276
1948.000000	0.276053
1949.000000	0.276938
1950.000000	0.277250
1951.000000	0.277313
1952.000000	0.277082
1953.000000	0.276885
1954.000000	0.277215
1955.000000	0.278411
1956.000000	0.280536
1957.000000	0.282916
1958.000000	0.284137
1959.000000	0.284424
1960.000000	0.284359
1961.000000	0.284183
1962.000000	0.284158
1963.000000	0.284274
1964.000000	0.284641
1965.000000	0.284939
1966.000000	0.285409
1967.000000	0.286340
1968.000000	0.287708
1969.000000	0.288824
1970.000000	0.289338
1971.000000	0.289404
1972.000000	0.289420
1973.000000	0.289786
1974.000000	0.290446
1975.000000	0.291243
1976.000000	0.292432
1977.000000	0.293709
1978.000000	0.294496
1979.000000	0.295613
1980.000000	0.296996
1981.000000	0.297995
1982.000000	0.299414
1983.000000	0.300669
1984.000000	0.301749
1985.000000	0.302705
1986.000000	0.303779
1987.000000	0.304791
1988.000000	0.306066
1989.000000	0.307030
1990.000000	0.308168
1991.000000	0.309023
1992.000000	0.310142
1993.000000	0.311910
1994.000000	0.313320
1995.000000	0.314710
1996.000000	0.315971
1997.000000	0.317282
1998.000000	0.318716
1999.000000	0.319840
2000.000000	0.321025
2001.000000	0.321694
2002.000000	0.322345
2003.000000	0.323288
2004.000000	0.323793
2005.000000	0.324549
2006.000000	0.325618
2007.000000	0.326755
2008.000000	0.328015
2009.000000	0.329851
2010.000000	0.331425
2011.000000	0.332731
2012.000000	0.333834
2013.000000	0.334962
2014.000000	0.335682
2015.000000	0.336023
2016.000000	0.336787
2017.000000	0.337616
2018.000000	0.339160
2019.000000	0.340678
2020.000000	0.342097
2021.000000	0.343696
2022.000000	0.345400
2023.000000	0.346626
2024.000000	0.348196
2025.000000	0.349106
2026.000000	0.349005
2027.000000	0.349158
2028.000000	0.350080
2029.000000	0.350923
2030.000000	0.351828
2031.000000	0.352814
2032.000000	0.352915
2033.000000	0.353711
2034.000000	0.354751
2035.000000	0.356505
2036.000000	0.357572
2037.000000	0.358841
2038.000000	0.359793
2039.000000	0.360135
2040.000000	0.361288
2041.000000	0.362803
2042.000000	0.363960
2043.000000	0.364978
2044.000000	0.365628
2045.000000	0.365314
2046.000000	0.365264
2047.000000	0.365727
2048.000000	0.366289
2049.000000	0.367171
2050.000000	0.368335
2051.000000	0.369167
2052.000000	0.369791
2053.000000	0.370399
2054.000000	0.371317
2055.000000	0.372141
2056.000000	0.372613
2057.000000	0.373067
2058.000000	0.373951
2059.000000	0.375050
2060.000000	0.375582
2061.000000	0.376199
2062.000000	0.376771
2063.000000	0.376591
2064.000000	0.376859
2065.000000	0.378239
2066.000000	0.378681
2067.000000	0.378827
2068.000000	0.379441
2069.000000	0.379838
2070.000000	0.380476
2071.000000	0.381255
2072.000000	0.381821
2073.000000	0.382733
2074.000000	0.383289
2075.000000	0.383784
2076.000000	0.384466
2077.000000	0.384864
2078.000000	0.384645
2079.000000	0.384960
2080.000000	0.385515
2081.000000	0.385999
2082.000000	0.386781
2083.000000	0.387310
2084.000000	0.387825
2085.000000	0.388009
2086.000000	0.387866
2087.000000	0.388506
2088.000000	0.389189
2089.000000	0.390004
2090.000000	0.390814
2091.000000	0.391895
2092.000000	0.392844
2093.000000	0.393826
2094.000000	0.394632
2095.000000	0.395870
2096.000000	0.396466
2097.000000	0.396353
2098.000000	0.396229
2099.000000	0.396361
2100.000000	0.396416
2101.000000	0.397030
2102.000000	0.398026
2103.000000	0.398624
2104.000000	0.398634
2105.000000	0.398915
2106.000000	0.398894
2107.000000	0.399278
2108.000000	0.399859
2109.000000	0.400650
2110.000000	0.401678
2111.000000	0.402258
2112.000000	0.402682
2113.000000	0.402969
2114.000000	0.402774
2115.000000	0.402045
2116.000000	0.401329
2117.000000	0.400896
2118.000000	0.400731
2119.000000	0.401433
2120.000000	0.401598
2121.000000	0.401924
2122.000000	0.402021
2123.000000	0.401530
2124.000000	0.401601
2125.000000	0.402263
2126.000000	0.402437
2127.000000	0.402614
2128.000000	0.402756
2129.000000	0.402383
2130.000000	0.402464
2131.000000	0.402375
2132.000000	0.402191
2133.000000	0.402161
2134.000000	0.402053
2135.000000	0.402208
2136.000000	0.402828
2137.000000	0.402986
2138.000000	0.403012
2139.000000	0.403208
2140.000000	0.403013
2141.000000	0.403432
2142.000000	0.404812
2143.000000	0.405064
2144.000000	0.405436
2145.000000	0.405487
2146.000000	0.404795
2147.000000	0.404569
2148.000000	0.404600
2149.000000	0.404759
2150.000000	0.405095
2151.000000	0.404294
2152.000000	0.403420
2153.000000	0.402495
2154.000000	0.401621
2155.000000	0.400462
2156.000000	0.400207
2157.000000	0.400547
2158.000000	0.400490
2159.000000	0.401080
2160.000000	0.401092
2161.000000	0.400697
2162.000000	0.400428
2163.000000	0.399876
2164.000000	0.399226
2165.000000	0.398577
2166.000000	0.397190
2167.000000	0.396754
2168.000000	0.396371
2169.000000	0.396884
2170.000000	0.397467
2171.000000	0.397010
2172.000000	0.395953
2173.000000	0.395475
2174.000000	0.393976
2175.000000	0.393865
2176.000000	0.394878
2177.000000	0.395319
2178.000000	0.396330
2179.000000	0.397234
2180.000000	0.398451
2181.000000	0.399393
2182.000000	0.399906
2183.000000	0.399123
2184.000000	0.398700
2185.000000	0.396610
2186.000000	0.394281
2187.000000	0.392945
2188.000000	0.391695
2189.000000	0.390374
2190.000000	0.390734
2191.000000	0.391663
2192.000000	0.391048
2193.000000	0.390063
2194.000000	0.388595
2195.000000	0.384912
2196.000000	0.383453
2197.000000	0.382560
2198.000000	0.382375
2199.000000	0.385442
2200.000000	0.385441
2201.000000	0.383958
2202.000000	0.382365
2203.000000	0.379237
2204.000000	0.374212
2205.000000	0.369427
2206.000000	0.369562
2207.000000	0.370690
2208.000000	0.372768
2209.000000	0.376625
2210.000000	0.381656
2211.000000	0.385345
2212.000000	0.387437
2213.000000	0.389195
2214.000000	0.390297
2215.000000	0.390833
2216.000000	0.389046
2217.000000	0.390605
2218.000000	0.394587
2219.000000	0.395165
2220.000000	0.397044
2221.000000	0.396318
2222.000000	0.390147
2223.000000	0.387972
2224.000000	0.386686
2225.000000	0.386004
2226.000000	0.386658
2227.000000	0.388173
2228.000000	0.392524
2229.000000	0.392744
2230.000000	0.392548
2231.000000	0.394722
2232.000000	0.391128
2233.000000	0.390108
2234.000000	0.388458
2235.000000	0.385732
2236.000000	0.383789
2237.000000	0.381733
2238.000000	0.379826
2239.000000	0.377861
2240.000000	0.376554
2241.000000	0.375388
2242.000000	0.375501
2243.000000	0.376864
2244.000000	0.378049
2245.000000	0.381113
2246.000000	0.381610
2247.000000	0.380034
2248.000000	0.379473
2249.000000	0.377154
2250.000000	0.377500
2251.000000	0.378624
2252.000000	0.380542
2253.000000	0.382479
2254.000000	0.381577
2255.000000	0.379278
2256.000000	0.378227
2257.000000	0.379345
2258.000000	0.380880
2259.000000	0.382362
2260.000000	0.381603
2261.000000	0.378060
2262.000000	0.369197
2263.000000	0.365114
2264.000000	0.361265
2265.000000	0.358423
2266.000000	0.358831
2267.000000	0.356190
2268.000000	0.352291
2269.000000	0.347731
2270.000000	0.340730
2271.000000	0.336309
2272.000000	0.333114
2273.000000	0.329247
2274.000000	0.326003
2275.000000	0.323393
2276.000000	0.321209
2277.000000	0.316899
2278.000000	0.313658
2279.000000	0.311279
2280.000000	0.306218
2281.000000	0.303317
2282.000000	0.304176
2283.000000	0.304142
2284.000000	0.305091
2285.000000	0.304989
2286.000000	0.302741
2287.000000	0.300888
2288.000000	0.299964
2289.000000	0.300612
2290.000000	0.301528
2291.000000	0.303599
2292.000000	0.305423
2293.000000	0.307067
2294.000000	0.308630
2295.000000	0.309409
2296.000000	0.311510
2297.000000	0.313974
2298.000000	0.317150
2299.000000	0.322439
2300.000000	0.325476
2301.000000	0.327681
2302.000000	0.330146
2303.000000	0.331930
2304.000000	0.334049
2305.000000	0.336339
2306.000000	0.337972
2307.000000	0.339144
2308.000000	0.339963
2309.000000	0.340781
2310.000000	0.341960
2311.000000	0.343085
2312.000000	0.342745
2313.000000	0.341203
2314.000000	0.341308
2315.000000	0.341182
2316.000000	0.341312
2317.000000	0.342317
2318.000000	0.341587
2319.000000	0.340905
2320.000000	0.341907
2321.000000	0.343110
2322.000000	0.344345
2323.000000	0.345195
2324.000000	0.343983
2325.000000	0.342499
2326.000000	0.343594
2327.000000	0.345702
2328.000000	0.347836
2329.000000	0.348075
2330.000000	0.344988
2331.000000	0.341387
2332.000000	0.336992
2333.000000	0.334577
2334.000000	0.335340
2335.000000	0.335646
2336.000000	0.336674
2337.000000	0.336530
2338.000000	0.337073
2339.000000	0.335246
2340.000000	0.331016
2341.000000	0.329390
2342.000000	0.326075
2343.000000	0.324753
2344.000000	0.327978
2345.000000	0.326950
2346.000000	0.323435
2347.000000	0.322800
2348.000000	0.322672
2349.000000	0.319738
2350.000000	0.319137
2351.000000	0.320325
2352.000000	0.316991
2353.000000	0.316275
2354.000000	0.317959
2355.000000	0.315815
2356.000000	0.315867
2357.000000	0.313620
2358.000000	0.306331
2359.000000	0.302602
2360.000000	0.297617
2361.000000	0.295072
2362.000000	0.296290
2363.000000	0.295918
2364.000000	0.295826
2365.000000	0.295814
2366.000000	0.298747
2367.000000	0.299535
2368.000000	0.299227
2369.000000	0.299443
2370.000000	0.292912
2371.000000	0.287561
2372.000000	0.285470
2373.000000	0.284835
2374.000000	0.288515
2375.000000	0.295281
2376.000000	0.300875
2377.000000	0.299979
2378.000000	0.293147
2379.000000	0.288843
2380.000000	0.287496
2381.000000	0.284285
2382.000000	0.284254
2383.000000	0.283257
2384.000000	0.282004
2385.000000	0.282794
2386.000000	0.281784
2387.000000	0.278575
2388.000000	0.272139
2389.000000	0.269508
2390.000000	0.266615
2391.000000	0.262654
2392.000000	0.259262
2393.000000	0.254848
2394.000000	0.253765
2395.000000	0.253116
2396.000000	0.258157
2397.000000	0.261528
2398.000000	0.262720
2399.000000	0.270028
2400.000000	0.270245
2401.000000	0.269441
2402.000000	0.268324
2403.000000	0.262441
2404.000000	0.258647
2405.000000	0.252719
2406.000000	0.250055
2407.000000	0.248420
2408.000000	0.239091
2409.000000	0.238303
2410.000000	0.240177
2411.000000	0.235785
2412.000000	0.242124
2413.000000	0.238405
2414.000000	0.226897
2415.000000	0.231143
2416.000000	0.233726
2417.000000	0.240994
2418.000000	0.259504
2419.000000	0.262129
2420.000000	0.260061
2421.000000	0.264476
2422.000000	0.260656
2423.000000	0.257415
2424.000000	0.256045
2425.000000	0.251432
2426.000000	0.255398
2427.000000	0.257149
2428.000000	0.251694
2429.000000	0.253310
2430.000000	0.247784
2431.000000	0.242522
2432.000000	0.255585
2433.000000	0.260906
2434.000000	0.257263
2435.000000	0.258180
2436.000000	0.244495
2437.000000	0.236816
2438.000000	0.231897
2439.000000	0.213667
2440.000000	0.210106
2441.000000	0.207502
2442.000000	0.201166
2443.000000	0.205121
2444.000000	0.219689
2445.000000	0.228923
2446.000000	0.246526
2447.000000	0.269808
2448.000000	0.262588
2449.000000	0.258579
2450.000000	0.242180
2451.000000	0.219470
2452.000000	0.213950
2453.000000	0.199969
2454.000000	0.194375
2455.000000	0.192739
2456.000000	0.199484
2457.000000	0.216260
2458.000000	0.226141
2459.000000	0.227130
2460.000000	0.227391
2461.000000	0.235120
2462.000000	0.241014
2463.000000	0.247274
2464.000000	0.244974
2465.000000	0.229189
2466.000000	0.214323
2467.000000	0.197745
2468.000000	0.210155
2469.000000	0.224883
2470.000000	0.211095
2471.000000	0.219120
2472.000000	0.215453
2473.000000	0.191272
2474.000000	0.209873
2475.000000	0.240083
2476.000000	0.229436
2477.000000	0.225414
2478.000000	0.218167
2479.000000	0.180606
2480.000000	0.165429
2481.000000	0.167208
2482.000000	0.175815
2483.000000	0.183713
2484.000000	0.218879
2485.000000	0.244297
2486.000000	0.224682
2487.000000	0.229897
2488.000000	0.206988
2489.000000	0.188010
2490.000000	0.222397
2491.000000	0.248009
2492.000000	0.260808
2493.000000	0.287609
2494.000000	0.292104
2495.000000	0.271165
2496.000000	0.248325
2497.000000	0.173517
2498.000000	0.148462
2499.000000	0.153110
2500.000000	0.160868
