# Wavelength	NAu-2-30_HEX-20_FV7-50_00001.asd.rts.txt
350.000000	0.158036
351.000000	0.144076
352.000000	0.156138
353.000000	0.165465
354.000000	0.159871
355.000000	0.158639
356.000000	0.144631
357.000000	0.126854
358.000000	0.132532
359.000000	0.137935
360.000000	0.141538
361.000000	0.146055
362.000000	0.147246
363.000000	0.146709
364.000000	0.146976
365.000000	0.154864
366.000000	0.154566
367.000000	0.146454
368.000000	0.144665
369.000000	0.147465
370.000000	0.149671
371.000000	0.146403
372.000000	0.146353
373.000000	0.149048
374.000000	0.151289
375.000000	0.142506
376.000000	0.140538
377.000000	0.146817
378.000000	0.147825
379.000000	0.147771
380.000000	0.146989
381.000000	0.145844
382.000000	0.147283
383.000000	0.149118
384.000000	0.149676
385.000000	0.149539
386.000000	0.149977
387.000000	0.150890
388.000000	0.150383
389.000000	0.150623
390.000000	0.151505
391.000000	0.151985
392.000000	0.152207
393.000000	0.151942
394.000000	0.151457
395.000000	0.153043
396.000000	0.153329
397.000000	0.151815
398.000000	0.151829
399.000000	0.152130
400.000000	0.152655
401.000000	0.153552
402.000000	0.153628
403.000000	0.153275
404.000000	0.153225
405.000000	0.153876
406.000000	0.154728
407.000000	0.155285
408.000000	0.154762
409.000000	0.154865
410.000000	0.155765
411.000000	0.156729
412.000000	0.156860
413.000000	0.156667
414.000000	0.156851
415.000000	0.156915
416.000000	0.156946
417.000000	0.157082
418.000000	0.157508
419.000000	0.157958
420.000000	0.158326
421.000000	0.158636
422.000000	0.158692
423.000000	0.158776
424.000000	0.159281
425.000000	0.159514
426.000000	0.159636
427.000000	0.159813
428.000000	0.159894
429.000000	0.160213
430.000000	0.160820
431.000000	0.161431
432.000000	0.161677
433.000000	0.161711
434.000000	0.162015
435.000000	0.162444
436.000000	0.162646
437.000000	0.162484
438.000000	0.163170
439.000000	0.163508
440.000000	0.163165
441.000000	0.163420
442.000000	0.163749
443.000000	0.163930
444.000000	0.163987
445.000000	0.164121
446.000000	0.164469
447.000000	0.164961
448.000000	0.165220
449.000000	0.165517
450.000000	0.166003
451.000000	0.166268
452.000000	0.166603
453.000000	0.167071
454.000000	0.167656
455.000000	0.168303
456.000000	0.168746
457.000000	0.168582
458.000000	0.168660
459.000000	0.168763
460.000000	0.168759
461.000000	0.169659
462.000000	0.170068
463.000000	0.169583
464.000000	0.170031
465.000000	0.170489
466.000000	0.170708
467.000000	0.170867
468.000000	0.171067
469.000000	0.171345
470.000000	0.171804
471.000000	0.172333
472.000000	0.172560
473.000000	0.172498
474.000000	0.173190
475.000000	0.173520
476.000000	0.173429
477.000000	0.173744
478.000000	0.174195
479.000000	0.174721
480.000000	0.175056
481.000000	0.174951
482.000000	0.174863
483.000000	0.175095
484.000000	0.175740
485.000000	0.175984
486.000000	0.175814
487.000000	0.176316
488.000000	0.176648
489.000000	0.176708
490.000000	0.176824
491.000000	0.177233
492.000000	0.177728
493.000000	0.177910
494.000000	0.177935
495.000000	0.178076
496.000000	0.178396
497.000000	0.178475
498.000000	0.178516
499.000000	0.178658
500.000000	0.178856
501.000000	0.179025
502.000000	0.179194
503.000000	0.179385
504.000000	0.179570
505.000000	0.179809
506.000000	0.180135
507.000000	0.180344
508.000000	0.180525
509.000000	0.180733
510.000000	0.181003
511.000000	0.181382
512.000000	0.181823
513.000000	0.182156
514.000000	0.182527
515.000000	0.182882
516.000000	0.183093
517.000000	0.183456
518.000000	0.183822
519.000000	0.184044
520.000000	0.184459
521.000000	0.184894
522.000000	0.185296
523.000000	0.185786
524.000000	0.186287
525.000000	0.186799
526.000000	0.187385
527.000000	0.187943
528.000000	0.188489
529.000000	0.189112
530.000000	0.189876
531.000000	0.190661
532.000000	0.191359
533.000000	0.192183
534.000000	0.193032
535.000000	0.193845
536.000000	0.194610
537.000000	0.195414
538.000000	0.196260
539.000000	0.197092
540.000000	0.197747
541.000000	0.198316
542.000000	0.198942
543.000000	0.199616
544.000000	0.200330
545.000000	0.201016
546.000000	0.201665
547.000000	0.202294
548.000000	0.202978
549.000000	0.203773
550.000000	0.204558
551.000000	0.205368
552.000000	0.206228
553.000000	0.207050
554.000000	0.207977
555.000000	0.209056
556.000000	0.209955
557.000000	0.210927
558.000000	0.212101
559.000000	0.213176
560.000000	0.214162
561.000000	0.215181
562.000000	0.216298
563.000000	0.217320
564.000000	0.218321
565.000000	0.219312
566.000000	0.220244
567.000000	0.221107
568.000000	0.221894
569.000000	0.222660
570.000000	0.223308
571.000000	0.223864
572.000000	0.224489
573.000000	0.225021
574.000000	0.225503
575.000000	0.226066
576.000000	0.226490
577.000000	0.226843
578.000000	0.227252
579.000000	0.227630
580.000000	0.228003
581.000000	0.228346
582.000000	0.228541
583.000000	0.228699
584.000000	0.228888
585.000000	0.229156
586.000000	0.229257
587.000000	0.229262
588.000000	0.229300
589.000000	0.229280
590.000000	0.229244
591.000000	0.229204
592.000000	0.229070
593.000000	0.228967
594.000000	0.228906
595.000000	0.228795
596.000000	0.228661
597.000000	0.228524
598.000000	0.228325
599.000000	0.228090
600.000000	0.227935
601.000000	0.227844
602.000000	0.227573
603.000000	0.227273
604.000000	0.227025
605.000000	0.226746
606.000000	0.226534
607.000000	0.226364
608.000000	0.226128
609.000000	0.225908
610.000000	0.225693
611.000000	0.225462
612.000000	0.225258
613.000000	0.225062
614.000000	0.224893
615.000000	0.224787
616.000000	0.224638
617.000000	0.224419
618.000000	0.224273
619.000000	0.224057
620.000000	0.223798
621.000000	0.223627
622.000000	0.223487
623.000000	0.223310
624.000000	0.223082
625.000000	0.223004
626.000000	0.222978
627.000000	0.222929
628.000000	0.222813
629.000000	0.222721
630.000000	0.222604
631.000000	0.222549
632.000000	0.222474
633.000000	0.222420
634.000000	0.222418
635.000000	0.222338
636.000000	0.222264
637.000000	0.222247
638.000000	0.222318
639.000000	0.222375
640.000000	0.222416
641.000000	0.222399
642.000000	0.222437
643.000000	0.222528
644.000000	0.222630
645.000000	0.222732
646.000000	0.222837
647.000000	0.222921
648.000000	0.222937
649.000000	0.223052
650.000000	0.223257
651.000000	0.223351
652.000000	0.223514
653.000000	0.223760
654.000000	0.223972
655.000000	0.224186
656.000000	0.224429
657.000000	0.224681
658.000000	0.224971
659.000000	0.225294
660.000000	0.225618
661.000000	0.225883
662.000000	0.226209
663.000000	0.226609
664.000000	0.226952
665.000000	0.227408
666.000000	0.227889
667.000000	0.228267
668.000000	0.228709
669.000000	0.229228
670.000000	0.229779
671.000000	0.230185
672.000000	0.230667
673.000000	0.231239
674.000000	0.231764
675.000000	0.232239
676.000000	0.232706
677.000000	0.233232
678.000000	0.233781
679.000000	0.234371
680.000000	0.235012
681.000000	0.235657
682.000000	0.236356
683.000000	0.237045
684.000000	0.237720
685.000000	0.238422
686.000000	0.239179
687.000000	0.239962
688.000000	0.240713
689.000000	0.241416
690.000000	0.242135
691.000000	0.243031
692.000000	0.243889
693.000000	0.244680
694.000000	0.245438
695.000000	0.246284
696.000000	0.247167
697.000000	0.247980
698.000000	0.248901
699.000000	0.249865
700.000000	0.250799
701.000000	0.251704
702.000000	0.252606
703.000000	0.253515
704.000000	0.254482
705.000000	0.255458
706.000000	0.256423
707.000000	0.257439
708.000000	0.258433
709.000000	0.259381
710.000000	0.260313
711.000000	0.261365
712.000000	0.262404
713.000000	0.263403
714.000000	0.264439
715.000000	0.265517
716.000000	0.266590
717.000000	0.267568
718.000000	0.268598
719.000000	0.269613
720.000000	0.270569
721.000000	0.271576
722.000000	0.272566
723.000000	0.273543
724.000000	0.274449
725.000000	0.275368
726.000000	0.276374
727.000000	0.277378
728.000000	0.278339
729.000000	0.279301
730.000000	0.280243
731.000000	0.281123
732.000000	0.282018
733.000000	0.282972
734.000000	0.283875
735.000000	0.284687
736.000000	0.285523
737.000000	0.286320
738.000000	0.287052
739.000000	0.287852
740.000000	0.288637
741.000000	0.289369
742.000000	0.290069
743.000000	0.290736
744.000000	0.291435
745.000000	0.292096
746.000000	0.292731
747.000000	0.293306
748.000000	0.294030
749.000000	0.294764
750.000000	0.295382
751.000000	0.296026
752.000000	0.296652
753.000000	0.297241
754.000000	0.297766
755.000000	0.298282
756.000000	0.298806
757.000000	0.299299
758.000000	0.299822
759.000000	0.300331
760.000000	0.300740
761.000000	0.301148
762.000000	0.301542
763.000000	0.301892
764.000000	0.302236
765.000000	0.302558
766.000000	0.302929
767.000000	0.303385
768.000000	0.303795
769.000000	0.304118
770.000000	0.304391
771.000000	0.304749
772.000000	0.305098
773.000000	0.305344
774.000000	0.305524
775.000000	0.305658
776.000000	0.305768
777.000000	0.305878
778.000000	0.306098
779.000000	0.306343
780.000000	0.306593
781.000000	0.306863
782.000000	0.307063
783.000000	0.307332
784.000000	0.307634
785.000000	0.307753
786.000000	0.307834
787.000000	0.307957
788.000000	0.308063
789.000000	0.308139
790.000000	0.308188
791.000000	0.308268
792.000000	0.308340
793.000000	0.308411
794.000000	0.308497
795.000000	0.308606
796.000000	0.308661
797.000000	0.308643
798.000000	0.308602
799.000000	0.308651
800.000000	0.308761
801.000000	0.308858
802.000000	0.308917
803.000000	0.308964
804.000000	0.309047
805.000000	0.309103
806.000000	0.309149
807.000000	0.309224
808.000000	0.309230
809.000000	0.309235
810.000000	0.309223
811.000000	0.309174
812.000000	0.309175
813.000000	0.309151
814.000000	0.309072
815.000000	0.308974
816.000000	0.308850
817.000000	0.308817
818.000000	0.308872
819.000000	0.308885
820.000000	0.308913
821.000000	0.308945
822.000000	0.309020
823.000000	0.309027
824.000000	0.308942
825.000000	0.308889
826.000000	0.308786
827.000000	0.308685
828.000000	0.308659
829.000000	0.308649
830.000000	0.308609
831.000000	0.308523
832.000000	0.308250
833.000000	0.308153
834.000000	0.308069
835.000000	0.307879
836.000000	0.307701
837.000000	0.307572
838.000000	0.307494
839.000000	0.307403
840.000000	0.307443
841.000000	0.307490
842.000000	0.307386
843.000000	0.307297
844.000000	0.307240
845.000000	0.307173
846.000000	0.307075
847.000000	0.306953
848.000000	0.306798
849.000000	0.306634
850.000000	0.306430
851.000000	0.306261
852.000000	0.306193
853.000000	0.306178
854.000000	0.305984
855.000000	0.305816
856.000000	0.305770
857.000000	0.305573
858.000000	0.305440
859.000000	0.305350
860.000000	0.305086
861.000000	0.304896
862.000000	0.304782
863.000000	0.304606
864.000000	0.304648
865.000000	0.304585
866.000000	0.304287
867.000000	0.303973
868.000000	0.303738
869.000000	0.303546
870.000000	0.303389
871.000000	0.303086
872.000000	0.302875
873.000000	0.302789
874.000000	0.302598
875.000000	0.302432
876.000000	0.302292
877.000000	0.302062
878.000000	0.301743
879.000000	0.301559
880.000000	0.301467
881.000000	0.301388
882.000000	0.301244
883.000000	0.301122
884.000000	0.301075
885.000000	0.300841
886.000000	0.300558
887.000000	0.300351
888.000000	0.300153
889.000000	0.300095
890.000000	0.299924
891.000000	0.299545
892.000000	0.299398
893.000000	0.299153
894.000000	0.298805
895.000000	0.298588
896.000000	0.298333
897.000000	0.298065
898.000000	0.297848
899.000000	0.297541
900.000000	0.297195
901.000000	0.296891
902.000000	0.296863
903.000000	0.296705
904.000000	0.296529
905.000000	0.296435
906.000000	0.296329
907.000000	0.296073
908.000000	0.295751
909.000000	0.295514
910.000000	0.295348
911.000000	0.295089
912.000000	0.294658
913.000000	0.294286
914.000000	0.293996
915.000000	0.293798
916.000000	0.293522
917.000000	0.293203
918.000000	0.292970
919.000000	0.292851
920.000000	0.292656
921.000000	0.292444
922.000000	0.292220
923.000000	0.291941
924.000000	0.291668
925.000000	0.291339
926.000000	0.291015
927.000000	0.290892
928.000000	0.290678
929.000000	0.290384
930.000000	0.290113
931.000000	0.289812
932.000000	0.289556
933.000000	0.289358
934.000000	0.289061
935.000000	0.288805
936.000000	0.288648
937.000000	0.288473
938.000000	0.288137
939.000000	0.287786
940.000000	0.287415
941.000000	0.287095
942.000000	0.286871
943.000000	0.286697
944.000000	0.286448
945.000000	0.286297
946.000000	0.286021
947.000000	0.285741
948.000000	0.285571
949.000000	0.285366
950.000000	0.285089
951.000000	0.284744
952.000000	0.284489
953.000000	0.284363
954.000000	0.284239
955.000000	0.283949
956.000000	0.283542
957.000000	0.283407
958.000000	0.283333
959.000000	0.283056
960.000000	0.282973
961.000000	0.282730
962.000000	0.282323
963.000000	0.282253
964.000000	0.281933
965.000000	0.281506
966.000000	0.281115
967.000000	0.280901
968.000000	0.280761
969.000000	0.280540
970.000000	0.280250
971.000000	0.280213
972.000000	0.280234
973.000000	0.280110
974.000000	0.279872
975.000000	0.279558
976.000000	0.279290
977.000000	0.279073
978.000000	0.278527
979.000000	0.278320
980.000000	0.278261
981.000000	0.278218
982.000000	0.277961
983.000000	0.277491
984.000000	0.277092
985.000000	0.277136
986.000000	0.277284
987.000000	0.277308
988.000000	0.277051
989.000000	0.276846
990.000000	0.276622
991.000000	0.276503
992.000000	0.276586
993.000000	0.276299
994.000000	0.276253
995.000000	0.276384
996.000000	0.275853
997.000000	0.275773
998.000000	0.275648
999.000000	0.275416
1000.000000	0.275691
1001.000000	0.275498
1002.000000	0.275502
1003.000000	0.275755
1004.000000	0.275748
1005.000000	0.275909
1006.000000	0.275536
1007.000000	0.274624
1008.000000	0.274110
1009.000000	0.274036
1010.000000	0.274171
1011.000000	0.274844
1012.000000	0.275677
1013.000000	0.275512
1014.000000	0.275019
1015.000000	0.274846
1016.000000	0.274419
1017.000000	0.274044
1018.000000	0.274486
1019.000000	0.274691
1020.000000	0.274723
1021.000000	0.274676
1022.000000	0.275062
1023.000000	0.275311
1024.000000	0.275349
1025.000000	0.275579
1026.000000	0.274929
1027.000000	0.274275
1028.000000	0.274272
1029.000000	0.274158
1030.000000	0.274287
1031.000000	0.274600
1032.000000	0.274609
1033.000000	0.274406
1034.000000	0.274375
1035.000000	0.274496
1036.000000	0.274893
1037.000000	0.275705
1038.000000	0.275841
1039.000000	0.275923
1040.000000	0.276295
1041.000000	0.276185
1042.000000	0.275646
1043.000000	0.276036
1044.000000	0.276412
1045.000000	0.276008
1046.000000	0.275514
1047.000000	0.275439
1048.000000	0.275294
1049.000000	0.275342
1050.000000	0.275772
1051.000000	0.276007
1052.000000	0.276020
1053.000000	0.276196
1054.000000	0.276964
1055.000000	0.277298
1056.000000	0.277648
1057.000000	0.277566
1058.000000	0.277225
1059.000000	0.276758
1060.000000	0.276989
1061.000000	0.277307
1062.000000	0.277510
1063.000000	0.278222
1064.000000	0.278562
1065.000000	0.278484
1066.000000	0.278794
1067.000000	0.279444
1068.000000	0.279546
1069.000000	0.279344
1070.000000	0.279432
1071.000000	0.279389
1072.000000	0.279391
1073.000000	0.279563
1074.000000	0.279915
1075.000000	0.280352
1076.000000	0.280718
1077.000000	0.281129
1078.000000	0.281752
1079.000000	0.281893
1080.000000	0.281507
1081.000000	0.281469
1082.000000	0.281462
1083.000000	0.281596
1084.000000	0.281923
1085.000000	0.282239
1086.000000	0.282642
1087.000000	0.282913
1088.000000	0.282897
1089.000000	0.283220
1090.000000	0.283847
1091.000000	0.284169
1092.000000	0.284093
1093.000000	0.284561
1094.000000	0.284714
1095.000000	0.284375
1096.000000	0.284387
1097.000000	0.284643
1098.000000	0.284814
1099.000000	0.284691
1100.000000	0.285088
1101.000000	0.285959
1102.000000	0.286411
1103.000000	0.287008
1104.000000	0.287322
1105.000000	0.287081
1106.000000	0.287214
1107.000000	0.287443
1108.000000	0.287585
1109.000000	0.287866
1110.000000	0.288174
1111.000000	0.288363
1112.000000	0.288448
1113.000000	0.288543
1114.000000	0.288601
1115.000000	0.288716
1116.000000	0.288753
1117.000000	0.288933
1118.000000	0.289198
1119.000000	0.289445
1120.000000	0.289798
1121.000000	0.290058
1122.000000	0.290399
1123.000000	0.290818
1124.000000	0.291007
1125.000000	0.291245
1126.000000	0.291525
1127.000000	0.291634
1128.000000	0.291652
1129.000000	0.291572
1130.000000	0.291640
1131.000000	0.291692
1132.000000	0.291702
1133.000000	0.291775
1134.000000	0.291950
1135.000000	0.292029
1136.000000	0.292183
1137.000000	0.292621
1138.000000	0.292748
1139.000000	0.292704
1140.000000	0.292858
1141.000000	0.292985
1142.000000	0.293072
1143.000000	0.293066
1144.000000	0.293317
1145.000000	0.293598
1146.000000	0.293676
1147.000000	0.293718
1148.000000	0.293701
1149.000000	0.293792
1150.000000	0.293796
1151.000000	0.293864
1152.000000	0.294048
1153.000000	0.294167
1154.000000	0.294115
1155.000000	0.294156
1156.000000	0.294333
1157.000000	0.294457
1158.000000	0.294529
1159.000000	0.294542
1160.000000	0.294424
1161.000000	0.294432
1162.000000	0.294467
1163.000000	0.294714
1164.000000	0.294831
1165.000000	0.295015
1166.000000	0.295125
1167.000000	0.295054
1168.000000	0.295115
1169.000000	0.295308
1170.000000	0.295358
1171.000000	0.295400
1172.000000	0.295467
1173.000000	0.295453
1174.000000	0.295468
1175.000000	0.295456
1176.000000	0.295448
1177.000000	0.295460
1178.000000	0.295544
1179.000000	0.295783
1180.000000	0.295835
1181.000000	0.295891
1182.000000	0.295940
1183.000000	0.296041
1184.000000	0.296042
1185.000000	0.296069
1186.000000	0.296116
1187.000000	0.296229
1188.000000	0.296388
1189.000000	0.296394
1190.000000	0.296497
1191.000000	0.296486
1192.000000	0.296264
1193.000000	0.296359
1194.000000	0.296533
1195.000000	0.296626
1196.000000	0.296772
1197.000000	0.296832
1198.000000	0.296792
1199.000000	0.296831
1200.000000	0.296899
1201.000000	0.296899
1202.000000	0.296981
1203.000000	0.296952
1204.000000	0.296826
1205.000000	0.296904
1206.000000	0.296903
1207.000000	0.297027
1208.000000	0.296961
1209.000000	0.296851
1210.000000	0.296807
1211.000000	0.296654
1212.000000	0.296641
1213.000000	0.296801
1214.000000	0.296915
1215.000000	0.297062
1216.000000	0.297153
1217.000000	0.297261
1218.000000	0.297286
1219.000000	0.297254
1220.000000	0.297196
1221.000000	0.297150
1222.000000	0.297112
1223.000000	0.297271
1224.000000	0.297331
1225.000000	0.297170
1226.000000	0.297208
1227.000000	0.297273
1228.000000	0.297316
1229.000000	0.297398
1230.000000	0.297677
1231.000000	0.297743
1232.000000	0.297798
1233.000000	0.297898
1234.000000	0.297976
1235.000000	0.298013
1236.000000	0.297913
1237.000000	0.297918
1238.000000	0.297892
1239.000000	0.297876
1240.000000	0.297942
1241.000000	0.297845
1242.000000	0.297748
1243.000000	0.297910
1244.000000	0.298052
1245.000000	0.298199
1246.000000	0.298408
1247.000000	0.298473
1248.000000	0.298285
1249.000000	0.298290
1250.000000	0.298278
1251.000000	0.298163
1252.000000	0.298275
1253.000000	0.298729
1254.000000	0.298836
1255.000000	0.298939
1256.000000	0.298939
1257.000000	0.298623
1258.000000	0.298586
1259.000000	0.298605
1260.000000	0.298642
1261.000000	0.298809
1262.000000	0.298862
1263.000000	0.298885
1264.000000	0.298799
1265.000000	0.298793
1266.000000	0.298704
1267.000000	0.298552
1268.000000	0.298550
1269.000000	0.298595
1270.000000	0.298559
1271.000000	0.298544
1272.000000	0.298655
1273.000000	0.298764
1274.000000	0.298883
1275.000000	0.298970
1276.000000	0.299140
1277.000000	0.299231
1278.000000	0.299145
1279.000000	0.299153
1280.000000	0.299096
1281.000000	0.299081
1282.000000	0.299150
1283.000000	0.299282
1284.000000	0.299483
1285.000000	0.299531
1286.000000	0.299500
1287.000000	0.299456
1288.000000	0.299448
1289.000000	0.299365
1290.000000	0.299407
1291.000000	0.299522
1292.000000	0.299566
1293.000000	0.299666
1294.000000	0.299753
1295.000000	0.299869
1296.000000	0.299810
1297.000000	0.299595
1298.000000	0.299680
1299.000000	0.299662
1300.000000	0.299619
1301.000000	0.299767
1302.000000	0.299768
1303.000000	0.299724
1304.000000	0.299719
1305.000000	0.299847
1306.000000	0.299905
1307.000000	0.299972
1308.000000	0.300018
1309.000000	0.300043
1310.000000	0.300042
1311.000000	0.300036
1312.000000	0.300015
1313.000000	0.299937
1314.000000	0.300036
1315.000000	0.300025
1316.000000	0.299961
1317.000000	0.300060
1318.000000	0.299976
1319.000000	0.299886
1320.000000	0.299953
1321.000000	0.299721
1322.000000	0.299543
1323.000000	0.299577
1324.000000	0.299537
1325.000000	0.299509
1326.000000	0.299485
1327.000000	0.299521
1328.000000	0.299523
1329.000000	0.299403
1330.000000	0.299367
1331.000000	0.299308
1332.000000	0.299007
1333.000000	0.298969
1334.000000	0.299227
1335.000000	0.299326
1336.000000	0.299475
1337.000000	0.299542
1338.000000	0.299494
1339.000000	0.299428
1340.000000	0.299355
1341.000000	0.299216
1342.000000	0.299194
1343.000000	0.299215
1344.000000	0.299171
1345.000000	0.299126
1346.000000	0.299102
1347.000000	0.298876
1348.000000	0.298789
1349.000000	0.298700
1350.000000	0.298568
1351.000000	0.298547
1352.000000	0.298434
1353.000000	0.298375
1354.000000	0.298518
1355.000000	0.298553
1356.000000	0.298535
1357.000000	0.298533
1358.000000	0.298427
1359.000000	0.298191
1360.000000	0.298097
1361.000000	0.298133
1362.000000	0.298122
1363.000000	0.298168
1364.000000	0.298183
1365.000000	0.298145
1366.000000	0.298109
1367.000000	0.298043
1368.000000	0.297988
1369.000000	0.297982
1370.000000	0.297848
1371.000000	0.297655
1372.000000	0.297459
1373.000000	0.297296
1374.000000	0.297300
1375.000000	0.297295
1376.000000	0.297203
1377.000000	0.297139
1378.000000	0.296961
1379.000000	0.296654
1380.000000	0.296538
1381.000000	0.296347
1382.000000	0.296024
1383.000000	0.295841
1384.000000	0.295526
1385.000000	0.295172
1386.000000	0.294873
1387.000000	0.294480
1388.000000	0.294028
1389.000000	0.293520
1390.000000	0.293051
1391.000000	0.292554
1392.000000	0.292168
1393.000000	0.291719
1394.000000	0.291300
1395.000000	0.290800
1396.000000	0.290311
1397.000000	0.289658
1398.000000	0.288842
1399.000000	0.288173
1400.000000	0.287363
1401.000000	0.286694
1402.000000	0.286241
1403.000000	0.285629
1404.000000	0.284975
1405.000000	0.284480
1406.000000	0.283853
1407.000000	0.283254
1408.000000	0.282779
1409.000000	0.282361
1410.000000	0.281958
1411.000000	0.281586
1412.000000	0.281299
1413.000000	0.280957
1414.000000	0.280609
1415.000000	0.280426
1416.000000	0.280186
1417.000000	0.279929
1418.000000	0.279631
1419.000000	0.279299
1420.000000	0.279080
1421.000000	0.278949
1422.000000	0.278831
1423.000000	0.278774
1424.000000	0.278491
1425.000000	0.278260
1426.000000	0.278078
1427.000000	0.277895
1428.000000	0.277812
1429.000000	0.277698
1430.000000	0.277578
1431.000000	0.277492
1432.000000	0.277359
1433.000000	0.277224
1434.000000	0.277098
1435.000000	0.277061
1436.000000	0.276944
1437.000000	0.276735
1438.000000	0.276668
1439.000000	0.276602
1440.000000	0.276629
1441.000000	0.276868
1442.000000	0.277068
1443.000000	0.277189
1444.000000	0.277439
1445.000000	0.277737
1446.000000	0.277917
1447.000000	0.278095
1448.000000	0.278305
1449.000000	0.278503
1450.000000	0.278788
1451.000000	0.279145
1452.000000	0.279301
1453.000000	0.279366
1454.000000	0.279448
1455.000000	0.279451
1456.000000	0.279505
1457.000000	0.279651
1458.000000	0.279736
1459.000000	0.279747
1460.000000	0.279811
1461.000000	0.279835
1462.000000	0.279817
1463.000000	0.279842
1464.000000	0.279891
1465.000000	0.280008
1466.000000	0.280103
1467.000000	0.280229
1468.000000	0.280447
1469.000000	0.280755
1470.000000	0.281015
1471.000000	0.281235
1472.000000	0.281422
1473.000000	0.281614
1474.000000	0.281783
1475.000000	0.282007
1476.000000	0.282165
1477.000000	0.282232
1478.000000	0.282340
1479.000000	0.282403
1480.000000	0.282480
1481.000000	0.282538
1482.000000	0.282593
1483.000000	0.282741
1484.000000	0.282933
1485.000000	0.283073
1486.000000	0.283266
1487.000000	0.283450
1488.000000	0.283597
1489.000000	0.283783
1490.000000	0.283933
1491.000000	0.284061
1492.000000	0.284084
1493.000000	0.284192
1494.000000	0.284306
1495.000000	0.284428
1496.000000	0.284597
1497.000000	0.284721
1498.000000	0.284844
1499.000000	0.284924
1500.000000	0.285072
1501.000000	0.285172
1502.000000	0.285313
1503.000000	0.285439
1504.000000	0.285503
1505.000000	0.285611
1506.000000	0.285774
1507.000000	0.285931
1508.000000	0.286075
1509.000000	0.286234
1510.000000	0.286288
1511.000000	0.286459
1512.000000	0.286646
1513.000000	0.286719
1514.000000	0.286929
1515.000000	0.286911
1516.000000	0.286797
1517.000000	0.286879
1518.000000	0.286878
1519.000000	0.286779
1520.000000	0.286916
1521.000000	0.287011
1522.000000	0.287017
1523.000000	0.287215
1524.000000	0.287386
1525.000000	0.287467
1526.000000	0.287584
1527.000000	0.287757
1528.000000	0.287831
1529.000000	0.287804
1530.000000	0.287725
1531.000000	0.287679
1532.000000	0.287681
1533.000000	0.287671
1534.000000	0.287696
1535.000000	0.287698
1536.000000	0.287670
1537.000000	0.287813
1538.000000	0.287944
1539.000000	0.287905
1540.000000	0.287847
1541.000000	0.287867
1542.000000	0.287941
1543.000000	0.288070
1544.000000	0.288260
1545.000000	0.288385
1546.000000	0.288409
1547.000000	0.288445
1548.000000	0.288476
1549.000000	0.288503
1550.000000	0.288522
1551.000000	0.288603
1552.000000	0.288727
1553.000000	0.288750
1554.000000	0.288818
1555.000000	0.288905
1556.000000	0.288992
1557.000000	0.289196
1558.000000	0.289321
1559.000000	0.289377
1560.000000	0.289391
1561.000000	0.289393
1562.000000	0.289330
1563.000000	0.289262
1564.000000	0.289226
1565.000000	0.289112
1566.000000	0.289032
1567.000000	0.289103
1568.000000	0.289021
1569.000000	0.288997
1570.000000	0.288917
1571.000000	0.288643
1572.000000	0.288562
1573.000000	0.288570
1574.000000	0.288543
1575.000000	0.288638
1576.000000	0.288663
1577.000000	0.288600
1578.000000	0.288592
1579.000000	0.288635
1580.000000	0.288678
1581.000000	0.288880
1582.000000	0.288897
1583.000000	0.288795
1584.000000	0.288706
1585.000000	0.288555
1586.000000	0.288587
1587.000000	0.288780
1588.000000	0.288794
1589.000000	0.288829
1590.000000	0.288839
1591.000000	0.288743
1592.000000	0.288712
1593.000000	0.288776
1594.000000	0.288735
1595.000000	0.288629
1596.000000	0.288607
1597.000000	0.288670
1598.000000	0.288707
1599.000000	0.288781
1600.000000	0.288815
1601.000000	0.288859
1602.000000	0.288886
1603.000000	0.288993
1604.000000	0.289004
1605.000000	0.289021
1606.000000	0.288991
1607.000000	0.288838
1608.000000	0.288840
1609.000000	0.288983
1610.000000	0.289013
1611.000000	0.289097
1612.000000	0.289152
1613.000000	0.289246
1614.000000	0.289216
1615.000000	0.289222
1616.000000	0.289215
1617.000000	0.288983
1618.000000	0.288982
1619.000000	0.289075
1620.000000	0.289173
1621.000000	0.289471
1622.000000	0.289596
1623.000000	0.289644
1624.000000	0.289675
1625.000000	0.289453
1626.000000	0.289307
1627.000000	0.289150
1628.000000	0.289150
1629.000000	0.289223
1630.000000	0.289293
1631.000000	0.289459
1632.000000	0.289479
1633.000000	0.289391
1634.000000	0.289383
1635.000000	0.289393
1636.000000	0.289413
1637.000000	0.289469
1638.000000	0.289524
1639.000000	0.289626
1640.000000	0.289707
1641.000000	0.289885
1642.000000	0.289988
1643.000000	0.290124
1644.000000	0.290152
1645.000000	0.290069
1646.000000	0.290016
1647.000000	0.289975
1648.000000	0.289878
1649.000000	0.289817
1650.000000	0.289839
1651.000000	0.289887
1652.000000	0.289914
1653.000000	0.289993
1654.000000	0.290045
1655.000000	0.289956
1656.000000	0.289875
1657.000000	0.289906
1658.000000	0.289859
1659.000000	0.289815
1660.000000	0.289891
1661.000000	0.289903
1662.000000	0.290022
1663.000000	0.290258
1664.000000	0.290357
1665.000000	0.290453
1666.000000	0.290603
1667.000000	0.290624
1668.000000	0.290740
1669.000000	0.290908
1670.000000	0.290983
1671.000000	0.291141
1672.000000	0.291292
1673.000000	0.291404
1674.000000	0.291561
1675.000000	0.291599
1676.000000	0.291617
1677.000000	0.291691
1678.000000	0.291710
1679.000000	0.291710
1680.000000	0.291577
1681.000000	0.291389
1682.000000	0.291294
1683.000000	0.291320
1684.000000	0.291439
1685.000000	0.291602
1686.000000	0.291715
1687.000000	0.291749
1688.000000	0.291777
1689.000000	0.291837
1690.000000	0.291759
1691.000000	0.291764
1692.000000	0.291739
1693.000000	0.291653
1694.000000	0.291635
1695.000000	0.291668
1696.000000	0.291461
1697.000000	0.291335
1698.000000	0.291305
1699.000000	0.291239
1700.000000	0.291197
1701.000000	0.291244
1702.000000	0.291107
1703.000000	0.290999
1704.000000	0.291056
1705.000000	0.291077
1706.000000	0.291093
1707.000000	0.291143
1708.000000	0.291182
1709.000000	0.291197
1710.000000	0.291412
1711.000000	0.291440
1712.000000	0.291376
1713.000000	0.291306
1714.000000	0.291090
1715.000000	0.291018
1716.000000	0.290975
1717.000000	0.291070
1718.000000	0.291359
1719.000000	0.291436
1720.000000	0.291589
1721.000000	0.291638
1722.000000	0.291517
1723.000000	0.291420
1724.000000	0.291288
1725.000000	0.291290
1726.000000	0.291263
1727.000000	0.291187
1728.000000	0.291058
1729.000000	0.291054
1730.000000	0.291122
1731.000000	0.291266
1732.000000	0.291775
1733.000000	0.291870
1734.000000	0.291565
1735.000000	0.291516
1736.000000	0.291326
1737.000000	0.291313
1738.000000	0.291545
1739.000000	0.291596
1740.000000	0.291573
1741.000000	0.291566
1742.000000	0.291535
1743.000000	0.291598
1744.000000	0.291643
1745.000000	0.291798
1746.000000	0.292072
1747.000000	0.292243
1748.000000	0.292266
1749.000000	0.292047
1750.000000	0.291891
1751.000000	0.291820
1752.000000	0.291831
1753.000000	0.291820
1754.000000	0.291766
1755.000000	0.291586
1756.000000	0.291523
1757.000000	0.291497
1758.000000	0.291507
1759.000000	0.291642
1760.000000	0.291699
1761.000000	0.291631
1762.000000	0.291662
1763.000000	0.291802
1764.000000	0.291838
1765.000000	0.291850
1766.000000	0.291845
1767.000000	0.291658
1768.000000	0.291528
1769.000000	0.291488
1770.000000	0.291531
1771.000000	0.291603
1772.000000	0.291615
1773.000000	0.291637
1774.000000	0.291613
1775.000000	0.291549
1776.000000	0.291527
1777.000000	0.291529
1778.000000	0.291410
1779.000000	0.291166
1780.000000	0.291101
1781.000000	0.291058
1782.000000	0.290932
1783.000000	0.290886
1784.000000	0.290932
1785.000000	0.290799
1786.000000	0.290997
1787.000000	0.291177
1788.000000	0.291020
1789.000000	0.290927
1790.000000	0.290999
1791.000000	0.290961
1792.000000	0.291027
1793.000000	0.291165
1794.000000	0.291270
1795.000000	0.291424
1796.000000	0.291908
1797.000000	0.291998
1798.000000	0.291647
1799.000000	0.291625
1800.000000	0.291735
1801.000000	0.290894
1802.000000	0.291292
1803.000000	0.292820
1804.000000	0.292750
1805.000000	0.291749
1806.000000	0.291769
1807.000000	0.291492
1808.000000	0.291231
1809.000000	0.291623
1810.000000	0.292258
1811.000000	0.292139
1812.000000	0.290859
1813.000000	0.290837
1814.000000	0.291670
1815.000000	0.291763
1816.000000	0.291855
1817.000000	0.291855
1818.000000	0.291762
1819.000000	0.291019
1820.000000	0.291228
1821.000000	0.291800
1822.000000	0.291817
1823.000000	0.291707
1824.000000	0.291446
1825.000000	0.290352
1826.000000	0.290357
1827.000000	0.290809
1828.000000	0.291217
1829.000000	0.291997
1830.000000	0.292005
1831.000000	0.291787
1832.000000	0.290669
1833.000000	0.290311
1834.000000	0.290118
1835.000000	0.289724
1836.000000	0.289375
1837.000000	0.289131
1838.000000	0.288401
1839.000000	0.288094
1840.000000	0.288706
1841.000000	0.289114
1842.000000	0.289377
1843.000000	0.289972
1844.000000	0.290329
1845.000000	0.290110
1846.000000	0.290168
1847.000000	0.290342
1848.000000	0.290220
1849.000000	0.290392
1850.000000	0.290228
1851.000000	0.289965
1852.000000	0.289517
1853.000000	0.289384
1854.000000	0.288953
1855.000000	0.288702
1856.000000	0.288741
1857.000000	0.288439
1858.000000	0.288232
1859.000000	0.288382
1860.000000	0.288520
1861.000000	0.288836
1862.000000	0.288643
1863.000000	0.288014
1864.000000	0.287598
1865.000000	0.287051
1866.000000	0.286412
1867.000000	0.285672
1868.000000	0.285408
1869.000000	0.284104
1870.000000	0.282712
1871.000000	0.281664
1872.000000	0.280346
1873.000000	0.279593
1874.000000	0.279499
1875.000000	0.279388
1876.000000	0.279685
1877.000000	0.278864
1878.000000	0.277812
1879.000000	0.276297
1880.000000	0.274284
1881.000000	0.272778
1882.000000	0.271561
1883.000000	0.269760
1884.000000	0.268183
1885.000000	0.266466
1886.000000	0.264598
1887.000000	0.262589
1888.000000	0.260752
1889.000000	0.258604
1890.000000	0.256050
1891.000000	0.253506
1892.000000	0.251461
1893.000000	0.249716
1894.000000	0.247494
1895.000000	0.245055
1896.000000	0.242653
1897.000000	0.240178
1898.000000	0.236980
1899.000000	0.234698
1900.000000	0.233349
1901.000000	0.231309
1902.000000	0.229652
1903.000000	0.228149
1904.000000	0.226288
1905.000000	0.225090
1906.000000	0.224165
1907.000000	0.223648
1908.000000	0.223473
1909.000000	0.223442
1910.000000	0.223263
1911.000000	0.223242
1912.000000	0.223078
1913.000000	0.223338
1914.000000	0.223477
1915.000000	0.223040
1916.000000	0.222827
1917.000000	0.223036
1918.000000	0.223417
1919.000000	0.224321
1920.000000	0.225040
1921.000000	0.225509
1922.000000	0.225494
1923.000000	0.224669
1924.000000	0.223979
1925.000000	0.224121
1926.000000	0.225005
1927.000000	0.226240
1928.000000	0.227130
1929.000000	0.228696
1930.000000	0.229316
1931.000000	0.229066
1932.000000	0.228770
1933.000000	0.227964
1934.000000	0.228104
1935.000000	0.228725
1936.000000	0.229302
1937.000000	0.230613
1938.000000	0.231155
1939.000000	0.231275
1940.000000	0.230957
1941.000000	0.230312
1942.000000	0.229257
1943.000000	0.228774
1944.000000	0.228722
1945.000000	0.228943
1946.000000	0.228944
1947.000000	0.228610
1948.000000	0.228193
1949.000000	0.227576
1950.000000	0.227589
1951.000000	0.227662
1952.000000	0.228381
1953.000000	0.228222
1954.000000	0.228169
1955.000000	0.228615
1956.000000	0.228146
1957.000000	0.227871
1958.000000	0.228372
1959.000000	0.228200
1960.000000	0.228158
1961.000000	0.228808
1962.000000	0.229064
1963.000000	0.229097
1964.000000	0.229198
1965.000000	0.229561
1966.000000	0.229640
1967.000000	0.229488
1968.000000	0.229346
1969.000000	0.229744
1970.000000	0.230187
1971.000000	0.230327
1972.000000	0.230670
1973.000000	0.230654
1974.000000	0.229690
1975.000000	0.229697
1976.000000	0.230363
1977.000000	0.230642
1978.000000	0.230965
1979.000000	0.231273
1980.000000	0.231003
1981.000000	0.230985
1982.000000	0.231070
1983.000000	0.231309
1984.000000	0.231632
1985.000000	0.232186
1986.000000	0.232630
1987.000000	0.233184
1988.000000	0.233781
1989.000000	0.234471
1990.000000	0.235044
1991.000000	0.235190
1992.000000	0.235018
1993.000000	0.235092
1994.000000	0.235195
1995.000000	0.235394
1996.000000	0.236014
1997.000000	0.236245
1998.000000	0.235783
1999.000000	0.236126
2000.000000	0.236849
2001.000000	0.237507
2002.000000	0.238197
2003.000000	0.239136
2004.000000	0.239875
2005.000000	0.240253
2006.000000	0.241027
2007.000000	0.241839
2008.000000	0.242154
2009.000000	0.242032
2010.000000	0.241978
2011.000000	0.241334
2012.000000	0.241089
2013.000000	0.240738
2014.000000	0.240747
2015.000000	0.241156
2016.000000	0.241829
2017.000000	0.242960
2018.000000	0.244072
2019.000000	0.244345
2020.000000	0.244522
2021.000000	0.244992
2022.000000	0.245054
2023.000000	0.245519
2024.000000	0.246805
2025.000000	0.247474
2026.000000	0.247696
2027.000000	0.248000
2028.000000	0.248383
2029.000000	0.248498
2030.000000	0.248947
2031.000000	0.249227
2032.000000	0.249065
2033.000000	0.249207
2034.000000	0.249260
2035.000000	0.249156
2036.000000	0.249195
2037.000000	0.249369
2038.000000	0.249876
2039.000000	0.250855
2040.000000	0.251292
2041.000000	0.252236
2042.000000	0.253369
2043.000000	0.253514
2044.000000	0.254019
2045.000000	0.254285
2046.000000	0.253863
2047.000000	0.253727
2048.000000	0.253303
2049.000000	0.253520
2050.000000	0.253673
2051.000000	0.253977
2052.000000	0.254958
2053.000000	0.255289
2054.000000	0.255603
2055.000000	0.255645
2056.000000	0.255532
2057.000000	0.255647
2058.000000	0.256146
2059.000000	0.256789
2060.000000	0.257195
2061.000000	0.257855
2062.000000	0.257934
2063.000000	0.257449
2064.000000	0.257326
2065.000000	0.257333
2066.000000	0.257263
2067.000000	0.257487
2068.000000	0.257837
2069.000000	0.258012
2070.000000	0.257759
2071.000000	0.257605
2072.000000	0.257903
2073.000000	0.258188
2074.000000	0.258431
2075.000000	0.258831
2076.000000	0.259499
2077.000000	0.259836
2078.000000	0.260050
2079.000000	0.260292
2080.000000	0.260555
2081.000000	0.260601
2082.000000	0.260134
2083.000000	0.260623
2084.000000	0.261376
2085.000000	0.261608
2086.000000	0.261903
2087.000000	0.262062
2088.000000	0.262129
2089.000000	0.262228
2090.000000	0.262456
2091.000000	0.263318
2092.000000	0.263791
2093.000000	0.263982
2094.000000	0.264258
2095.000000	0.264839
2096.000000	0.264965
2097.000000	0.264736
2098.000000	0.264189
2099.000000	0.264376
2100.000000	0.264545
2101.000000	0.265145
2102.000000	0.266392
2103.000000	0.267104
2104.000000	0.267511
2105.000000	0.267637
2106.000000	0.267362
2107.000000	0.267344
2108.000000	0.266931
2109.000000	0.266942
2110.000000	0.267220
2111.000000	0.267109
2112.000000	0.266719
2113.000000	0.266574
2114.000000	0.266129
2115.000000	0.266076
2116.000000	0.266622
2117.000000	0.267076
2118.000000	0.267653
2119.000000	0.267842
2120.000000	0.267800
2121.000000	0.267365
2122.000000	0.267062
2123.000000	0.266281
2124.000000	0.266232
2125.000000	0.266501
2126.000000	0.266715
2127.000000	0.267617
2128.000000	0.268012
2129.000000	0.268303
2130.000000	0.268107
2131.000000	0.267258
2132.000000	0.266924
2133.000000	0.266575
2134.000000	0.267422
2135.000000	0.269020
2136.000000	0.269674
2137.000000	0.270014
2138.000000	0.269890
2139.000000	0.269759
2140.000000	0.268807
2141.000000	0.268823
2142.000000	0.269554
2143.000000	0.269679
2144.000000	0.270227
2145.000000	0.270388
2146.000000	0.270011
2147.000000	0.270190
2148.000000	0.270017
2149.000000	0.269774
2150.000000	0.269705
2151.000000	0.268769
2152.000000	0.268312
2153.000000	0.268337
2154.000000	0.268414
2155.000000	0.269046
2156.000000	0.269187
2157.000000	0.269619
2158.000000	0.269299
2159.000000	0.267791
2160.000000	0.267766
2161.000000	0.267745
2162.000000	0.268265
2163.000000	0.270475
2164.000000	0.271612
2165.000000	0.272258
2166.000000	0.273191
2167.000000	0.273608
2168.000000	0.273694
2169.000000	0.273622
2170.000000	0.273139
2171.000000	0.273033
2172.000000	0.273097
2173.000000	0.272613
2174.000000	0.272050
2175.000000	0.271470
2176.000000	0.269871
2177.000000	0.269462
2178.000000	0.270045
2179.000000	0.270434
2180.000000	0.271332
2181.000000	0.272107
2182.000000	0.272769
2183.000000	0.272428
2184.000000	0.272042
2185.000000	0.271955
2186.000000	0.271884
2187.000000	0.271924
2188.000000	0.271226
2189.000000	0.269882
2190.000000	0.268685
2191.000000	0.268034
2192.000000	0.267939
2193.000000	0.269312
2194.000000	0.269795
2195.000000	0.270118
2196.000000	0.270822
2197.000000	0.271888
2198.000000	0.272511
2199.000000	0.274063
2200.000000	0.274197
2201.000000	0.273030
2202.000000	0.271525
2203.000000	0.268689
2204.000000	0.265079
2205.000000	0.262651
2206.000000	0.261963
2207.000000	0.261591
2208.000000	0.262793
2209.000000	0.264209
2210.000000	0.263886
2211.000000	0.266128
2212.000000	0.268876
2213.000000	0.269322
2214.000000	0.268542
2215.000000	0.268655
2216.000000	0.266988
2217.000000	0.266836
2218.000000	0.267755
2219.000000	0.269205
2220.000000	0.272327
2221.000000	0.273065
2222.000000	0.273204
2223.000000	0.273115
2224.000000	0.271162
2225.000000	0.269285
2226.000000	0.270848
2227.000000	0.274117
2228.000000	0.275856
2229.000000	0.277311
2230.000000	0.275377
2231.000000	0.271990
2232.000000	0.270279
2233.000000	0.269692
2234.000000	0.269900
2235.000000	0.271161
2236.000000	0.270793
2237.000000	0.269238
2238.000000	0.267825
2239.000000	0.265221
2240.000000	0.263961
2241.000000	0.263410
2242.000000	0.263240
2243.000000	0.264212
2244.000000	0.264658
2245.000000	0.264724
2246.000000	0.265102
2247.000000	0.265799
2248.000000	0.265738
2249.000000	0.265701
2250.000000	0.265580
2251.000000	0.264724
2252.000000	0.261556
2253.000000	0.258740
2254.000000	0.257604
2255.000000	0.257688
2256.000000	0.261585
2257.000000	0.265954
2258.000000	0.267049
2259.000000	0.267955
2260.000000	0.266958
2261.000000	0.266578
2262.000000	0.266544
2263.000000	0.266287
2264.000000	0.265658
2265.000000	0.265242
2266.000000	0.263863
2267.000000	0.263541
2268.000000	0.264059
2269.000000	0.264351
2270.000000	0.266188
2271.000000	0.265272
2272.000000	0.262300
2273.000000	0.260546
2274.000000	0.256826
2275.000000	0.255306
2276.000000	0.254550
2277.000000	0.257030
2278.000000	0.258636
2279.000000	0.259322
2280.000000	0.259799
2281.000000	0.256059
2282.000000	0.252293
2283.000000	0.249961
2284.000000	0.248272
2285.000000	0.248969
2286.000000	0.249561
2287.000000	0.250859
2288.000000	0.251220
2289.000000	0.249851
2290.000000	0.250036
2291.000000	0.249502
2292.000000	0.248410
2293.000000	0.247822
2294.000000	0.246377
2295.000000	0.242365
2296.000000	0.241777
2297.000000	0.243023
2298.000000	0.242878
2299.000000	0.243994
2300.000000	0.244266
2301.000000	0.241872
2302.000000	0.242753
2303.000000	0.247072
2304.000000	0.247501
2305.000000	0.248507
2306.000000	0.247992
2307.000000	0.243388
2308.000000	0.241215
2309.000000	0.241948
2310.000000	0.241398
2311.000000	0.244178
2312.000000	0.245618
2313.000000	0.246569
2314.000000	0.247485
2315.000000	0.247830
2316.000000	0.249206
2317.000000	0.249870
2318.000000	0.250282
2319.000000	0.251746
2320.000000	0.253031
2321.000000	0.254435
2322.000000	0.256934
2323.000000	0.255597
2324.000000	0.253835
2325.000000	0.253607
2326.000000	0.252890
2327.000000	0.254418
2328.000000	0.257717
2329.000000	0.260830
2330.000000	0.260801
2331.000000	0.258798
2332.000000	0.255990
2333.000000	0.250790
2334.000000	0.245891
2335.000000	0.243541
2336.000000	0.242762
2337.000000	0.243280
2338.000000	0.246730
2339.000000	0.248082
2340.000000	0.249871
2341.000000	0.250010
2342.000000	0.248215
2343.000000	0.247282
2344.000000	0.245760
2345.000000	0.246643
2346.000000	0.249163
2347.000000	0.250630
2348.000000	0.253963
2349.000000	0.254567
2350.000000	0.251466
2351.000000	0.248619
2352.000000	0.245184
2353.000000	0.244892
2354.000000	0.245169
2355.000000	0.244990
2356.000000	0.245539
2357.000000	0.241081
2358.000000	0.237266
2359.000000	0.236252
2360.000000	0.236444
2361.000000	0.238894
2362.000000	0.240581
2363.000000	0.241071
2364.000000	0.236648
2365.000000	0.232540
2366.000000	0.233828
2367.000000	0.234226
2368.000000	0.237586
2369.000000	0.238533
2370.000000	0.231748
2371.000000	0.228057
2372.000000	0.225802
2373.000000	0.226862
2374.000000	0.229737
2375.000000	0.227561
2376.000000	0.228114
2377.000000	0.226571
2378.000000	0.224003
2379.000000	0.227791
2380.000000	0.226637
2381.000000	0.225693
2382.000000	0.228008
2383.000000	0.224464
2384.000000	0.224987
2385.000000	0.228519
2386.000000	0.225522
2387.000000	0.223410
2388.000000	0.224898
2389.000000	0.223299
2390.000000	0.225856
2391.000000	0.229163
2392.000000	0.222941
2393.000000	0.218665
2394.000000	0.212651
2395.000000	0.209136
2396.000000	0.213507
2397.000000	0.212042
2398.000000	0.209090
2399.000000	0.206723
2400.000000	0.205853
2401.000000	0.207823
2402.000000	0.211447
2403.000000	0.217243
2404.000000	0.219039
2405.000000	0.218718
2406.000000	0.214743
2407.000000	0.208790
2408.000000	0.206723
2409.000000	0.201644
2410.000000	0.206907
2411.000000	0.224484
2412.000000	0.232118
2413.000000	0.237393
2414.000000	0.244294
2415.000000	0.235784
2416.000000	0.224584
2417.000000	0.221872
2418.000000	0.221575
2419.000000	0.227506
2420.000000	0.235526
2421.000000	0.243700
2422.000000	0.246353
2423.000000	0.242853
2424.000000	0.240254
2425.000000	0.235699
2426.000000	0.229302
2427.000000	0.222536
2428.000000	0.216236
2429.000000	0.218163
2430.000000	0.228025
2431.000000	0.225798
2432.000000	0.226277
2433.000000	0.226008
2434.000000	0.210842
2435.000000	0.211150
2436.000000	0.210777
2437.000000	0.202066
2438.000000	0.195837
2439.000000	0.177894
2440.000000	0.161442
2441.000000	0.162988
2442.000000	0.169233
2443.000000	0.174505
2444.000000	0.191253
2445.000000	0.198620
2446.000000	0.197197
2447.000000	0.207667
2448.000000	0.211283
2449.000000	0.206034
2450.000000	0.199368
2451.000000	0.194248
2452.000000	0.192670
2453.000000	0.196653
2454.000000	0.205224
2455.000000	0.202581
2456.000000	0.202713
2457.000000	0.210038
2458.000000	0.212696
2459.000000	0.224902
2460.000000	0.239654
2461.000000	0.238440
2462.000000	0.243678
2463.000000	0.249895
2464.000000	0.228712
2465.000000	0.213915
2466.000000	0.203828
2467.000000	0.197467
2468.000000	0.205869
2469.000000	0.198977
2470.000000	0.195133
2471.000000	0.185720
2472.000000	0.165988
2473.000000	0.175554
2474.000000	0.182861
2475.000000	0.185185
2476.000000	0.207358
2477.000000	0.214924
2478.000000	0.223274
2479.000000	0.217638
2480.000000	0.196248
2481.000000	0.201123
2482.000000	0.191925
2483.000000	0.172069
2484.000000	0.172377
2485.000000	0.169681
2486.000000	0.149522
2487.000000	0.141582
2488.000000	0.172964
2489.000000	0.197993
2490.000000	0.221067
2491.000000	0.257379
2492.000000	0.259030
2493.000000	0.217198
2494.000000	0.207960
2495.000000	0.208028
2496.000000	0.200459
2497.000000	0.192977
2498.000000	0.192014
2499.000000	0.197639
2500.000000	0.202639
