# Wavelength	NAu-1-80_HEX-10_FV7-10_00001.asd.rts.txt
350.000000	0.105682
351.000000	0.078925
352.000000	0.081504
353.000000	0.094083
354.000000	0.098802
355.000000	0.085129
356.000000	0.081810
357.000000	0.093720
358.000000	0.109125
359.000000	0.115277
360.000000	0.106743
361.000000	0.085336
362.000000	0.089533
363.000000	0.097781
364.000000	0.095936
365.000000	0.101340
366.000000	0.096466
367.000000	0.085044
368.000000	0.090034
369.000000	0.091178
370.000000	0.087060
371.000000	0.082611
372.000000	0.088366
373.000000	0.094113
374.000000	0.093381
375.000000	0.092880
376.000000	0.094618
377.000000	0.097435
378.000000	0.097090
379.000000	0.097608
380.000000	0.098857
381.000000	0.099611
382.000000	0.097252
383.000000	0.097532
384.000000	0.102082
385.000000	0.097714
386.000000	0.098475
387.000000	0.105205
388.000000	0.104558
389.000000	0.103771
390.000000	0.104908
391.000000	0.107986
392.000000	0.108615
393.000000	0.109209
394.000000	0.111676
395.000000	0.113286
396.000000	0.114411
397.000000	0.115658
398.000000	0.118048
399.000000	0.120419
400.000000	0.122537
401.000000	0.124455
402.000000	0.126119
403.000000	0.127776
404.000000	0.129538
405.000000	0.130359
406.000000	0.131523
407.000000	0.133312
408.000000	0.134141
409.000000	0.135245
410.000000	0.136606
411.000000	0.137535
412.000000	0.139543
413.000000	0.141696
414.000000	0.142815
415.000000	0.143481
416.000000	0.144124
417.000000	0.144947
418.000000	0.145766
419.000000	0.146364
420.000000	0.146707
421.000000	0.146898
422.000000	0.147606
423.000000	0.148261
424.000000	0.148078
425.000000	0.147931
426.000000	0.147862
427.000000	0.147737
428.000000	0.147229
429.000000	0.146663
430.000000	0.146409
431.000000	0.147068
432.000000	0.147068
433.000000	0.146661
434.000000	0.146951
435.000000	0.146818
436.000000	0.146271
437.000000	0.145662
438.000000	0.146066
439.000000	0.145633
440.000000	0.144003
441.000000	0.143745
442.000000	0.143135
443.000000	0.142299
444.000000	0.142680
445.000000	0.142545
446.000000	0.142246
447.000000	0.142533
448.000000	0.143286
449.000000	0.144352
450.000000	0.145658
451.000000	0.147331
452.000000	0.149584
453.000000	0.152306
454.000000	0.155116
455.000000	0.158679
456.000000	0.162418
457.000000	0.165258
458.000000	0.168717
459.000000	0.172101
460.000000	0.174723
461.000000	0.177351
462.000000	0.179758
463.000000	0.181846
464.000000	0.184241
465.000000	0.186166
466.000000	0.187561
467.000000	0.188904
468.000000	0.190050
469.000000	0.191187
470.000000	0.192591
471.000000	0.193606
472.000000	0.194558
473.000000	0.195687
474.000000	0.196711
475.000000	0.197355
476.000000	0.197841
477.000000	0.198702
478.000000	0.199469
479.000000	0.200257
480.000000	0.201102
481.000000	0.201710
482.000000	0.202335
483.000000	0.203055
484.000000	0.203815
485.000000	0.204424
486.000000	0.205018
487.000000	0.205906
488.000000	0.206646
489.000000	0.207199
490.000000	0.207761
491.000000	0.208585
492.000000	0.209594
493.000000	0.210492
494.000000	0.211222
495.000000	0.211969
496.000000	0.212815
497.000000	0.213637
498.000000	0.214513
499.000000	0.215464
500.000000	0.216269
501.000000	0.217069
502.000000	0.217906
503.000000	0.218724
504.000000	0.219748
505.000000	0.220785
506.000000	0.221660
507.000000	0.222633
508.000000	0.223632
509.000000	0.224609
510.000000	0.225713
511.000000	0.226863
512.000000	0.227982
513.000000	0.228926
514.000000	0.229961
515.000000	0.231117
516.000000	0.232278
517.000000	0.233365
518.000000	0.234559
519.000000	0.235871
520.000000	0.236992
521.000000	0.238198
522.000000	0.239548
523.000000	0.240726
524.000000	0.242058
525.000000	0.243510
526.000000	0.244902
527.000000	0.246356
528.000000	0.247830
529.000000	0.249295
530.000000	0.250674
531.000000	0.252200
532.000000	0.253869
533.000000	0.255363
534.000000	0.256886
535.000000	0.258475
536.000000	0.260041
537.000000	0.261596
538.000000	0.263203
539.000000	0.264920
540.000000	0.266577
541.000000	0.268180
542.000000	0.269810
543.000000	0.271513
544.000000	0.273176
545.000000	0.274715
546.000000	0.276337
547.000000	0.278008
548.000000	0.279741
549.000000	0.281472
550.000000	0.283091
551.000000	0.284668
552.000000	0.286268
553.000000	0.287911
554.000000	0.289506
555.000000	0.291026
556.000000	0.292682
557.000000	0.294231
558.000000	0.295731
559.000000	0.297247
560.000000	0.298675
561.000000	0.300117
562.000000	0.301604
563.000000	0.303006
564.000000	0.304343
565.000000	0.305574
566.000000	0.306916
567.000000	0.308181
568.000000	0.309260
569.000000	0.310345
570.000000	0.311368
571.000000	0.312338
572.000000	0.313358
573.000000	0.314302
574.000000	0.315153
575.000000	0.315996
576.000000	0.316868
577.000000	0.317612
578.000000	0.318221
579.000000	0.318960
580.000000	0.319684
581.000000	0.320317
582.000000	0.320905
583.000000	0.321440
584.000000	0.321916
585.000000	0.322331
586.000000	0.322761
587.000000	0.323159
588.000000	0.323472
589.000000	0.323794
590.000000	0.324089
591.000000	0.324341
592.000000	0.324615
593.000000	0.324820
594.000000	0.324969
595.000000	0.325193
596.000000	0.325349
597.000000	0.325479
598.000000	0.325579
599.000000	0.325604
600.000000	0.325640
601.000000	0.325672
602.000000	0.325692
603.000000	0.325643
604.000000	0.325551
605.000000	0.325561
606.000000	0.325610
607.000000	0.325647
608.000000	0.325613
609.000000	0.325602
610.000000	0.325644
611.000000	0.325724
612.000000	0.325698
613.000000	0.325654
614.000000	0.325683
615.000000	0.325666
616.000000	0.325614
617.000000	0.325512
618.000000	0.325437
619.000000	0.325453
620.000000	0.325470
621.000000	0.325424
622.000000	0.325487
623.000000	0.325542
624.000000	0.325499
625.000000	0.325555
626.000000	0.325576
627.000000	0.325536
628.000000	0.325599
629.000000	0.325671
630.000000	0.325653
631.000000	0.325747
632.000000	0.325830
633.000000	0.325894
634.000000	0.325936
635.000000	0.325941
636.000000	0.326034
637.000000	0.326224
638.000000	0.326333
639.000000	0.326441
640.000000	0.326626
641.000000	0.326798
642.000000	0.326861
643.000000	0.326890
644.000000	0.327013
645.000000	0.327179
646.000000	0.327393
647.000000	0.327612
648.000000	0.327745
649.000000	0.327930
650.000000	0.328174
651.000000	0.328382
652.000000	0.328572
653.000000	0.328792
654.000000	0.329020
655.000000	0.329278
656.000000	0.329575
657.000000	0.329851
658.000000	0.330108
659.000000	0.330388
660.000000	0.330698
661.000000	0.331049
662.000000	0.331338
663.000000	0.331639
664.000000	0.332014
665.000000	0.332457
666.000000	0.332894
667.000000	0.333234
668.000000	0.333643
669.000000	0.334039
670.000000	0.334388
671.000000	0.334774
672.000000	0.335197
673.000000	0.335640
674.000000	0.336097
675.000000	0.336527
676.000000	0.336968
677.000000	0.337488
678.000000	0.338028
679.000000	0.338553
680.000000	0.339055
681.000000	0.339528
682.000000	0.340071
683.000000	0.340630
684.000000	0.341261
685.000000	0.341824
686.000000	0.342383
687.000000	0.342998
688.000000	0.343536
689.000000	0.344086
690.000000	0.344753
691.000000	0.345425
692.000000	0.346031
693.000000	0.346646
694.000000	0.347314
695.000000	0.348024
696.000000	0.348738
697.000000	0.349402
698.000000	0.349992
699.000000	0.350597
700.000000	0.351293
701.000000	0.351983
702.000000	0.352739
703.000000	0.353534
704.000000	0.354268
705.000000	0.355030
706.000000	0.355793
707.000000	0.356588
708.000000	0.357327
709.000000	0.358073
710.000000	0.358895
711.000000	0.359677
712.000000	0.360449
713.000000	0.361231
714.000000	0.361938
715.000000	0.362669
716.000000	0.363458
717.000000	0.364275
718.000000	0.365046
719.000000	0.365775
720.000000	0.366510
721.000000	0.367291
722.000000	0.368060
723.000000	0.368823
724.000000	0.369444
725.000000	0.370071
726.000000	0.370803
727.000000	0.371514
728.000000	0.372253
729.000000	0.373014
730.000000	0.373719
731.000000	0.374398
732.000000	0.375050
733.000000	0.375715
734.000000	0.376337
735.000000	0.376977
736.000000	0.377705
737.000000	0.378288
738.000000	0.378818
739.000000	0.379390
740.000000	0.379869
741.000000	0.380426
742.000000	0.380976
743.000000	0.381481
744.000000	0.382056
745.000000	0.382551
746.000000	0.383007
747.000000	0.383410
748.000000	0.383880
749.000000	0.384337
750.000000	0.384683
751.000000	0.385008
752.000000	0.385317
753.000000	0.385608
754.000000	0.385832
755.000000	0.386079
756.000000	0.386379
757.000000	0.386678
758.000000	0.386976
759.000000	0.387243
760.000000	0.387404
761.000000	0.387643
762.000000	0.387794
763.000000	0.387867
764.000000	0.388061
765.000000	0.388074
766.000000	0.388058
767.000000	0.388168
768.000000	0.388213
769.000000	0.388146
770.000000	0.388015
771.000000	0.387995
772.000000	0.387940
773.000000	0.387785
774.000000	0.387660
775.000000	0.387509
776.000000	0.387354
777.000000	0.387192
778.000000	0.387015
779.000000	0.386798
780.000000	0.386555
781.000000	0.386304
782.000000	0.386086
783.000000	0.385964
784.000000	0.385775
785.000000	0.385615
786.000000	0.385380
787.000000	0.385035
788.000000	0.384703
789.000000	0.384290
790.000000	0.383825
791.000000	0.383447
792.000000	0.383037
793.000000	0.382593
794.000000	0.382147
795.000000	0.381758
796.000000	0.381331
797.000000	0.380855
798.000000	0.380419
799.000000	0.380031
800.000000	0.379671
801.000000	0.379307
802.000000	0.378889
803.000000	0.378338
804.000000	0.377735
805.000000	0.377328
806.000000	0.376845
807.000000	0.376352
808.000000	0.375882
809.000000	0.375362
810.000000	0.374835
811.000000	0.374314
812.000000	0.373753
813.000000	0.373206
814.000000	0.372646
815.000000	0.372000
816.000000	0.371476
817.000000	0.370993
818.000000	0.370350
819.000000	0.369782
820.000000	0.369309
821.000000	0.368848
822.000000	0.368380
823.000000	0.367841
824.000000	0.367222
825.000000	0.366683
826.000000	0.366174
827.000000	0.365642
828.000000	0.365108
829.000000	0.364560
830.000000	0.363995
831.000000	0.363452
832.000000	0.362807
833.000000	0.362267
834.000000	0.361762
835.000000	0.361244
836.000000	0.360721
837.000000	0.360145
838.000000	0.359583
839.000000	0.359138
840.000000	0.358599
841.000000	0.358037
842.000000	0.357511
843.000000	0.357052
844.000000	0.356565
845.000000	0.356014
846.000000	0.355528
847.000000	0.355013
848.000000	0.354480
849.000000	0.353994
850.000000	0.353506
851.000000	0.352996
852.000000	0.352521
853.000000	0.352129
854.000000	0.351639
855.000000	0.351162
856.000000	0.350657
857.000000	0.350019
858.000000	0.349535
859.000000	0.349195
860.000000	0.348742
861.000000	0.348357
862.000000	0.348082
863.000000	0.347800
864.000000	0.347402
865.000000	0.346966
866.000000	0.346565
867.000000	0.346130
868.000000	0.345769
869.000000	0.345370
870.000000	0.344885
871.000000	0.344409
872.000000	0.344020
873.000000	0.343661
874.000000	0.343257
875.000000	0.342855
876.000000	0.342434
877.000000	0.341898
878.000000	0.341426
879.000000	0.341113
880.000000	0.340820
881.000000	0.340560
882.000000	0.340306
883.000000	0.340006
884.000000	0.339566
885.000000	0.339326
886.000000	0.339063
887.000000	0.338698
888.000000	0.338417
889.000000	0.338219
890.000000	0.337946
891.000000	0.337649
892.000000	0.337376
893.000000	0.337096
894.000000	0.336915
895.000000	0.336735
896.000000	0.336587
897.000000	0.336409
898.000000	0.336141
899.000000	0.335894
900.000000	0.335622
901.000000	0.335299
902.000000	0.335089
903.000000	0.335025
904.000000	0.335013
905.000000	0.334847
906.000000	0.334753
907.000000	0.334649
908.000000	0.334547
909.000000	0.334373
910.000000	0.334281
911.000000	0.334224
912.000000	0.334112
913.000000	0.333771
914.000000	0.333532
915.000000	0.333496
916.000000	0.333388
917.000000	0.333167
918.000000	0.333010
919.000000	0.333002
920.000000	0.333003
921.000000	0.332859
922.000000	0.332695
923.000000	0.332724
924.000000	0.332724
925.000000	0.332729
926.000000	0.332762
927.000000	0.332657
928.000000	0.332449
929.000000	0.332351
930.000000	0.332521
931.000000	0.332472
932.000000	0.332359
933.000000	0.332280
934.000000	0.332127
935.000000	0.332111
936.000000	0.332192
937.000000	0.332183
938.000000	0.332165
939.000000	0.332181
940.000000	0.332204
941.000000	0.332311
942.000000	0.332154
943.000000	0.332199
944.000000	0.332477
945.000000	0.332543
946.000000	0.332366
947.000000	0.332303
948.000000	0.332577
949.000000	0.332489
950.000000	0.332355
951.000000	0.332293
952.000000	0.332314
953.000000	0.332289
954.000000	0.332413
955.000000	0.332652
956.000000	0.332527
957.000000	0.332634
958.000000	0.332865
959.000000	0.332996
960.000000	0.333163
961.000000	0.333164
962.000000	0.333002
963.000000	0.333011
964.000000	0.333085
965.000000	0.333281
966.000000	0.333482
967.000000	0.333548
968.000000	0.333741
969.000000	0.333847
970.000000	0.333692
971.000000	0.334047
972.000000	0.334439
973.000000	0.334574
974.000000	0.334740
975.000000	0.335127
976.000000	0.335561
977.000000	0.335830
978.000000	0.335910
979.000000	0.336084
980.000000	0.336162
981.000000	0.336297
982.000000	0.336344
983.000000	0.336603
984.000000	0.337047
985.000000	0.337141
986.000000	0.337253
987.000000	0.337507
988.000000	0.337776
989.000000	0.337952
990.000000	0.338437
991.000000	0.338755
992.000000	0.338528
993.000000	0.339062
994.000000	0.339411
995.000000	0.339631
996.000000	0.340053
997.000000	0.340190
998.000000	0.340480
999.000000	0.341155
1000.000000	0.341685
1001.000000	0.340820
1002.000000	0.341022
1003.000000	0.341479
1004.000000	0.341927
1005.000000	0.342496
1006.000000	0.342534
1007.000000	0.342293
1008.000000	0.342639
1009.000000	0.343088
1010.000000	0.342982
1011.000000	0.343771
1012.000000	0.345207
1013.000000	0.345559
1014.000000	0.345184
1015.000000	0.345688
1016.000000	0.345849
1017.000000	0.345519
1018.000000	0.346757
1019.000000	0.347445
1020.000000	0.348129
1021.000000	0.348282
1022.000000	0.348315
1023.000000	0.348673
1024.000000	0.348629
1025.000000	0.349410
1026.000000	0.349946
1027.000000	0.350393
1028.000000	0.351322
1029.000000	0.351772
1030.000000	0.351919
1031.000000	0.352177
1032.000000	0.352224
1033.000000	0.352217
1034.000000	0.352492
1035.000000	0.353219
1036.000000	0.353947
1037.000000	0.354773
1038.000000	0.355298
1039.000000	0.356104
1040.000000	0.356726
1041.000000	0.356444
1042.000000	0.356655
1043.000000	0.357363
1044.000000	0.357898
1045.000000	0.358546
1046.000000	0.359185
1047.000000	0.359813
1048.000000	0.360092
1049.000000	0.360606
1050.000000	0.361285
1051.000000	0.362014
1052.000000	0.362751
1053.000000	0.363308
1054.000000	0.364103
1055.000000	0.364996
1056.000000	0.365852
1057.000000	0.366772
1058.000000	0.367505
1059.000000	0.367740
1060.000000	0.368081
1061.000000	0.368232
1062.000000	0.368944
1063.000000	0.370323
1064.000000	0.371173
1065.000000	0.371996
1066.000000	0.372700
1067.000000	0.372985
1068.000000	0.373448
1069.000000	0.373976
1070.000000	0.374501
1071.000000	0.375003
1072.000000	0.375701
1073.000000	0.376695
1074.000000	0.377441
1075.000000	0.378197
1076.000000	0.379122
1077.000000	0.379829
1078.000000	0.380130
1079.000000	0.380612
1080.000000	0.381019
1081.000000	0.381610
1082.000000	0.382344
1083.000000	0.383176
1084.000000	0.384308
1085.000000	0.385249
1086.000000	0.386097
1087.000000	0.386997
1088.000000	0.388006
1089.000000	0.388617
1090.000000	0.388768
1091.000000	0.389261
1092.000000	0.389795
1093.000000	0.390370
1094.000000	0.391076
1095.000000	0.392049
1096.000000	0.392958
1097.000000	0.393809
1098.000000	0.394757
1099.000000	0.395819
1100.000000	0.396919
1101.000000	0.398010
1102.000000	0.398941
1103.000000	0.399945
1104.000000	0.400783
1105.000000	0.401405
1106.000000	0.402001
1107.000000	0.402232
1108.000000	0.402786
1109.000000	0.403444
1110.000000	0.404275
1111.000000	0.405070
1112.000000	0.406103
1113.000000	0.406997
1114.000000	0.407789
1115.000000	0.408646
1116.000000	0.409643
1117.000000	0.410459
1118.000000	0.411213
1119.000000	0.411809
1120.000000	0.412134
1121.000000	0.412722
1122.000000	0.413381
1123.000000	0.414345
1124.000000	0.415474
1125.000000	0.416355
1126.000000	0.417014
1127.000000	0.417691
1128.000000	0.418298
1129.000000	0.418763
1130.000000	0.419398
1131.000000	0.420164
1132.000000	0.420764
1133.000000	0.421351
1134.000000	0.422037
1135.000000	0.422642
1136.000000	0.423264
1137.000000	0.424046
1138.000000	0.424564
1139.000000	0.424819
1140.000000	0.425547
1141.000000	0.426398
1142.000000	0.427164
1143.000000	0.428272
1144.000000	0.429152
1145.000000	0.429438
1146.000000	0.429749
1147.000000	0.430269
1148.000000	0.430610
1149.000000	0.431147
1150.000000	0.431980
1151.000000	0.432652
1152.000000	0.433139
1153.000000	0.433838
1154.000000	0.434655
1155.000000	0.435285
1156.000000	0.435936
1157.000000	0.436542
1158.000000	0.436917
1159.000000	0.437406
1160.000000	0.437916
1161.000000	0.438443
1162.000000	0.439052
1163.000000	0.439867
1164.000000	0.440499
1165.000000	0.441024
1166.000000	0.441685
1167.000000	0.442289
1168.000000	0.442867
1169.000000	0.443530
1170.000000	0.444220
1171.000000	0.444933
1172.000000	0.445608
1173.000000	0.446326
1174.000000	0.446951
1175.000000	0.447411
1176.000000	0.447884
1177.000000	0.448488
1178.000000	0.449020
1179.000000	0.449516
1180.000000	0.449895
1181.000000	0.450343
1182.000000	0.450660
1183.000000	0.451020
1184.000000	0.451503
1185.000000	0.452088
1186.000000	0.452805
1187.000000	0.453432
1188.000000	0.454228
1189.000000	0.454722
1190.000000	0.455059
1191.000000	0.455539
1192.000000	0.456063
1193.000000	0.456728
1194.000000	0.457428
1195.000000	0.458024
1196.000000	0.458544
1197.000000	0.458992
1198.000000	0.459320
1199.000000	0.459740
1200.000000	0.460172
1201.000000	0.460522
1202.000000	0.460949
1203.000000	0.461482
1204.000000	0.461752
1205.000000	0.462132
1206.000000	0.462582
1207.000000	0.463228
1208.000000	0.463645
1209.000000	0.464212
1210.000000	0.464629
1211.000000	0.464816
1212.000000	0.465111
1213.000000	0.465512
1214.000000	0.465912
1215.000000	0.466283
1216.000000	0.466645
1217.000000	0.466933
1218.000000	0.467261
1219.000000	0.467667
1220.000000	0.468051
1221.000000	0.468310
1222.000000	0.468677
1223.000000	0.469124
1224.000000	0.469408
1225.000000	0.469629
1226.000000	0.470132
1227.000000	0.470499
1228.000000	0.470792
1229.000000	0.470972
1230.000000	0.471038
1231.000000	0.471178
1232.000000	0.471396
1233.000000	0.471746
1234.000000	0.472283
1235.000000	0.472657
1236.000000	0.472787
1237.000000	0.473067
1238.000000	0.473366
1239.000000	0.473598
1240.000000	0.473808
1241.000000	0.473981
1242.000000	0.474266
1243.000000	0.474554
1244.000000	0.474833
1245.000000	0.475302
1246.000000	0.475525
1247.000000	0.475784
1248.000000	0.476164
1249.000000	0.476385
1250.000000	0.476746
1251.000000	0.477150
1252.000000	0.477431
1253.000000	0.477792
1254.000000	0.477985
1255.000000	0.477986
1256.000000	0.478028
1257.000000	0.477951
1258.000000	0.478084
1259.000000	0.478156
1260.000000	0.478458
1261.000000	0.478983
1262.000000	0.479303
1263.000000	0.479675
1264.000000	0.479948
1265.000000	0.480112
1266.000000	0.480216
1267.000000	0.480281
1268.000000	0.480380
1269.000000	0.480568
1270.000000	0.480858
1271.000000	0.481115
1272.000000	0.481460
1273.000000	0.481802
1274.000000	0.481869
1275.000000	0.481907
1276.000000	0.481933
1277.000000	0.482084
1278.000000	0.482004
1279.000000	0.482072
1280.000000	0.482112
1281.000000	0.482189
1282.000000	0.482433
1283.000000	0.482691
1284.000000	0.483066
1285.000000	0.483269
1286.000000	0.483323
1287.000000	0.483235
1288.000000	0.483347
1289.000000	0.483235
1290.000000	0.483077
1291.000000	0.482953
1292.000000	0.482911
1293.000000	0.483131
1294.000000	0.483336
1295.000000	0.483604
1296.000000	0.483757
1297.000000	0.483543
1298.000000	0.483599
1299.000000	0.483828
1300.000000	0.483896
1301.000000	0.484001
1302.000000	0.483909
1303.000000	0.483702
1304.000000	0.483609
1305.000000	0.483671
1306.000000	0.483637
1307.000000	0.483756
1308.000000	0.483792
1309.000000	0.483715
1310.000000	0.483665
1311.000000	0.483687
1312.000000	0.483568
1313.000000	0.483395
1314.000000	0.483200
1315.000000	0.482890
1316.000000	0.482952
1317.000000	0.483258
1318.000000	0.483233
1319.000000	0.483073
1320.000000	0.482859
1321.000000	0.482369
1322.000000	0.482013
1323.000000	0.481935
1324.000000	0.481866
1325.000000	0.481556
1326.000000	0.481391
1327.000000	0.481475
1328.000000	0.481391
1329.000000	0.481280
1330.000000	0.481394
1331.000000	0.481262
1332.000000	0.480960
1333.000000	0.480782
1334.000000	0.480642
1335.000000	0.480543
1336.000000	0.480460
1337.000000	0.480366
1338.000000	0.480247
1339.000000	0.480067
1340.000000	0.479880
1341.000000	0.479667
1342.000000	0.479355
1343.000000	0.479164
1344.000000	0.478986
1345.000000	0.478813
1346.000000	0.478886
1347.000000	0.478637
1348.000000	0.478234
1349.000000	0.477933
1350.000000	0.477579
1351.000000	0.477186
1352.000000	0.476902
1353.000000	0.476485
1354.000000	0.476154
1355.000000	0.475869
1356.000000	0.475671
1357.000000	0.475405
1358.000000	0.475031
1359.000000	0.474762
1360.000000	0.474541
1361.000000	0.474398
1362.000000	0.474304
1363.000000	0.474380
1364.000000	0.474193
1365.000000	0.473893
1366.000000	0.473579
1367.000000	0.473119
1368.000000	0.472629
1369.000000	0.472287
1370.000000	0.471875
1371.000000	0.471442
1372.000000	0.470796
1373.000000	0.470232
1374.000000	0.469555
1375.000000	0.468541
1376.000000	0.467745
1377.000000	0.466859
1378.000000	0.465707
1379.000000	0.464529
1380.000000	0.463295
1381.000000	0.461766
1382.000000	0.460060
1383.000000	0.458391
1384.000000	0.456437
1385.000000	0.454345
1386.000000	0.452349
1387.000000	0.450203
1388.000000	0.447865
1389.000000	0.445328
1390.000000	0.442874
1391.000000	0.440448
1392.000000	0.437934
1393.000000	0.435353
1394.000000	0.432865
1395.000000	0.430211
1396.000000	0.427366
1397.000000	0.424600
1398.000000	0.421794
1399.000000	0.419112
1400.000000	0.416396
1401.000000	0.413687
1402.000000	0.411138
1403.000000	0.408482
1404.000000	0.405780
1405.000000	0.403244
1406.000000	0.400687
1407.000000	0.398162
1408.000000	0.395796
1409.000000	0.393552
1410.000000	0.391470
1411.000000	0.389475
1412.000000	0.387552
1413.000000	0.385946
1414.000000	0.384601
1415.000000	0.383594
1416.000000	0.382868
1417.000000	0.382257
1418.000000	0.381853
1419.000000	0.381703
1420.000000	0.381492
1421.000000	0.381422
1422.000000	0.381351
1423.000000	0.381189
1424.000000	0.380852
1425.000000	0.380362
1426.000000	0.379663
1427.000000	0.378869
1428.000000	0.378006
1429.000000	0.377109
1430.000000	0.376395
1431.000000	0.375814
1432.000000	0.375426
1433.000000	0.375205
1434.000000	0.375365
1435.000000	0.375791
1436.000000	0.376605
1437.000000	0.377750
1438.000000	0.379234
1439.000000	0.381209
1440.000000	0.383318
1441.000000	0.385877
1442.000000	0.388412
1443.000000	0.391059
1444.000000	0.393641
1445.000000	0.396146
1446.000000	0.398568
1447.000000	0.400814
1448.000000	0.402710
1449.000000	0.404404
1450.000000	0.405869
1451.000000	0.407004
1452.000000	0.407924
1453.000000	0.408678
1454.000000	0.409209
1455.000000	0.409683
1456.000000	0.410142
1457.000000	0.410523
1458.000000	0.410850
1459.000000	0.411120
1460.000000	0.411353
1461.000000	0.411577
1462.000000	0.411836
1463.000000	0.411998
1464.000000	0.412272
1465.000000	0.412712
1466.000000	0.413120
1467.000000	0.413749
1468.000000	0.414358
1469.000000	0.414941
1470.000000	0.415580
1471.000000	0.416230
1472.000000	0.416972
1473.000000	0.417903
1474.000000	0.418696
1475.000000	0.419402
1476.000000	0.420103
1477.000000	0.420822
1478.000000	0.421644
1479.000000	0.422447
1480.000000	0.423258
1481.000000	0.423989
1482.000000	0.424636
1483.000000	0.425403
1484.000000	0.426212
1485.000000	0.426982
1486.000000	0.427792
1487.000000	0.428536
1488.000000	0.429215
1489.000000	0.430009
1490.000000	0.430673
1491.000000	0.431427
1492.000000	0.432234
1493.000000	0.432996
1494.000000	0.433669
1495.000000	0.434353
1496.000000	0.435032
1497.000000	0.435686
1498.000000	0.436328
1499.000000	0.437014
1500.000000	0.437760
1501.000000	0.438461
1502.000000	0.439134
1503.000000	0.439824
1504.000000	0.440401
1505.000000	0.440905
1506.000000	0.441429
1507.000000	0.441993
1508.000000	0.442706
1509.000000	0.443232
1510.000000	0.443632
1511.000000	0.444232
1512.000000	0.444661
1513.000000	0.445047
1514.000000	0.445526
1515.000000	0.445794
1516.000000	0.446087
1517.000000	0.446429
1518.000000	0.446863
1519.000000	0.447278
1520.000000	0.447725
1521.000000	0.448058
1522.000000	0.448369
1523.000000	0.448856
1524.000000	0.449156
1525.000000	0.449493
1526.000000	0.449932
1527.000000	0.450267
1528.000000	0.450625
1529.000000	0.450974
1530.000000	0.451164
1531.000000	0.451465
1532.000000	0.451836
1533.000000	0.452090
1534.000000	0.452413
1535.000000	0.452766
1536.000000	0.452997
1537.000000	0.453395
1538.000000	0.453863
1539.000000	0.454195
1540.000000	0.454582
1541.000000	0.455046
1542.000000	0.455431
1543.000000	0.455786
1544.000000	0.456055
1545.000000	0.456216
1546.000000	0.456369
1547.000000	0.456709
1548.000000	0.457072
1549.000000	0.457256
1550.000000	0.457455
1551.000000	0.457609
1552.000000	0.457798
1553.000000	0.458169
1554.000000	0.458531
1555.000000	0.458878
1556.000000	0.459190
1557.000000	0.459434
1558.000000	0.459668
1559.000000	0.459727
1560.000000	0.459903
1561.000000	0.460226
1562.000000	0.460354
1563.000000	0.460500
1564.000000	0.460649
1565.000000	0.460663
1566.000000	0.460686
1567.000000	0.460916
1568.000000	0.461050
1569.000000	0.461160
1570.000000	0.461288
1571.000000	0.461513
1572.000000	0.461572
1573.000000	0.461504
1574.000000	0.461562
1575.000000	0.461576
1576.000000	0.461638
1577.000000	0.461821
1578.000000	0.461924
1579.000000	0.462062
1580.000000	0.462182
1581.000000	0.462429
1582.000000	0.462562
1583.000000	0.462546
1584.000000	0.462573
1585.000000	0.462725
1586.000000	0.462854
1587.000000	0.462983
1588.000000	0.463147
1589.000000	0.463363
1590.000000	0.463460
1591.000000	0.463555
1592.000000	0.463715
1593.000000	0.463885
1594.000000	0.464025
1595.000000	0.464297
1596.000000	0.464446
1597.000000	0.464524
1598.000000	0.464572
1599.000000	0.464611
1600.000000	0.464668
1601.000000	0.464796
1602.000000	0.464914
1603.000000	0.465152
1604.000000	0.465276
1605.000000	0.465423
1606.000000	0.465446
1607.000000	0.465395
1608.000000	0.465350
1609.000000	0.465287
1610.000000	0.465247
1611.000000	0.465281
1612.000000	0.465298
1613.000000	0.465444
1614.000000	0.465509
1615.000000	0.465624
1616.000000	0.465811
1617.000000	0.465945
1618.000000	0.466082
1619.000000	0.466236
1620.000000	0.466380
1621.000000	0.466617
1622.000000	0.466797
1623.000000	0.466849
1624.000000	0.466955
1625.000000	0.466808
1626.000000	0.466753
1627.000000	0.466798
1628.000000	0.466939
1629.000000	0.467105
1630.000000	0.467283
1631.000000	0.467551
1632.000000	0.467589
1633.000000	0.467460
1634.000000	0.467492
1635.000000	0.467507
1636.000000	0.467567
1637.000000	0.467853
1638.000000	0.467879
1639.000000	0.467761
1640.000000	0.467852
1641.000000	0.468090
1642.000000	0.468217
1643.000000	0.468519
1644.000000	0.468664
1645.000000	0.468573
1646.000000	0.468578
1647.000000	0.468724
1648.000000	0.468728
1649.000000	0.468750
1650.000000	0.468906
1651.000000	0.469121
1652.000000	0.469359
1653.000000	0.469712
1654.000000	0.469882
1655.000000	0.469825
1656.000000	0.469754
1657.000000	0.469681
1658.000000	0.469662
1659.000000	0.469862
1660.000000	0.469973
1661.000000	0.469875
1662.000000	0.469978
1663.000000	0.470117
1664.000000	0.470227
1665.000000	0.470440
1666.000000	0.470670
1667.000000	0.470679
1668.000000	0.470826
1669.000000	0.471111
1670.000000	0.471127
1671.000000	0.471218
1672.000000	0.471312
1673.000000	0.471168
1674.000000	0.471429
1675.000000	0.471696
1676.000000	0.471675
1677.000000	0.471715
1678.000000	0.471715
1679.000000	0.471624
1680.000000	0.471725
1681.000000	0.471787
1682.000000	0.471620
1683.000000	0.471489
1684.000000	0.471317
1685.000000	0.471234
1686.000000	0.471239
1687.000000	0.471234
1688.000000	0.471301
1689.000000	0.471442
1690.000000	0.471472
1691.000000	0.471615
1692.000000	0.471514
1693.000000	0.471384
1694.000000	0.471392
1695.000000	0.471269
1696.000000	0.471357
1697.000000	0.471350
1698.000000	0.471361
1699.000000	0.471484
1700.000000	0.471684
1701.000000	0.471911
1702.000000	0.471996
1703.000000	0.471984
1704.000000	0.471979
1705.000000	0.471975
1706.000000	0.472019
1707.000000	0.472021
1708.000000	0.471941
1709.000000	0.471800
1710.000000	0.471726
1711.000000	0.471685
1712.000000	0.471674
1713.000000	0.471659
1714.000000	0.471748
1715.000000	0.471788
1716.000000	0.471882
1717.000000	0.471860
1718.000000	0.471712
1719.000000	0.471542
1720.000000	0.471360
1721.000000	0.471177
1722.000000	0.470980
1723.000000	0.470808
1724.000000	0.470616
1725.000000	0.470544
1726.000000	0.470459
1727.000000	0.470339
1728.000000	0.470203
1729.000000	0.469933
1730.000000	0.469638
1731.000000	0.469605
1732.000000	0.469769
1733.000000	0.469803
1734.000000	0.469750
1735.000000	0.469692
1736.000000	0.469421
1737.000000	0.469266
1738.000000	0.469233
1739.000000	0.469211
1740.000000	0.469136
1741.000000	0.469072
1742.000000	0.469117
1743.000000	0.469165
1744.000000	0.469160
1745.000000	0.469046
1746.000000	0.468955
1747.000000	0.468643
1748.000000	0.468316
1749.000000	0.467951
1750.000000	0.467655
1751.000000	0.467622
1752.000000	0.467616
1753.000000	0.467468
1754.000000	0.467373
1755.000000	0.467205
1756.000000	0.467019
1757.000000	0.466917
1758.000000	0.466754
1759.000000	0.466363
1760.000000	0.466209
1761.000000	0.466125
1762.000000	0.466031
1763.000000	0.466173
1764.000000	0.466147
1765.000000	0.465946
1766.000000	0.465817
1767.000000	0.465485
1768.000000	0.465289
1769.000000	0.465350
1770.000000	0.465343
1771.000000	0.465308
1772.000000	0.465291
1773.000000	0.465230
1774.000000	0.465028
1775.000000	0.464865
1776.000000	0.464695
1777.000000	0.464270
1778.000000	0.464108
1779.000000	0.464105
1780.000000	0.464056
1781.000000	0.464007
1782.000000	0.463970
1783.000000	0.464037
1784.000000	0.464083
1785.000000	0.463926
1786.000000	0.463853
1787.000000	0.463948
1788.000000	0.464017
1789.000000	0.464077
1790.000000	0.464233
1791.000000	0.464221
1792.000000	0.464364
1793.000000	0.464341
1794.000000	0.464030
1795.000000	0.463973
1796.000000	0.464032
1797.000000	0.463963
1798.000000	0.463874
1799.000000	0.463881
1800.000000	0.463857
1801.000000	0.463787
1802.000000	0.464203
1803.000000	0.463622
1804.000000	0.464061
1805.000000	0.466316
1806.000000	0.466960
1807.000000	0.467066
1808.000000	0.466943
1809.000000	0.466063
1810.000000	0.465319
1811.000000	0.464696
1812.000000	0.463588
1813.000000	0.463456
1814.000000	0.464092
1815.000000	0.464253
1816.000000	0.465043
1817.000000	0.464972
1818.000000	0.464188
1819.000000	0.463778
1820.000000	0.464033
1821.000000	0.463796
1822.000000	0.463544
1823.000000	0.463174
1824.000000	0.463296
1825.000000	0.463353
1826.000000	0.463464
1827.000000	0.463977
1828.000000	0.464593
1829.000000	0.464036
1830.000000	0.462714
1831.000000	0.462435
1832.000000	0.462131
1833.000000	0.462062
1834.000000	0.463065
1835.000000	0.463246
1836.000000	0.463123
1837.000000	0.462846
1838.000000	0.462323
1839.000000	0.460850
1840.000000	0.459808
1841.000000	0.458925
1842.000000	0.458497
1843.000000	0.458475
1844.000000	0.458474
1845.000000	0.458900
1846.000000	0.458994
1847.000000	0.458729
1848.000000	0.458428
1849.000000	0.458313
1850.000000	0.458109
1851.000000	0.457842
1852.000000	0.457341
1853.000000	0.457177
1854.000000	0.457047
1855.000000	0.456348
1856.000000	0.455272
1857.000000	0.454866
1858.000000	0.453152
1859.000000	0.451205
1860.000000	0.449417
1861.000000	0.447113
1862.000000	0.445529
1863.000000	0.444515
1864.000000	0.443244
1865.000000	0.443027
1866.000000	0.441251
1867.000000	0.438745
1868.000000	0.435464
1869.000000	0.431427
1870.000000	0.428180
1871.000000	0.425974
1872.000000	0.424038
1873.000000	0.421627
1874.000000	0.419745
1875.000000	0.416571
1876.000000	0.412188
1877.000000	0.407611
1878.000000	0.402991
1879.000000	0.399123
1880.000000	0.395145
1881.000000	0.390465
1882.000000	0.385696
1883.000000	0.380300
1884.000000	0.374574
1885.000000	0.368149
1886.000000	0.361672
1887.000000	0.354679
1888.000000	0.347433
1889.000000	0.340219
1890.000000	0.333739
1891.000000	0.327255
1892.000000	0.320516
1893.000000	0.313867
1894.000000	0.306954
1895.000000	0.300024
1896.000000	0.293078
1897.000000	0.286404
1898.000000	0.279710
1899.000000	0.273544
1900.000000	0.267908
1901.000000	0.262285
1902.000000	0.257376
1903.000000	0.253319
1904.000000	0.249980
1905.000000	0.247037
1906.000000	0.244444
1907.000000	0.242439
1908.000000	0.240707
1909.000000	0.239106
1910.000000	0.238317
1911.000000	0.237521
1912.000000	0.237066
1913.000000	0.237064
1914.000000	0.237092
1915.000000	0.237638
1916.000000	0.238173
1917.000000	0.238739
1918.000000	0.239497
1919.000000	0.240156
1920.000000	0.241184
1921.000000	0.243065
1922.000000	0.244846
1923.000000	0.246911
1924.000000	0.248281
1925.000000	0.249336
1926.000000	0.250490
1927.000000	0.251279
1928.000000	0.252437
1929.000000	0.254127
1930.000000	0.255470
1931.000000	0.256488
1932.000000	0.257755
1933.000000	0.258555
1934.000000	0.259209
1935.000000	0.260006
1936.000000	0.260882
1937.000000	0.261917
1938.000000	0.262891
1939.000000	0.263702
1940.000000	0.264396
1941.000000	0.265046
1942.000000	0.265696
1943.000000	0.266303
1944.000000	0.266919
1945.000000	0.267691
1946.000000	0.268384
1947.000000	0.269018
1948.000000	0.269663
1949.000000	0.270073
1950.000000	0.270490
1951.000000	0.271148
1952.000000	0.272020
1953.000000	0.272952
1954.000000	0.274128
1955.000000	0.275235
1956.000000	0.275554
1957.000000	0.275495
1958.000000	0.275561
1959.000000	0.275877
1960.000000	0.276426
1961.000000	0.277367
1962.000000	0.278213
1963.000000	0.279170
1964.000000	0.280024
1965.000000	0.281128
1966.000000	0.282249
1967.000000	0.283294
1968.000000	0.283779
1969.000000	0.283701
1970.000000	0.283846
1971.000000	0.284238
1972.000000	0.284633
1973.000000	0.285191
1974.000000	0.286360
1975.000000	0.287367
1976.000000	0.288291
1977.000000	0.289645
1978.000000	0.290534
1979.000000	0.291137
1980.000000	0.292061
1981.000000	0.292677
1982.000000	0.293569
1983.000000	0.294917
1984.000000	0.295998
1985.000000	0.296871
1986.000000	0.297692
1987.000000	0.298716
1988.000000	0.299555
1989.000000	0.299975
1990.000000	0.300690
1991.000000	0.301586
1992.000000	0.302942
1993.000000	0.304223
1994.000000	0.305931
1995.000000	0.307765
1996.000000	0.309240
1997.000000	0.310461
1998.000000	0.311418
1999.000000	0.312685
2000.000000	0.313973
2001.000000	0.314796
2002.000000	0.316234
2003.000000	0.317428
2004.000000	0.317907
2005.000000	0.318549
2006.000000	0.319666
2007.000000	0.320931
2008.000000	0.322267
2009.000000	0.324343
2010.000000	0.325811
2011.000000	0.326518
2012.000000	0.327723
2013.000000	0.329033
2014.000000	0.329871
2015.000000	0.331566
2016.000000	0.333069
2017.000000	0.334580
2018.000000	0.335700
2019.000000	0.335750
2020.000000	0.336368
2021.000000	0.337068
2022.000000	0.337411
2023.000000	0.338387
2024.000000	0.339997
2025.000000	0.341276
2026.000000	0.342594
2027.000000	0.343723
2028.000000	0.344535
2029.000000	0.345889
2030.000000	0.346891
2031.000000	0.348108
2032.000000	0.349501
2033.000000	0.350672
2034.000000	0.351627
2035.000000	0.352483
2036.000000	0.353044
2037.000000	0.353320
2038.000000	0.354034
2039.000000	0.354926
2040.000000	0.356005
2041.000000	0.356736
2042.000000	0.357620
2043.000000	0.358088
2044.000000	0.358693
2045.000000	0.360245
2046.000000	0.361139
2047.000000	0.361865
2048.000000	0.362545
2049.000000	0.363311
2050.000000	0.363047
2051.000000	0.363530
2052.000000	0.364381
2053.000000	0.364832
2054.000000	0.365678
2055.000000	0.366400
2056.000000	0.366739
2057.000000	0.367194
2058.000000	0.367675
2059.000000	0.368142
2060.000000	0.368705
2061.000000	0.369356
2062.000000	0.370150
2063.000000	0.371285
2064.000000	0.372008
2065.000000	0.372994
2066.000000	0.373632
2067.000000	0.374162
2068.000000	0.374885
2069.000000	0.375737
2070.000000	0.377084
2071.000000	0.378063
2072.000000	0.378402
2073.000000	0.379027
2074.000000	0.379345
2075.000000	0.379761
2076.000000	0.380325
2077.000000	0.380964
2078.000000	0.381581
2079.000000	0.382080
2080.000000	0.382602
2081.000000	0.383250
2082.000000	0.383868
2083.000000	0.384506
2084.000000	0.385130
2085.000000	0.385875
2086.000000	0.386187
2087.000000	0.386009
2088.000000	0.386136
2089.000000	0.386179
2090.000000	0.386633
2091.000000	0.387430
2092.000000	0.388360
2093.000000	0.390013
2094.000000	0.390968
2095.000000	0.391853
2096.000000	0.392520
2097.000000	0.392815
2098.000000	0.392671
2099.000000	0.392410
2100.000000	0.392023
2101.000000	0.392138
2102.000000	0.392328
2103.000000	0.393439
2104.000000	0.395043
2105.000000	0.395714
2106.000000	0.396070
2107.000000	0.396359
2108.000000	0.395603
2109.000000	0.395891
2110.000000	0.396674
2111.000000	0.397165
2112.000000	0.397864
2113.000000	0.398143
2114.000000	0.398312
2115.000000	0.398034
2116.000000	0.398055
2117.000000	0.398538
2118.000000	0.398832
2119.000000	0.399033
2120.000000	0.399444
2121.000000	0.399959
2122.000000	0.400403
2123.000000	0.401092
2124.000000	0.401456
2125.000000	0.401567
2126.000000	0.401342
2127.000000	0.400967
2128.000000	0.400793
2129.000000	0.399787
2130.000000	0.399975
2131.000000	0.400735
2132.000000	0.400384
2133.000000	0.400939
2134.000000	0.402429
2135.000000	0.403055
2136.000000	0.402729
2137.000000	0.402372
2138.000000	0.401150
2139.000000	0.400322
2140.000000	0.399350
2141.000000	0.399014
2142.000000	0.398931
2143.000000	0.398717
2144.000000	0.399151
2145.000000	0.399328
2146.000000	0.399589
2147.000000	0.400109
2148.000000	0.400031
2149.000000	0.399821
2150.000000	0.398703
2151.000000	0.397273
2152.000000	0.396522
2153.000000	0.396038
2154.000000	0.395801
2155.000000	0.396555
2156.000000	0.396541
2157.000000	0.396389
2158.000000	0.395912
2159.000000	0.395027
2160.000000	0.394596
2161.000000	0.393940
2162.000000	0.394010
2163.000000	0.394569
2164.000000	0.394826
2165.000000	0.395715
2166.000000	0.395511
2167.000000	0.395039
2168.000000	0.395727
2169.000000	0.396009
2170.000000	0.395914
2171.000000	0.395668
2172.000000	0.395145
2173.000000	0.394800
2174.000000	0.394398
2175.000000	0.393634
2176.000000	0.392250
2177.000000	0.392195
2178.000000	0.392850
2179.000000	0.393277
2180.000000	0.395135
2181.000000	0.395778
2182.000000	0.394892
2183.000000	0.393237
2184.000000	0.392029
2185.000000	0.389811
2186.000000	0.387602
2187.000000	0.385881
2188.000000	0.384427
2189.000000	0.383920
2190.000000	0.385306
2191.000000	0.386789
2192.000000	0.386266
2193.000000	0.384962
2194.000000	0.383805
2195.000000	0.380154
2196.000000	0.378832
2197.000000	0.379349
2198.000000	0.378782
2199.000000	0.378317
2200.000000	0.377726
2201.000000	0.377214
2202.000000	0.376342
2203.000000	0.374358
2204.000000	0.374063
2205.000000	0.372702
2206.000000	0.371677
2207.000000	0.372531
2208.000000	0.373077
2209.000000	0.373034
2210.000000	0.375341
2211.000000	0.377907
2212.000000	0.379317
2213.000000	0.380567
2214.000000	0.382107
2215.000000	0.382525
2216.000000	0.381092
2217.000000	0.381227
2218.000000	0.381469
2219.000000	0.382294
2220.000000	0.384377
2221.000000	0.386019
2222.000000	0.388322
2223.000000	0.389453
2224.000000	0.390438
2225.000000	0.390338
2226.000000	0.387617
2227.000000	0.382787
2228.000000	0.382063
2229.000000	0.381052
2230.000000	0.381563
2231.000000	0.386014
2232.000000	0.386548
2233.000000	0.386586
2234.000000	0.386387
2235.000000	0.384163
2236.000000	0.381356
2237.000000	0.375779
2238.000000	0.373006
2239.000000	0.368938
2240.000000	0.369057
2241.000000	0.373959
2242.000000	0.376053
2243.000000	0.380295
2244.000000	0.382210
2245.000000	0.381002
2246.000000	0.380642
2247.000000	0.379101
2248.000000	0.378912
2249.000000	0.379275
2250.000000	0.380605
2251.000000	0.381267
2252.000000	0.383132
2253.000000	0.382127
2254.000000	0.378922
2255.000000	0.376401
2256.000000	0.373379
2257.000000	0.372586
2258.000000	0.373306
2259.000000	0.372067
2260.000000	0.371409
2261.000000	0.369834
2262.000000	0.366463
2263.000000	0.364378
2264.000000	0.363414
2265.000000	0.360184
2266.000000	0.356232
2267.000000	0.352596
2268.000000	0.347830
2269.000000	0.343860
2270.000000	0.340139
2271.000000	0.335997
2272.000000	0.331971
2273.000000	0.327256
2274.000000	0.321816
2275.000000	0.318125
2276.000000	0.314975
2277.000000	0.310774
2278.000000	0.308476
2279.000000	0.304836
2280.000000	0.299687
2281.000000	0.297871
2282.000000	0.298216
2283.000000	0.297537
2284.000000	0.297970
2285.000000	0.297190
2286.000000	0.294073
2287.000000	0.293291
2288.000000	0.294424
2289.000000	0.296758
2290.000000	0.299729
2291.000000	0.301695
2292.000000	0.302448
2293.000000	0.300554
2294.000000	0.301748
2295.000000	0.304109
2296.000000	0.307344
2297.000000	0.313393
2298.000000	0.317783
2299.000000	0.322415
2300.000000	0.325258
2301.000000	0.326357
2302.000000	0.327589
2303.000000	0.327421
2304.000000	0.327975
2305.000000	0.329446
2306.000000	0.330911
2307.000000	0.331946
2308.000000	0.333619
2309.000000	0.336639
2310.000000	0.338264
2311.000000	0.339211
2312.000000	0.339286
2313.000000	0.339393
2314.000000	0.338133
2315.000000	0.337775
2316.000000	0.339851
2317.000000	0.339896
2318.000000	0.339509
2319.000000	0.340445
2320.000000	0.339955
2321.000000	0.339010
2322.000000	0.338169
2323.000000	0.336012
2324.000000	0.335693
2325.000000	0.336288
2326.000000	0.337094
2327.000000	0.340875
2328.000000	0.341029
2329.000000	0.338762
2330.000000	0.338215
2331.000000	0.335177
2332.000000	0.334964
2333.000000	0.338075
2334.000000	0.337312
2335.000000	0.337022
2336.000000	0.334891
2337.000000	0.334101
2338.000000	0.334523
2339.000000	0.333852
2340.000000	0.333864
2341.000000	0.332556
2342.000000	0.327648
2343.000000	0.324949
2344.000000	0.322392
2345.000000	0.320753
2346.000000	0.321785
2347.000000	0.321985
2348.000000	0.322542
2349.000000	0.322860
2350.000000	0.321878
2351.000000	0.318509
2352.000000	0.314564
2353.000000	0.310919
2354.000000	0.306658
2355.000000	0.303151
2356.000000	0.301003
2357.000000	0.299629
2358.000000	0.300571
2359.000000	0.301998
2360.000000	0.302118
2361.000000	0.300527
2362.000000	0.297541
2363.000000	0.295809
2364.000000	0.295497
2365.000000	0.298338
2366.000000	0.303997
2367.000000	0.306645
2368.000000	0.306658
2369.000000	0.309604
2370.000000	0.305608
2371.000000	0.299510
2372.000000	0.297318
2373.000000	0.291509
2374.000000	0.291738
2375.000000	0.293398
2376.000000	0.289474
2377.000000	0.285968
2378.000000	0.281763
2379.000000	0.278941
2380.000000	0.280682
2381.000000	0.283719
2382.000000	0.281747
2383.000000	0.279043
2384.000000	0.277791
2385.000000	0.274608
2386.000000	0.271148
2387.000000	0.265658
2388.000000	0.263956
2389.000000	0.263015
2390.000000	0.263699
2391.000000	0.266793
2392.000000	0.262322
2393.000000	0.257857
2394.000000	0.253357
2395.000000	0.249961
2396.000000	0.250083
2397.000000	0.249641
2398.000000	0.251537
2399.000000	0.251693
2400.000000	0.251407
2401.000000	0.255401
2402.000000	0.259273
2403.000000	0.261332
2404.000000	0.258584
2405.000000	0.248631
2406.000000	0.239567
2407.000000	0.231166
2408.000000	0.228447
2409.000000	0.235440
2410.000000	0.240038
2411.000000	0.245391
2412.000000	0.247187
2413.000000	0.244362
2414.000000	0.250054
2415.000000	0.252688
2416.000000	0.256411
2417.000000	0.265397
2418.000000	0.257571
2419.000000	0.249266
2420.000000	0.245851
2421.000000	0.231598
2422.000000	0.230569
2423.000000	0.238143
2424.000000	0.233163
2425.000000	0.232685
2426.000000	0.232121
2427.000000	0.228132
2428.000000	0.233979
2429.000000	0.242723
2430.000000	0.246318
2431.000000	0.238269
2432.000000	0.232855
2433.000000	0.223808
2434.000000	0.216328
2435.000000	0.225623
2436.000000	0.224577
2437.000000	0.229560
2438.000000	0.238464
2439.000000	0.237982
2440.000000	0.235902
2441.000000	0.228201
2442.000000	0.221797
2443.000000	0.216480
2444.000000	0.219028
2445.000000	0.220513
2446.000000	0.221307
2447.000000	0.230677
2448.000000	0.240117
2449.000000	0.248710
2450.000000	0.248227
2451.000000	0.235827
2452.000000	0.220455
2453.000000	0.213836
2454.000000	0.214354
2455.000000	0.216226
2456.000000	0.221644
2457.000000	0.219047
2458.000000	0.214530
2459.000000	0.208200
2460.000000	0.195417
2461.000000	0.186376
2462.000000	0.177775
2463.000000	0.166294
2464.000000	0.158093
2465.000000	0.155062
2466.000000	0.149516
2467.000000	0.157582
2468.000000	0.172041
2469.000000	0.176564
2470.000000	0.204311
2471.000000	0.222927
2472.000000	0.224949
2473.000000	0.225899
2474.000000	0.202811
2475.000000	0.192186
2476.000000	0.182224
2477.000000	0.177141
2478.000000	0.166878
2479.000000	0.143011
2480.000000	0.140213
2481.000000	0.159703
2482.000000	0.203012
2483.000000	0.238314
2484.000000	0.280378
2485.000000	0.284187
2486.000000	0.246734
2487.000000	0.267244
2488.000000	0.240934
2489.000000	0.199419
2490.000000	0.203611
2491.000000	0.169594
2492.000000	0.151369
2493.000000	0.152593
2494.000000	0.152323
2495.000000	0.153363
2496.000000	0.138644
2497.000000	0.105049
2498.000000	0.091503
2499.000000	0.074097
2500.000000	0.092306
