# Wavelength	NAu-2-10_HEX-40_FV7-50_00000.asd.rts.txt
350.000000	0.177909
351.000000	0.165255
352.000000	0.167110
353.000000	0.172860
354.000000	0.177233
355.000000	0.179679
356.000000	0.182508
357.000000	0.186103
358.000000	0.186311
359.000000	0.186023
360.000000	0.184575
361.000000	0.181372
362.000000	0.185230
363.000000	0.186941
364.000000	0.181294
365.000000	0.176396
366.000000	0.174046
367.000000	0.175248
368.000000	0.180939
369.000000	0.185044
370.000000	0.185995
371.000000	0.183978
372.000000	0.179033
373.000000	0.179973
374.000000	0.189116
375.000000	0.190234
376.000000	0.189067
377.000000	0.189069
378.000000	0.192604
379.000000	0.189438
380.000000	0.184212
381.000000	0.185856
382.000000	0.187333
383.000000	0.188524
384.000000	0.189799
385.000000	0.189789
386.000000	0.188175
387.000000	0.187417
388.000000	0.193551
389.000000	0.195911
390.000000	0.194606
391.000000	0.193240
392.000000	0.191604
393.000000	0.192315
394.000000	0.195799
395.000000	0.194780
396.000000	0.194264
397.000000	0.195283
398.000000	0.193117
399.000000	0.194837
400.000000	0.197887
401.000000	0.196036
402.000000	0.195911
403.000000	0.196644
404.000000	0.196760
405.000000	0.197465
406.000000	0.197866
407.000000	0.197750
408.000000	0.198038
409.000000	0.197855
410.000000	0.197738
411.000000	0.198970
412.000000	0.199455
413.000000	0.199528
414.000000	0.199942
415.000000	0.200155
416.000000	0.200550
417.000000	0.201225
418.000000	0.201545
419.000000	0.201679
420.000000	0.201809
421.000000	0.202153
422.000000	0.202627
423.000000	0.203075
424.000000	0.203410
425.000000	0.203876
426.000000	0.204113
427.000000	0.203873
428.000000	0.203353
429.000000	0.203481
430.000000	0.204320
431.000000	0.204874
432.000000	0.204864
433.000000	0.204613
434.000000	0.204858
435.000000	0.205011
436.000000	0.205350
437.000000	0.206052
438.000000	0.206217
439.000000	0.206464
440.000000	0.207033
441.000000	0.206976
442.000000	0.207094
443.000000	0.207457
444.000000	0.207792
445.000000	0.207947
446.000000	0.207956
447.000000	0.207842
448.000000	0.208225
449.000000	0.208933
450.000000	0.209591
451.000000	0.209381
452.000000	0.209345
453.000000	0.209739
454.000000	0.210164
455.000000	0.210644
456.000000	0.211186
457.000000	0.211641
458.000000	0.211879
459.000000	0.212026
460.000000	0.212287
461.000000	0.212744
462.000000	0.213221
463.000000	0.213477
464.000000	0.213546
465.000000	0.213778
466.000000	0.214122
467.000000	0.214380
468.000000	0.214407
469.000000	0.214455
470.000000	0.214934
471.000000	0.215469
472.000000	0.215659
473.000000	0.215461
474.000000	0.215581
475.000000	0.215826
476.000000	0.216209
477.000000	0.216680
478.000000	0.216797
479.000000	0.216858
480.000000	0.217153
481.000000	0.217410
482.000000	0.217702
483.000000	0.217946
484.000000	0.218229
485.000000	0.218671
486.000000	0.219251
487.000000	0.219122
488.000000	0.219096
489.000000	0.219337
490.000000	0.219596
491.000000	0.219918
492.000000	0.220235
493.000000	0.220364
494.000000	0.220490
495.000000	0.220846
496.000000	0.221404
497.000000	0.221552
498.000000	0.221708
499.000000	0.222035
500.000000	0.222253
501.000000	0.222403
502.000000	0.222581
503.000000	0.222841
504.000000	0.223116
505.000000	0.223341
506.000000	0.223498
507.000000	0.223738
508.000000	0.224120
509.000000	0.224561
510.000000	0.224807
511.000000	0.225089
512.000000	0.225443
513.000000	0.225708
514.000000	0.225995
515.000000	0.226387
516.000000	0.226859
517.000000	0.227037
518.000000	0.227245
519.000000	0.227654
520.000000	0.227992
521.000000	0.228267
522.000000	0.228566
523.000000	0.229123
524.000000	0.229565
525.000000	0.229895
526.000000	0.230347
527.000000	0.230691
528.000000	0.231055
529.000000	0.231630
530.000000	0.232146
531.000000	0.232633
532.000000	0.233072
533.000000	0.233580
534.000000	0.234105
535.000000	0.234617
536.000000	0.235137
537.000000	0.235653
538.000000	0.236126
539.000000	0.236509
540.000000	0.236978
541.000000	0.237458
542.000000	0.237895
543.000000	0.238355
544.000000	0.238798
545.000000	0.239202
546.000000	0.239829
547.000000	0.240295
548.000000	0.240655
549.000000	0.241185
550.000000	0.241686
551.000000	0.242209
552.000000	0.242797
553.000000	0.243316
554.000000	0.243874
555.000000	0.244552
556.000000	0.245269
557.000000	0.245915
558.000000	0.246550
559.000000	0.247105
560.000000	0.247719
561.000000	0.248434
562.000000	0.249104
563.000000	0.249680
564.000000	0.250251
565.000000	0.250818
566.000000	0.251398
567.000000	0.251928
568.000000	0.252390
569.000000	0.252970
570.000000	0.253492
571.000000	0.253939
572.000000	0.254465
573.000000	0.254846
574.000000	0.255157
575.000000	0.255609
576.000000	0.255988
577.000000	0.256264
578.000000	0.256518
579.000000	0.256847
580.000000	0.257156
581.000000	0.257405
582.000000	0.257653
583.000000	0.257950
584.000000	0.258249
585.000000	0.258442
586.000000	0.258626
587.000000	0.258821
588.000000	0.259018
589.000000	0.259153
590.000000	0.259298
591.000000	0.259485
592.000000	0.259606
593.000000	0.259733
594.000000	0.259861
595.000000	0.259909
596.000000	0.259976
597.000000	0.260092
598.000000	0.260168
599.000000	0.260105
600.000000	0.260074
601.000000	0.260151
602.000000	0.260265
603.000000	0.260283
604.000000	0.260219
605.000000	0.260335
606.000000	0.260425
607.000000	0.260448
608.000000	0.260450
609.000000	0.260595
610.000000	0.260668
611.000000	0.260464
612.000000	0.260514
613.000000	0.260572
614.000000	0.260509
615.000000	0.260532
616.000000	0.260629
617.000000	0.260705
618.000000	0.260651
619.000000	0.260568
620.000000	0.260501
621.000000	0.260515
622.000000	0.260449
623.000000	0.260395
624.000000	0.260432
625.000000	0.260462
626.000000	0.260454
627.000000	0.260420
628.000000	0.260425
629.000000	0.260506
630.000000	0.260540
631.000000	0.260566
632.000000	0.260590
633.000000	0.260628
634.000000	0.260687
635.000000	0.260813
636.000000	0.260970
637.000000	0.261120
638.000000	0.261301
639.000000	0.261421
640.000000	0.261522
641.000000	0.261616
642.000000	0.261799
643.000000	0.262003
644.000000	0.262123
645.000000	0.262255
646.000000	0.262405
647.000000	0.262548
648.000000	0.262700
649.000000	0.262864
650.000000	0.263025
651.000000	0.263197
652.000000	0.263335
653.000000	0.263470
654.000000	0.263604
655.000000	0.263860
656.000000	0.264128
657.000000	0.264266
658.000000	0.264456
659.000000	0.264652
660.000000	0.264825
661.000000	0.265020
662.000000	0.265215
663.000000	0.265475
664.000000	0.265810
665.000000	0.266079
666.000000	0.266297
667.000000	0.266500
668.000000	0.266775
669.000000	0.267057
670.000000	0.267329
671.000000	0.267696
672.000000	0.268055
673.000000	0.268372
674.000000	0.268682
675.000000	0.269003
676.000000	0.269335
677.000000	0.269688
678.000000	0.270073
679.000000	0.270451
680.000000	0.270806
681.000000	0.271135
682.000000	0.271541
683.000000	0.271976
684.000000	0.272437
685.000000	0.272871
686.000000	0.273288
687.000000	0.273678
688.000000	0.274114
689.000000	0.274569
690.000000	0.275041
691.000000	0.275530
692.000000	0.275942
693.000000	0.276334
694.000000	0.276777
695.000000	0.277270
696.000000	0.277776
697.000000	0.278248
698.000000	0.278718
699.000000	0.279190
700.000000	0.279665
701.000000	0.280125
702.000000	0.280598
703.000000	0.281068
704.000000	0.281501
705.000000	0.281973
706.000000	0.282488
707.000000	0.283097
708.000000	0.283652
709.000000	0.284170
710.000000	0.284700
711.000000	0.285195
712.000000	0.285704
713.000000	0.286238
714.000000	0.286695
715.000000	0.287182
716.000000	0.287669
717.000000	0.288062
718.000000	0.288542
719.000000	0.289030
720.000000	0.289474
721.000000	0.290011
722.000000	0.290541
723.000000	0.291073
724.000000	0.291589
725.000000	0.292084
726.000000	0.292607
727.000000	0.293071
728.000000	0.293526
729.000000	0.293978
730.000000	0.294390
731.000000	0.294854
732.000000	0.295321
733.000000	0.295801
734.000000	0.296282
735.000000	0.296670
736.000000	0.297067
737.000000	0.297412
738.000000	0.297789
739.000000	0.298213
740.000000	0.298538
741.000000	0.298957
742.000000	0.299330
743.000000	0.299608
744.000000	0.299923
745.000000	0.300233
746.000000	0.300579
747.000000	0.300914
748.000000	0.301230
749.000000	0.301534
750.000000	0.301801
751.000000	0.302041
752.000000	0.302311
753.000000	0.302626
754.000000	0.302934
755.000000	0.303227
756.000000	0.303458
757.000000	0.303558
758.000000	0.303710
759.000000	0.303923
760.000000	0.304128
761.000000	0.304396
762.000000	0.304679
763.000000	0.304893
764.000000	0.305024
765.000000	0.305199
766.000000	0.305426
767.000000	0.305657
768.000000	0.305776
769.000000	0.305900
770.000000	0.306080
771.000000	0.306249
772.000000	0.306393
773.000000	0.306508
774.000000	0.306715
775.000000	0.306805
776.000000	0.306891
777.000000	0.307043
778.000000	0.307143
779.000000	0.307293
780.000000	0.307496
781.000000	0.307640
782.000000	0.307730
783.000000	0.307860
784.000000	0.307952
785.000000	0.307980
786.000000	0.307995
787.000000	0.308034
788.000000	0.308120
789.000000	0.308225
790.000000	0.308323
791.000000	0.308430
792.000000	0.308504
793.000000	0.308534
794.000000	0.308549
795.000000	0.308645
796.000000	0.308714
797.000000	0.308727
798.000000	0.308744
799.000000	0.308718
800.000000	0.308715
801.000000	0.308802
802.000000	0.308848
803.000000	0.308882
804.000000	0.308932
805.000000	0.308858
806.000000	0.308815
807.000000	0.308862
808.000000	0.308863
809.000000	0.308886
810.000000	0.308883
811.000000	0.308826
812.000000	0.308850
813.000000	0.308899
814.000000	0.308928
815.000000	0.308917
816.000000	0.308897
817.000000	0.308925
818.000000	0.308956
819.000000	0.309013
820.000000	0.309082
821.000000	0.309101
822.000000	0.309094
823.000000	0.309073
824.000000	0.309009
825.000000	0.308975
826.000000	0.308935
827.000000	0.308831
828.000000	0.308712
829.000000	0.308704
830.000000	0.308696
831.000000	0.308723
832.000000	0.308721
833.000000	0.308653
834.000000	0.308549
835.000000	0.308484
836.000000	0.308496
837.000000	0.308399
838.000000	0.308225
839.000000	0.308141
840.000000	0.308074
841.000000	0.308069
842.000000	0.308103
843.000000	0.308033
844.000000	0.307905
845.000000	0.307764
846.000000	0.307725
847.000000	0.307692
848.000000	0.307636
849.000000	0.307586
850.000000	0.307540
851.000000	0.307379
852.000000	0.307178
853.000000	0.307168
854.000000	0.307152
855.000000	0.307151
856.000000	0.307063
857.000000	0.306941
858.000000	0.306828
859.000000	0.306692
860.000000	0.306645
861.000000	0.306539
862.000000	0.306382
863.000000	0.306177
864.000000	0.306060
865.000000	0.305969
866.000000	0.305888
867.000000	0.305844
868.000000	0.305749
869.000000	0.305576
870.000000	0.305435
871.000000	0.305262
872.000000	0.305095
873.000000	0.304909
874.000000	0.304744
875.000000	0.304615
876.000000	0.304507
877.000000	0.304328
878.000000	0.304119
879.000000	0.303929
880.000000	0.303687
881.000000	0.303630
882.000000	0.303381
883.000000	0.303073
884.000000	0.302935
885.000000	0.302687
886.000000	0.302418
887.000000	0.302238
888.000000	0.302161
889.000000	0.302021
890.000000	0.301770
891.000000	0.301627
892.000000	0.301464
893.000000	0.301277
894.000000	0.301150
895.000000	0.300886
896.000000	0.300696
897.000000	0.300602
898.000000	0.300540
899.000000	0.300362
900.000000	0.300214
901.000000	0.300100
902.000000	0.299946
903.000000	0.299803
904.000000	0.299644
905.000000	0.299343
906.000000	0.299057
907.000000	0.298910
908.000000	0.298845
909.000000	0.298448
910.000000	0.298187
911.000000	0.298068
912.000000	0.297976
913.000000	0.297717
914.000000	0.297484
915.000000	0.297360
916.000000	0.297173
917.000000	0.296948
918.000000	0.296719
919.000000	0.296516
920.000000	0.296473
921.000000	0.296221
922.000000	0.295858
923.000000	0.295656
924.000000	0.295315
925.000000	0.295017
926.000000	0.294873
927.000000	0.294671
928.000000	0.294356
929.000000	0.294010
930.000000	0.293747
931.000000	0.293514
932.000000	0.293220
933.000000	0.292959
934.000000	0.292913
935.000000	0.292587
936.000000	0.292290
937.000000	0.292209
938.000000	0.292000
939.000000	0.291842
940.000000	0.291632
941.000000	0.291282
942.000000	0.290917
943.000000	0.290624
944.000000	0.290388
945.000000	0.290450
946.000000	0.290360
947.000000	0.290127
948.000000	0.289855
949.000000	0.289627
950.000000	0.289414
951.000000	0.289168
952.000000	0.288950
953.000000	0.288725
954.000000	0.288549
955.000000	0.288375
956.000000	0.288135
957.000000	0.287947
958.000000	0.287725
959.000000	0.287441
960.000000	0.287177
961.000000	0.286980
962.000000	0.286775
963.000000	0.286415
964.000000	0.286049
965.000000	0.285768
966.000000	0.285498
967.000000	0.285248
968.000000	0.284946
969.000000	0.284575
970.000000	0.284304
971.000000	0.284319
972.000000	0.284369
973.000000	0.284264
974.000000	0.284123
975.000000	0.283793
976.000000	0.283400
977.000000	0.283069
978.000000	0.282752
979.000000	0.282759
980.000000	0.282641
981.000000	0.282196
982.000000	0.281872
983.000000	0.281713
984.000000	0.281654
985.000000	0.281410
986.000000	0.281097
987.000000	0.281018
988.000000	0.281096
989.000000	0.280747
990.000000	0.280386
991.000000	0.280117
992.000000	0.279988
993.000000	0.280064
994.000000	0.279946
995.000000	0.279843
996.000000	0.279978
997.000000	0.279898
998.000000	0.279764
999.000000	0.279759
1000.000000	0.279731
1001.000000	0.279208
1002.000000	0.279706
1003.000000	0.280339
1004.000000	0.280708
1005.000000	0.280891
1006.000000	0.281037
1007.000000	0.281125
1008.000000	0.281245
1009.000000	0.280982
1010.000000	0.280415
1011.000000	0.279605
1012.000000	0.278907
1013.000000	0.278802
1014.000000	0.278582
1015.000000	0.278878
1016.000000	0.279830
1017.000000	0.280162
1018.000000	0.280397
1019.000000	0.280352
1020.000000	0.279899
1021.000000	0.279060
1022.000000	0.277579
1023.000000	0.277480
1024.000000	0.277644
1025.000000	0.278092
1026.000000	0.278864
1027.000000	0.279156
1028.000000	0.279048
1029.000000	0.278811
1030.000000	0.278584
1031.000000	0.278429
1032.000000	0.278033
1033.000000	0.277280
1034.000000	0.277067
1035.000000	0.277113
1036.000000	0.277464
1037.000000	0.278549
1038.000000	0.278921
1039.000000	0.279470
1040.000000	0.279457
1041.000000	0.278963
1042.000000	0.278385
1043.000000	0.278540
1044.000000	0.278914
1045.000000	0.278987
1046.000000	0.279280
1047.000000	0.279458
1048.000000	0.279144
1049.000000	0.279257
1050.000000	0.279810
1051.000000	0.279951
1052.000000	0.279965
1053.000000	0.279957
1054.000000	0.280072
1055.000000	0.279993
1056.000000	0.279560
1057.000000	0.279575
1058.000000	0.279883
1059.000000	0.280037
1060.000000	0.280578
1061.000000	0.281002
1062.000000	0.281524
1063.000000	0.281864
1064.000000	0.281996
1065.000000	0.282222
1066.000000	0.282189
1067.000000	0.281433
1068.000000	0.281305
1069.000000	0.281234
1070.000000	0.281481
1071.000000	0.282442
1072.000000	0.282787
1073.000000	0.283073
1074.000000	0.283419
1075.000000	0.283273
1076.000000	0.283314
1077.000000	0.283609
1078.000000	0.283742
1079.000000	0.284175
1080.000000	0.284923
1081.000000	0.285279
1082.000000	0.285879
1083.000000	0.286107
1084.000000	0.285603
1085.000000	0.285811
1086.000000	0.286592
1087.000000	0.286740
1088.000000	0.286710
1089.000000	0.286788
1090.000000	0.286457
1091.000000	0.286046
1092.000000	0.286316
1093.000000	0.287084
1094.000000	0.287420
1095.000000	0.287626
1096.000000	0.288036
1097.000000	0.288418
1098.000000	0.288821
1099.000000	0.289556
1100.000000	0.289844
1101.000000	0.289750
1102.000000	0.289789
1103.000000	0.289526
1104.000000	0.289544
1105.000000	0.289754
1106.000000	0.289952
1107.000000	0.290258
1108.000000	0.290472
1109.000000	0.290834
1110.000000	0.290857
1111.000000	0.291084
1112.000000	0.291253
1113.000000	0.291556
1114.000000	0.292088
1115.000000	0.292302
1116.000000	0.292331
1117.000000	0.292594
1118.000000	0.292863
1119.000000	0.292976
1120.000000	0.293249
1121.000000	0.293351
1122.000000	0.293124
1123.000000	0.293326
1124.000000	0.293620
1125.000000	0.293798
1126.000000	0.293900
1127.000000	0.294043
1128.000000	0.294167
1129.000000	0.294192
1130.000000	0.294408
1131.000000	0.294807
1132.000000	0.295023
1133.000000	0.295387
1134.000000	0.295462
1135.000000	0.295217
1136.000000	0.295191
1137.000000	0.295032
1138.000000	0.295015
1139.000000	0.295301
1140.000000	0.295501
1141.000000	0.295645
1142.000000	0.295801
1143.000000	0.295946
1144.000000	0.296105
1145.000000	0.296152
1146.000000	0.295948
1147.000000	0.296043
1148.000000	0.296101
1149.000000	0.296183
1150.000000	0.296418
1151.000000	0.296620
1152.000000	0.296712
1153.000000	0.296857
1154.000000	0.297167
1155.000000	0.297200
1156.000000	0.296996
1157.000000	0.296933
1158.000000	0.296725
1159.000000	0.296652
1160.000000	0.296683
1161.000000	0.296729
1162.000000	0.296966
1163.000000	0.297164
1164.000000	0.297097
1165.000000	0.297013
1166.000000	0.297010
1167.000000	0.296799
1168.000000	0.296789
1169.000000	0.297010
1170.000000	0.297172
1171.000000	0.297442
1172.000000	0.297538
1173.000000	0.297625
1174.000000	0.297567
1175.000000	0.297122
1176.000000	0.296995
1177.000000	0.297041
1178.000000	0.297079
1179.000000	0.297375
1180.000000	0.297419
1181.000000	0.297430
1182.000000	0.297306
1183.000000	0.297291
1184.000000	0.297402
1185.000000	0.297454
1186.000000	0.297631
1187.000000	0.297643
1188.000000	0.297497
1189.000000	0.297439
1190.000000	0.297447
1191.000000	0.297452
1192.000000	0.297593
1193.000000	0.297715
1194.000000	0.297629
1195.000000	0.297696
1196.000000	0.297823
1197.000000	0.297878
1198.000000	0.298062
1199.000000	0.298134
1200.000000	0.298084
1201.000000	0.297993
1202.000000	0.297891
1203.000000	0.297816
1204.000000	0.297698
1205.000000	0.297701
1206.000000	0.297647
1207.000000	0.297650
1208.000000	0.297649
1209.000000	0.297771
1210.000000	0.297739
1211.000000	0.297656
1212.000000	0.297632
1213.000000	0.297542
1214.000000	0.297542
1215.000000	0.297653
1216.000000	0.297686
1217.000000	0.297652
1218.000000	0.297662
1219.000000	0.297722
1220.000000	0.297754
1221.000000	0.297817
1222.000000	0.297856
1223.000000	0.297863
1224.000000	0.297898
1225.000000	0.297952
1226.000000	0.298055
1227.000000	0.297998
1228.000000	0.298003
1229.000000	0.298013
1230.000000	0.298002
1231.000000	0.297889
1232.000000	0.297872
1233.000000	0.297916
1234.000000	0.297881
1235.000000	0.297864
1236.000000	0.297867
1237.000000	0.297867
1238.000000	0.297758
1239.000000	0.297711
1240.000000	0.297698
1241.000000	0.297681
1242.000000	0.297848
1243.000000	0.297834
1244.000000	0.297659
1245.000000	0.297707
1246.000000	0.297647
1247.000000	0.297595
1248.000000	0.297810
1249.000000	0.297950
1250.000000	0.297935
1251.000000	0.298035
1252.000000	0.298110
1253.000000	0.298193
1254.000000	0.298230
1255.000000	0.298325
1256.000000	0.298319
1257.000000	0.298188
1258.000000	0.298191
1259.000000	0.298185
1260.000000	0.298179
1261.000000	0.298124
1262.000000	0.298131
1263.000000	0.298212
1264.000000	0.298168
1265.000000	0.298169
1266.000000	0.298297
1267.000000	0.298393
1268.000000	0.298316
1269.000000	0.298253
1270.000000	0.298285
1271.000000	0.298275
1272.000000	0.298341
1273.000000	0.298451
1274.000000	0.298499
1275.000000	0.298478
1276.000000	0.298376
1277.000000	0.298390
1278.000000	0.298290
1279.000000	0.298302
1280.000000	0.298393
1281.000000	0.298375
1282.000000	0.298390
1283.000000	0.298457
1284.000000	0.298444
1285.000000	0.298417
1286.000000	0.298380
1287.000000	0.298341
1288.000000	0.298431
1289.000000	0.298385
1290.000000	0.298286
1291.000000	0.298320
1292.000000	0.298232
1293.000000	0.298194
1294.000000	0.298320
1295.000000	0.298359
1296.000000	0.298222
1297.000000	0.298121
1298.000000	0.298219
1299.000000	0.298259
1300.000000	0.298267
1301.000000	0.298351
1302.000000	0.298283
1303.000000	0.298056
1304.000000	0.297999
1305.000000	0.298144
1306.000000	0.298092
1307.000000	0.298111
1308.000000	0.298109
1309.000000	0.297893
1310.000000	0.297853
1311.000000	0.297985
1312.000000	0.297951
1313.000000	0.297907
1314.000000	0.298018
1315.000000	0.298030
1316.000000	0.297975
1317.000000	0.298062
1318.000000	0.298188
1319.000000	0.298160
1320.000000	0.298199
1321.000000	0.298068
1322.000000	0.297855
1323.000000	0.297925
1324.000000	0.298003
1325.000000	0.297953
1326.000000	0.297890
1327.000000	0.297763
1328.000000	0.297711
1329.000000	0.297624
1330.000000	0.297653
1331.000000	0.297656
1332.000000	0.297701
1333.000000	0.297593
1334.000000	0.297460
1335.000000	0.297417
1336.000000	0.297305
1337.000000	0.297191
1338.000000	0.297082
1339.000000	0.297046
1340.000000	0.296895
1341.000000	0.296788
1342.000000	0.296859
1343.000000	0.296904
1344.000000	0.296850
1345.000000	0.296811
1346.000000	0.296695
1347.000000	0.296464
1348.000000	0.296466
1349.000000	0.296296
1350.000000	0.296226
1351.000000	0.296389
1352.000000	0.296190
1353.000000	0.295945
1354.000000	0.295994
1355.000000	0.295799
1356.000000	0.295711
1357.000000	0.295870
1358.000000	0.295821
1359.000000	0.295686
1360.000000	0.295616
1361.000000	0.295649
1362.000000	0.295564
1363.000000	0.295415
1364.000000	0.295318
1365.000000	0.295178
1366.000000	0.295075
1367.000000	0.295001
1368.000000	0.294841
1369.000000	0.294874
1370.000000	0.294773
1371.000000	0.294599
1372.000000	0.294463
1373.000000	0.294206
1374.000000	0.293984
1375.000000	0.293936
1376.000000	0.293996
1377.000000	0.293928
1378.000000	0.293927
1379.000000	0.293797
1380.000000	0.293574
1381.000000	0.293531
1382.000000	0.293342
1383.000000	0.293173
1384.000000	0.292959
1385.000000	0.292578
1386.000000	0.292218
1387.000000	0.291878
1388.000000	0.291598
1389.000000	0.291330
1390.000000	0.291254
1391.000000	0.291044
1392.000000	0.290578
1393.000000	0.290224
1394.000000	0.289927
1395.000000	0.289568
1396.000000	0.289221
1397.000000	0.288843
1398.000000	0.288370
1399.000000	0.287931
1400.000000	0.287545
1401.000000	0.287006
1402.000000	0.286418
1403.000000	0.285823
1404.000000	0.285308
1405.000000	0.284806
1406.000000	0.284458
1407.000000	0.284119
1408.000000	0.283687
1409.000000	0.283284
1410.000000	0.282865
1411.000000	0.282428
1412.000000	0.281909
1413.000000	0.281361
1414.000000	0.280898
1415.000000	0.280456
1416.000000	0.279947
1417.000000	0.279575
1418.000000	0.279192
1419.000000	0.278660
1420.000000	0.278116
1421.000000	0.277699
1422.000000	0.277153
1423.000000	0.276733
1424.000000	0.276456
1425.000000	0.276115
1426.000000	0.275811
1427.000000	0.275515
1428.000000	0.275098
1429.000000	0.274716
1430.000000	0.274363
1431.000000	0.274039
1432.000000	0.273727
1433.000000	0.273475
1434.000000	0.273196
1435.000000	0.272990
1436.000000	0.272794
1437.000000	0.272626
1438.000000	0.272401
1439.000000	0.272209
1440.000000	0.272004
1441.000000	0.271749
1442.000000	0.271538
1443.000000	0.271274
1444.000000	0.271099
1445.000000	0.270983
1446.000000	0.270882
1447.000000	0.270799
1448.000000	0.270649
1449.000000	0.270467
1450.000000	0.270394
1451.000000	0.270344
1452.000000	0.270174
1453.000000	0.269918
1454.000000	0.269609
1455.000000	0.269443
1456.000000	0.269515
1457.000000	0.269610
1458.000000	0.269606
1459.000000	0.269494
1460.000000	0.269314
1461.000000	0.269188
1462.000000	0.269199
1463.000000	0.269195
1464.000000	0.269197
1465.000000	0.269227
1466.000000	0.269176
1467.000000	0.269285
1468.000000	0.269421
1469.000000	0.269439
1470.000000	0.269432
1471.000000	0.269307
1472.000000	0.269214
1473.000000	0.269407
1474.000000	0.269474
1475.000000	0.269513
1476.000000	0.269630
1477.000000	0.269603
1478.000000	0.269669
1479.000000	0.269923
1480.000000	0.270114
1481.000000	0.270226
1482.000000	0.270308
1483.000000	0.270473
1484.000000	0.270616
1485.000000	0.270764
1486.000000	0.270964
1487.000000	0.271119
1488.000000	0.271214
1489.000000	0.271397
1490.000000	0.271516
1491.000000	0.271741
1492.000000	0.271986
1493.000000	0.272262
1494.000000	0.272667
1495.000000	0.272855
1496.000000	0.272899
1497.000000	0.273042
1498.000000	0.273144
1499.000000	0.273194
1500.000000	0.273414
1501.000000	0.273601
1502.000000	0.273701
1503.000000	0.273858
1504.000000	0.274103
1505.000000	0.274323
1506.000000	0.274459
1507.000000	0.274637
1508.000000	0.274767
1509.000000	0.274874
1510.000000	0.275049
1511.000000	0.275170
1512.000000	0.275188
1513.000000	0.275190
1514.000000	0.275327
1515.000000	0.275436
1516.000000	0.275565
1517.000000	0.275662
1518.000000	0.275574
1519.000000	0.275451
1520.000000	0.275404
1521.000000	0.275375
1522.000000	0.275507
1523.000000	0.275702
1524.000000	0.275766
1525.000000	0.275903
1526.000000	0.275945
1527.000000	0.275837
1528.000000	0.275938
1529.000000	0.276094
1530.000000	0.276165
1531.000000	0.276323
1532.000000	0.276264
1533.000000	0.276123
1534.000000	0.276175
1535.000000	0.276220
1536.000000	0.276321
1537.000000	0.276478
1538.000000	0.276409
1539.000000	0.276303
1540.000000	0.276377
1541.000000	0.276453
1542.000000	0.276508
1543.000000	0.276641
1544.000000	0.276710
1545.000000	0.276710
1546.000000	0.276710
1547.000000	0.276756
1548.000000	0.276890
1549.000000	0.277011
1550.000000	0.277103
1551.000000	0.277152
1552.000000	0.277074
1553.000000	0.276955
1554.000000	0.276819
1555.000000	0.276726
1556.000000	0.276786
1557.000000	0.276818
1558.000000	0.276858
1559.000000	0.276978
1560.000000	0.276955
1561.000000	0.276839
1562.000000	0.276800
1563.000000	0.276748
1564.000000	0.276771
1565.000000	0.276876
1566.000000	0.276830
1567.000000	0.276853
1568.000000	0.276900
1569.000000	0.276962
1570.000000	0.276931
1571.000000	0.276906
1572.000000	0.276813
1573.000000	0.276581
1574.000000	0.276443
1575.000000	0.276350
1576.000000	0.276295
1577.000000	0.276247
1578.000000	0.276238
1579.000000	0.276351
1580.000000	0.276378
1581.000000	0.276416
1582.000000	0.276484
1583.000000	0.276573
1584.000000	0.276613
1585.000000	0.276726
1586.000000	0.276826
1587.000000	0.276880
1588.000000	0.276928
1589.000000	0.277041
1590.000000	0.277026
1591.000000	0.276931
1592.000000	0.276914
1593.000000	0.276877
1594.000000	0.276850
1595.000000	0.276915
1596.000000	0.276913
1597.000000	0.276935
1598.000000	0.276909
1599.000000	0.276834
1600.000000	0.276802
1601.000000	0.276810
1602.000000	0.276826
1603.000000	0.276965
1604.000000	0.276983
1605.000000	0.276954
1606.000000	0.276925
1607.000000	0.276881
1608.000000	0.276843
1609.000000	0.276877
1610.000000	0.276853
1611.000000	0.276788
1612.000000	0.276787
1613.000000	0.276896
1614.000000	0.276923
1615.000000	0.277016
1616.000000	0.277104
1617.000000	0.277118
1618.000000	0.277117
1619.000000	0.277077
1620.000000	0.277050
1621.000000	0.277011
1622.000000	0.277099
1623.000000	0.277259
1624.000000	0.277319
1625.000000	0.277264
1626.000000	0.277227
1627.000000	0.277140
1628.000000	0.277178
1629.000000	0.277267
1630.000000	0.277376
1631.000000	0.277470
1632.000000	0.277564
1633.000000	0.277715
1634.000000	0.277838
1635.000000	0.277989
1636.000000	0.278107
1637.000000	0.278254
1638.000000	0.278318
1639.000000	0.278391
1640.000000	0.278433
1641.000000	0.278451
1642.000000	0.278472
1643.000000	0.278507
1644.000000	0.278543
1645.000000	0.278581
1646.000000	0.278567
1647.000000	0.278582
1648.000000	0.278550
1649.000000	0.278485
1650.000000	0.278531
1651.000000	0.278663
1652.000000	0.278818
1653.000000	0.278988
1654.000000	0.279193
1655.000000	0.279448
1656.000000	0.279476
1657.000000	0.279446
1658.000000	0.279514
1659.000000	0.279585
1660.000000	0.279700
1661.000000	0.279901
1662.000000	0.279954
1663.000000	0.279838
1664.000000	0.279848
1665.000000	0.279882
1666.000000	0.279974
1667.000000	0.280053
1668.000000	0.280136
1669.000000	0.280174
1670.000000	0.280267
1671.000000	0.280537
1672.000000	0.280678
1673.000000	0.280755
1674.000000	0.280826
1675.000000	0.280976
1676.000000	0.280961
1677.000000	0.281021
1678.000000	0.281114
1679.000000	0.281106
1680.000000	0.281120
1681.000000	0.281163
1682.000000	0.281175
1683.000000	0.281059
1684.000000	0.280970
1685.000000	0.281185
1686.000000	0.281384
1687.000000	0.281482
1688.000000	0.281660
1689.000000	0.281687
1690.000000	0.281533
1691.000000	0.281595
1692.000000	0.281626
1693.000000	0.281582
1694.000000	0.281641
1695.000000	0.281717
1696.000000	0.281569
1697.000000	0.281525
1698.000000	0.281512
1699.000000	0.281517
1700.000000	0.281704
1701.000000	0.281829
1702.000000	0.281664
1703.000000	0.281627
1704.000000	0.281746
1705.000000	0.281755
1706.000000	0.281778
1707.000000	0.281839
1708.000000	0.281793
1709.000000	0.281795
1710.000000	0.282033
1711.000000	0.282141
1712.000000	0.282187
1713.000000	0.282243
1714.000000	0.282307
1715.000000	0.282346
1716.000000	0.282342
1717.000000	0.282426
1718.000000	0.282542
1719.000000	0.282577
1720.000000	0.282726
1721.000000	0.282758
1722.000000	0.282625
1723.000000	0.282593
1724.000000	0.282618
1725.000000	0.282635
1726.000000	0.282573
1727.000000	0.282573
1728.000000	0.282592
1729.000000	0.282464
1730.000000	0.282377
1731.000000	0.282341
1732.000000	0.282232
1733.000000	0.282269
1734.000000	0.282309
1735.000000	0.282404
1736.000000	0.282534
1737.000000	0.282610
1738.000000	0.282749
1739.000000	0.282844
1740.000000	0.282873
1741.000000	0.282860
1742.000000	0.282832
1743.000000	0.282912
1744.000000	0.282922
1745.000000	0.283052
1746.000000	0.283355
1747.000000	0.283408
1748.000000	0.283415
1749.000000	0.283340
1750.000000	0.283218
1751.000000	0.283105
1752.000000	0.283153
1753.000000	0.283181
1754.000000	0.283134
1755.000000	0.283037
1756.000000	0.283013
1757.000000	0.282964
1758.000000	0.282925
1759.000000	0.282963
1760.000000	0.282993
1761.000000	0.282943
1762.000000	0.282897
1763.000000	0.282895
1764.000000	0.282924
1765.000000	0.282855
1766.000000	0.282924
1767.000000	0.283087
1768.000000	0.283156
1769.000000	0.283332
1770.000000	0.283468
1771.000000	0.283466
1772.000000	0.283590
1773.000000	0.283736
1774.000000	0.283870
1775.000000	0.284190
1776.000000	0.284243
1777.000000	0.284108
1778.000000	0.284018
1779.000000	0.283706
1780.000000	0.283738
1781.000000	0.283945
1782.000000	0.284006
1783.000000	0.284243
1784.000000	0.284226
1785.000000	0.284064
1786.000000	0.284169
1787.000000	0.284229
1788.000000	0.284352
1789.000000	0.284445
1790.000000	0.284570
1791.000000	0.284516
1792.000000	0.284330
1793.000000	0.284285
1794.000000	0.284215
1795.000000	0.284165
1796.000000	0.284271
1797.000000	0.284298
1798.000000	0.284146
1799.000000	0.284178
1800.000000	0.284465
1801.000000	0.283988
1802.000000	0.284196
1803.000000	0.284605
1804.000000	0.284939
1805.000000	0.285528
1806.000000	0.285478
1807.000000	0.285137
1808.000000	0.284911
1809.000000	0.283965
1810.000000	0.283528
1811.000000	0.283550
1812.000000	0.284222
1813.000000	0.284404
1814.000000	0.284632
1815.000000	0.285030
1816.000000	0.285343
1817.000000	0.285612
1818.000000	0.286362
1819.000000	0.286773
1820.000000	0.287009
1821.000000	0.287484
1822.000000	0.287553
1823.000000	0.287482
1824.000000	0.287343
1825.000000	0.286684
1826.000000	0.286317
1827.000000	0.285940
1828.000000	0.285503
1829.000000	0.285299
1830.000000	0.285214
1831.000000	0.285052
1832.000000	0.284802
1833.000000	0.284906
1834.000000	0.285065
1835.000000	0.285476
1836.000000	0.286748
1837.000000	0.287045
1838.000000	0.287086
1839.000000	0.286502
1840.000000	0.285535
1841.000000	0.284659
1842.000000	0.284275
1843.000000	0.284245
1844.000000	0.284142
1845.000000	0.284241
1846.000000	0.284530
1847.000000	0.284788
1848.000000	0.284924
1849.000000	0.286133
1850.000000	0.285962
1851.000000	0.285703
1852.000000	0.284927
1853.000000	0.284703
1854.000000	0.284143
1855.000000	0.283673
1856.000000	0.283405
1857.000000	0.283175
1858.000000	0.282103
1859.000000	0.281416
1860.000000	0.281171
1861.000000	0.280610
1862.000000	0.280090
1863.000000	0.279619
1864.000000	0.279280
1865.000000	0.279140
1866.000000	0.278635
1867.000000	0.277964
1868.000000	0.277792
1869.000000	0.276873
1870.000000	0.276070
1871.000000	0.275568
1872.000000	0.274460
1873.000000	0.273689
1874.000000	0.272908
1875.000000	0.272170
1876.000000	0.271300
1877.000000	0.270577
1878.000000	0.269362
1879.000000	0.267942
1880.000000	0.266639
1881.000000	0.264736
1882.000000	0.263525
1883.000000	0.262467
1884.000000	0.261361
1885.000000	0.260605
1886.000000	0.259425
1887.000000	0.258249
1888.000000	0.256060
1889.000000	0.253885
1890.000000	0.251794
1891.000000	0.249555
1892.000000	0.247754
1893.000000	0.245851
1894.000000	0.243718
1895.000000	0.241578
1896.000000	0.239486
1897.000000	0.237301
1898.000000	0.235375
1899.000000	0.233606
1900.000000	0.232243
1901.000000	0.231229
1902.000000	0.229668
1903.000000	0.227929
1904.000000	0.226300
1905.000000	0.224146
1906.000000	0.222064
1907.000000	0.219755
1908.000000	0.218591
1909.000000	0.217154
1910.000000	0.215346
1911.000000	0.214799
1912.000000	0.213685
1913.000000	0.212249
1914.000000	0.211704
1915.000000	0.210857
1916.000000	0.209797
1917.000000	0.209020
1918.000000	0.208681
1919.000000	0.208083
1920.000000	0.207005
1921.000000	0.206360
1922.000000	0.205524
1923.000000	0.204815
1924.000000	0.204592
1925.000000	0.204518
1926.000000	0.204441
1927.000000	0.204590
1928.000000	0.204729
1929.000000	0.205092
1930.000000	0.205200
1931.000000	0.205637
1932.000000	0.205908
1933.000000	0.205603
1934.000000	0.205496
1935.000000	0.205344
1936.000000	0.204926
1937.000000	0.204914
1938.000000	0.205099
1939.000000	0.205194
1940.000000	0.205330
1941.000000	0.205150
1942.000000	0.204902
1943.000000	0.205070
1944.000000	0.204973
1945.000000	0.205057
1946.000000	0.205253
1947.000000	0.204906
1948.000000	0.204453
1949.000000	0.204043
1950.000000	0.204153
1951.000000	0.204176
1952.000000	0.204548
1953.000000	0.204476
1954.000000	0.204183
1955.000000	0.203567
1956.000000	0.202554
1957.000000	0.201433
1958.000000	0.201029
1959.000000	0.200849
1960.000000	0.200601
1961.000000	0.200427
1962.000000	0.200433
1963.000000	0.200501
1964.000000	0.200767
1965.000000	0.201027
1966.000000	0.201521
1967.000000	0.201438
1968.000000	0.200766
1969.000000	0.200180
1970.000000	0.199672
1971.000000	0.199402
1972.000000	0.199587
1973.000000	0.199817
1974.000000	0.200650
1975.000000	0.200943
1976.000000	0.201212
1977.000000	0.201323
1978.000000	0.201220
1979.000000	0.200801
1980.000000	0.200894
1981.000000	0.201334
1982.000000	0.201299
1983.000000	0.201694
1984.000000	0.202178
1985.000000	0.202605
1986.000000	0.203064
1987.000000	0.203813
1988.000000	0.204800
1989.000000	0.205335
1990.000000	0.205882
1991.000000	0.205659
1992.000000	0.205473
1993.000000	0.205308
1994.000000	0.205185
1995.000000	0.206003
1996.000000	0.206913
1997.000000	0.207434
1998.000000	0.207726
1999.000000	0.208217
2000.000000	0.208693
2001.000000	0.208993
2002.000000	0.209487
2003.000000	0.210134
2004.000000	0.209914
2005.000000	0.210319
2006.000000	0.210672
2007.000000	0.210978
2008.000000	0.211835
2009.000000	0.213364
2010.000000	0.214196
2011.000000	0.215165
2012.000000	0.215777
2013.000000	0.215790
2014.000000	0.216180
2015.000000	0.216426
2016.000000	0.216607
2017.000000	0.217396
2018.000000	0.217372
2019.000000	0.217721
2020.000000	0.218179
2021.000000	0.218739
2022.000000	0.219709
2023.000000	0.220480
2024.000000	0.221267
2025.000000	0.221914
2026.000000	0.222620
2027.000000	0.222257
2028.000000	0.222358
2029.000000	0.222897
2030.000000	0.223470
2031.000000	0.224097
2032.000000	0.224780
2033.000000	0.225548
2034.000000	0.225961
2035.000000	0.226227
2036.000000	0.226774
2037.000000	0.227235
2038.000000	0.227693
2039.000000	0.228711
2040.000000	0.228952
2041.000000	0.228936
2042.000000	0.229555
2043.000000	0.229474
2044.000000	0.229496
2045.000000	0.230242
2046.000000	0.230508
2047.000000	0.230833
2048.000000	0.231670
2049.000000	0.232082
2050.000000	0.231429
2051.000000	0.231479
2052.000000	0.231664
2053.000000	0.231884
2054.000000	0.232336
2055.000000	0.233402
2056.000000	0.234129
2057.000000	0.234648
2058.000000	0.235209
2059.000000	0.235400
2060.000000	0.235342
2061.000000	0.234727
2062.000000	0.234807
2063.000000	0.235019
2064.000000	0.235138
2065.000000	0.236248
2066.000000	0.236269
2067.000000	0.235593
2068.000000	0.235060
2069.000000	0.235680
2070.000000	0.236323
2071.000000	0.237355
2072.000000	0.238661
2073.000000	0.239046
2074.000000	0.239344
2075.000000	0.239457
2076.000000	0.239442
2077.000000	0.239419
2078.000000	0.238769
2079.000000	0.238969
2080.000000	0.239712
2081.000000	0.240421
2082.000000	0.241856
2083.000000	0.242556
2084.000000	0.242693
2085.000000	0.243411
2086.000000	0.243715
2087.000000	0.243448
2088.000000	0.242719
2089.000000	0.242278
2090.000000	0.242495
2091.000000	0.242952
2092.000000	0.243535
2093.000000	0.245322
2094.000000	0.245986
2095.000000	0.245754
2096.000000	0.246187
2097.000000	0.246415
2098.000000	0.247106
2099.000000	0.248037
2100.000000	0.249179
2101.000000	0.250295
2102.000000	0.250840
2103.000000	0.250581
2104.000000	0.250403
2105.000000	0.250613
2106.000000	0.250517
2107.000000	0.250876
2108.000000	0.252319
2109.000000	0.252747
2110.000000	0.252477
2111.000000	0.252479
2112.000000	0.252069
2113.000000	0.251744
2114.000000	0.251946
2115.000000	0.252228
2116.000000	0.252705
2117.000000	0.252759
2118.000000	0.252870
2119.000000	0.253076
2120.000000	0.253065
2121.000000	0.253052
2122.000000	0.252898
2123.000000	0.252158
2124.000000	0.252163
2125.000000	0.252610
2126.000000	0.252738
2127.000000	0.253142
2128.000000	0.253630
2129.000000	0.253919
2130.000000	0.254219
2131.000000	0.254703
2132.000000	0.254480
2133.000000	0.254502
2134.000000	0.254650
2135.000000	0.255444
2136.000000	0.256933
2137.000000	0.257384
2138.000000	0.257728
2139.000000	0.257496
2140.000000	0.256112
2141.000000	0.255570
2142.000000	0.254757
2143.000000	0.254374
2144.000000	0.254863
2145.000000	0.255032
2146.000000	0.255209
2147.000000	0.256019
2148.000000	0.256418
2149.000000	0.256600
2150.000000	0.256449
2151.000000	0.256992
2152.000000	0.257768
2153.000000	0.257841
2154.000000	0.258155
2155.000000	0.258862
2156.000000	0.258663
2157.000000	0.257857
2158.000000	0.257429
2159.000000	0.256596
2160.000000	0.256253
2161.000000	0.256216
2162.000000	0.256394
2163.000000	0.256569
2164.000000	0.256849
2165.000000	0.257546
2166.000000	0.258265
2167.000000	0.258476
2168.000000	0.258862
2169.000000	0.258945
2170.000000	0.258729
2171.000000	0.258575
2172.000000	0.258198
2173.000000	0.258187
2174.000000	0.258327
2175.000000	0.258377
2176.000000	0.258715
2177.000000	0.258770
2178.000000	0.258644
2179.000000	0.258520
2180.000000	0.258327
2181.000000	0.258244
2182.000000	0.257434
2183.000000	0.257315
2184.000000	0.256444
2185.000000	0.254945
2186.000000	0.254604
2187.000000	0.253679
2188.000000	0.252781
2189.000000	0.253344
2190.000000	0.253582
2191.000000	0.254240
2192.000000	0.254525
2193.000000	0.255394
2194.000000	0.255346
2195.000000	0.253670
2196.000000	0.253676
2197.000000	0.255115
2198.000000	0.255132
2199.000000	0.255303
2200.000000	0.255544
2201.000000	0.254465
2202.000000	0.254030
2203.000000	0.254402
2204.000000	0.254387
2205.000000	0.253954
2206.000000	0.251340
2207.000000	0.249934
2208.000000	0.251045
2209.000000	0.252079
2210.000000	0.254043
2211.000000	0.256458
2212.000000	0.257524
2213.000000	0.257817
2214.000000	0.257151
2215.000000	0.256453
2216.000000	0.254599
2217.000000	0.253892
2218.000000	0.253908
2219.000000	0.253518
2220.000000	0.252088
2221.000000	0.252537
2222.000000	0.254542
2223.000000	0.254986
2224.000000	0.256116
2225.000000	0.256744
2226.000000	0.255851
2227.000000	0.254993
2228.000000	0.256533
2229.000000	0.259041
2230.000000	0.258541
2231.000000	0.257953
2232.000000	0.256205
2233.000000	0.253225
2234.000000	0.252271
2235.000000	0.252127
2236.000000	0.251561
2237.000000	0.250756
2238.000000	0.251205
2239.000000	0.251617
2240.000000	0.253665
2241.000000	0.258558
2242.000000	0.260420
2243.000000	0.262607
2244.000000	0.262533
2245.000000	0.258340
2246.000000	0.257838
2247.000000	0.258596
2248.000000	0.258728
2249.000000	0.260455
2250.000000	0.260931
2251.000000	0.260969
2252.000000	0.259023
2253.000000	0.257486
2254.000000	0.256941
2255.000000	0.256849
2256.000000	0.257617
2257.000000	0.258984
2258.000000	0.259202
2259.000000	0.256871
2260.000000	0.255051
2261.000000	0.254764
2262.000000	0.255213
2263.000000	0.255583
2264.000000	0.258013
2265.000000	0.258153
2266.000000	0.255583
2267.000000	0.255949
2268.000000	0.258075
2269.000000	0.258169
2270.000000	0.258875
2271.000000	0.258681
2272.000000	0.256517
2273.000000	0.255311
2274.000000	0.254377
2275.000000	0.253737
2276.000000	0.253130
2277.000000	0.251902
2278.000000	0.252465
2279.000000	0.254381
2280.000000	0.256673
2281.000000	0.257561
2282.000000	0.256175
2283.000000	0.254611
2284.000000	0.254771
2285.000000	0.253632
2286.000000	0.251510
2287.000000	0.249919
2288.000000	0.245155
2289.000000	0.242058
2290.000000	0.243194
2291.000000	0.243701
2292.000000	0.245730
2293.000000	0.246389
2294.000000	0.246013
2295.000000	0.244209
2296.000000	0.243063
2297.000000	0.240694
2298.000000	0.240407
2299.000000	0.240596
2300.000000	0.240694
2301.000000	0.242547
2302.000000	0.242174
2303.000000	0.240390
2304.000000	0.240922
2305.000000	0.241572
2306.000000	0.242446
2307.000000	0.245799
2308.000000	0.245543
2309.000000	0.244095
2310.000000	0.244839
2311.000000	0.243966
2312.000000	0.240475
2313.000000	0.238976
2314.000000	0.236177
2315.000000	0.235069
2316.000000	0.238000
2317.000000	0.238676
2318.000000	0.239434
2319.000000	0.239195
2320.000000	0.237790
2321.000000	0.237028
2322.000000	0.236304
2323.000000	0.235613
2324.000000	0.236175
2325.000000	0.238145
2326.000000	0.238028
2327.000000	0.239519
2328.000000	0.239351
2329.000000	0.238167
2330.000000	0.239581
2331.000000	0.238593
2332.000000	0.237345
2333.000000	0.235407
2334.000000	0.233611
2335.000000	0.232089
2336.000000	0.229623
2337.000000	0.228959
2338.000000	0.228806
2339.000000	0.228850
2340.000000	0.231724
2341.000000	0.231146
2342.000000	0.228940
2343.000000	0.228288
2344.000000	0.224670
2345.000000	0.223667
2346.000000	0.226780
2347.000000	0.226049
2348.000000	0.222527
2349.000000	0.224810
2350.000000	0.224017
2351.000000	0.222652
2352.000000	0.222717
2353.000000	0.218894
2354.000000	0.216980
2355.000000	0.216495
2356.000000	0.217958
2357.000000	0.221540
2358.000000	0.223762
2359.000000	0.224144
2360.000000	0.224912
2361.000000	0.225466
2362.000000	0.220907
2363.000000	0.217524
2364.000000	0.216694
2365.000000	0.217608
2366.000000	0.221210
2367.000000	0.224893
2368.000000	0.226405
2369.000000	0.224319
2370.000000	0.220615
2371.000000	0.215657
2372.000000	0.208863
2373.000000	0.204226
2374.000000	0.205875
2375.000000	0.209357
2376.000000	0.214316
2377.000000	0.215019
2378.000000	0.211341
2379.000000	0.209100
2380.000000	0.204177
2381.000000	0.204673
2382.000000	0.205634
2383.000000	0.204691
2384.000000	0.208091
2385.000000	0.206922
2386.000000	0.204244
2387.000000	0.201264
2388.000000	0.200301
2389.000000	0.199826
2390.000000	0.197996
2391.000000	0.202655
2392.000000	0.203448
2393.000000	0.205934
2394.000000	0.213752
2395.000000	0.213740
2396.000000	0.210625
2397.000000	0.210769
2398.000000	0.209281
2399.000000	0.209478
2400.000000	0.217017
2401.000000	0.218788
2402.000000	0.216795
2403.000000	0.216832
2404.000000	0.215455
2405.000000	0.217293
2406.000000	0.221799
2407.000000	0.222385
2408.000000	0.212768
2409.000000	0.204714
2410.000000	0.197067
2411.000000	0.189896
2412.000000	0.197781
2413.000000	0.198620
2414.000000	0.195141
2415.000000	0.197593
2416.000000	0.191685
2417.000000	0.185166
2418.000000	0.182834
2419.000000	0.183659
2420.000000	0.178627
2421.000000	0.176606
2422.000000	0.179474
2423.000000	0.176188
2424.000000	0.180341
2425.000000	0.186151
2426.000000	0.194098
2427.000000	0.193034
2428.000000	0.182546
2429.000000	0.179289
2430.000000	0.167851
2431.000000	0.175143
2432.000000	0.202879
2433.000000	0.215470
2434.000000	0.230378
2435.000000	0.243516
2436.000000	0.232460
2437.000000	0.222096
2438.000000	0.212725
2439.000000	0.195775
2440.000000	0.187592
2441.000000	0.182449
2442.000000	0.182198
2443.000000	0.181131
2444.000000	0.175944
2445.000000	0.177363
2446.000000	0.173925
2447.000000	0.168239
2448.000000	0.166551
2449.000000	0.163360
2450.000000	0.162126
2451.000000	0.161210
2452.000000	0.164423
2453.000000	0.177897
2454.000000	0.185817
2455.000000	0.188979
2456.000000	0.199643
2457.000000	0.199806
2458.000000	0.187660
2459.000000	0.177013
2460.000000	0.160271
2461.000000	0.140274
2462.000000	0.146321
2463.000000	0.163319
2464.000000	0.179598
2465.000000	0.202999
2466.000000	0.212622
2467.000000	0.213128
2468.000000	0.203865
2469.000000	0.186875
2470.000000	0.173796
2471.000000	0.155275
2472.000000	0.150644
2473.000000	0.162668
2474.000000	0.172262
2475.000000	0.191495
2476.000000	0.191243
2477.000000	0.170550
2478.000000	0.171904
2479.000000	0.197091
2480.000000	0.236192
2481.000000	0.270880
2482.000000	0.256672
2483.000000	0.190523
2484.000000	0.147637
2485.000000	0.131768
2486.000000	0.129321
2487.000000	0.163605
2488.000000	0.200255
2489.000000	0.220674
2490.000000	0.261288
2491.000000	0.265968
2492.000000	0.260964
2493.000000	0.241411
2494.000000	0.231107
2495.000000	0.225864
2496.000000	0.224561
2497.000000	0.220127
2498.000000	0.217512
2499.000000	0.229505
2500.000000	0.217855
