# Wavelength	NAu-2-20_HEX-10_FV7-70_00002.asd.rts.txt
350.000000	0.136276
351.000000	0.144007
352.000000	0.143975
353.000000	0.141540
354.000000	0.141941
355.000000	0.145594
356.000000	0.140161
357.000000	0.133529
358.000000	0.146892
359.000000	0.141285
360.000000	0.135092
361.000000	0.151545
362.000000	0.153946
363.000000	0.148751
364.000000	0.144558
365.000000	0.147639
366.000000	0.152237
367.000000	0.153887
368.000000	0.149044
369.000000	0.144217
370.000000	0.142618
371.000000	0.145562
372.000000	0.149892
373.000000	0.150604
374.000000	0.147570
375.000000	0.152605
376.000000	0.153875
377.000000	0.149095
378.000000	0.144612
379.000000	0.144675
380.000000	0.147242
381.000000	0.148722
382.000000	0.149109
383.000000	0.152007
384.000000	0.157795
385.000000	0.156439
386.000000	0.154892
387.000000	0.155493
388.000000	0.155561
389.000000	0.157016
390.000000	0.158521
391.000000	0.157686
392.000000	0.155296
393.000000	0.156084
394.000000	0.161199
395.000000	0.159168
396.000000	0.156353
397.000000	0.155856
398.000000	0.156810
399.000000	0.158131
400.000000	0.159012
401.000000	0.158758
402.000000	0.158130
403.000000	0.158161
404.000000	0.159471
405.000000	0.160740
406.000000	0.161280
407.000000	0.161262
408.000000	0.162144
409.000000	0.162413
410.000000	0.162266
411.000000	0.162810
412.000000	0.163206
413.000000	0.163377
414.000000	0.163460
415.000000	0.163682
416.000000	0.164056
417.000000	0.164493
418.000000	0.164737
419.000000	0.164726
420.000000	0.164717
421.000000	0.165279
422.000000	0.165725
423.000000	0.166003
424.000000	0.166319
425.000000	0.166762
426.000000	0.167076
427.000000	0.167174
428.000000	0.167692
429.000000	0.168106
430.000000	0.168300
431.000000	0.168742
432.000000	0.168413
433.000000	0.167913
434.000000	0.168607
435.000000	0.169303
436.000000	0.169659
437.000000	0.169625
438.000000	0.169701
439.000000	0.169917
440.000000	0.170248
441.000000	0.170364
442.000000	0.170511
443.000000	0.170787
444.000000	0.171321
445.000000	0.171670
446.000000	0.171561
447.000000	0.170929
448.000000	0.171793
449.000000	0.172671
450.000000	0.172584
451.000000	0.172839
452.000000	0.173179
453.000000	0.173436
454.000000	0.173655
455.000000	0.174089
456.000000	0.174599
457.000000	0.174781
458.000000	0.175141
459.000000	0.175590
460.000000	0.175974
461.000000	0.176104
462.000000	0.176308
463.000000	0.176611
464.000000	0.176872
465.000000	0.177004
466.000000	0.177124
467.000000	0.177592
468.000000	0.177824
469.000000	0.177872
470.000000	0.178070
471.000000	0.178487
472.000000	0.178764
473.000000	0.178751
474.000000	0.178817
475.000000	0.178963
476.000000	0.179238
477.000000	0.179471
478.000000	0.179834
479.000000	0.180347
480.000000	0.180714
481.000000	0.180829
482.000000	0.180919
483.000000	0.181062
484.000000	0.181346
485.000000	0.181615
486.000000	0.181904
487.000000	0.182165
488.000000	0.182457
489.000000	0.182713
490.000000	0.182763
491.000000	0.182909
492.000000	0.183224
493.000000	0.183585
494.000000	0.183832
495.000000	0.183972
496.000000	0.184047
497.000000	0.184287
498.000000	0.184454
499.000000	0.184537
500.000000	0.184638
501.000000	0.184859
502.000000	0.185178
503.000000	0.185447
504.000000	0.185668
505.000000	0.185857
506.000000	0.186068
507.000000	0.186510
508.000000	0.186875
509.000000	0.187020
510.000000	0.187275
511.000000	0.187530
512.000000	0.187785
513.000000	0.188074
514.000000	0.188282
515.000000	0.188574
516.000000	0.189088
517.000000	0.189329
518.000000	0.189559
519.000000	0.189942
520.000000	0.190280
521.000000	0.190603
522.000000	0.190956
523.000000	0.191412
524.000000	0.191705
525.000000	0.191936
526.000000	0.192438
527.000000	0.192958
528.000000	0.193400
529.000000	0.193781
530.000000	0.194262
531.000000	0.194878
532.000000	0.195530
533.000000	0.196081
534.000000	0.196615
535.000000	0.197162
536.000000	0.197737
537.000000	0.198311
538.000000	0.198850
539.000000	0.199320
540.000000	0.199871
541.000000	0.200441
542.000000	0.200985
543.000000	0.201537
544.000000	0.202102
545.000000	0.202631
546.000000	0.203153
547.000000	0.203697
548.000000	0.204259
549.000000	0.204729
550.000000	0.205277
551.000000	0.205912
552.000000	0.206548
553.000000	0.207115
554.000000	0.207735
555.000000	0.208483
556.000000	0.209226
557.000000	0.209939
558.000000	0.210690
559.000000	0.211375
560.000000	0.212024
561.000000	0.212726
562.000000	0.213491
563.000000	0.214219
564.000000	0.214947
565.000000	0.215638
566.000000	0.216260
567.000000	0.216847
568.000000	0.217425
569.000000	0.218057
570.000000	0.218643
571.000000	0.219150
572.000000	0.219626
573.000000	0.220024
574.000000	0.220370
575.000000	0.220756
576.000000	0.221206
577.000000	0.221560
578.000000	0.221782
579.000000	0.222119
580.000000	0.222468
581.000000	0.222744
582.000000	0.222874
583.000000	0.223088
584.000000	0.223396
585.000000	0.223680
586.000000	0.223852
587.000000	0.223967
588.000000	0.224104
589.000000	0.224198
590.000000	0.224269
591.000000	0.224329
592.000000	0.224336
593.000000	0.224382
594.000000	0.224479
595.000000	0.224562
596.000000	0.224625
597.000000	0.224674
598.000000	0.224647
599.000000	0.224585
600.000000	0.224569
601.000000	0.224573
602.000000	0.224442
603.000000	0.224347
604.000000	0.224338
605.000000	0.224208
606.000000	0.224032
607.000000	0.223846
608.000000	0.223672
609.000000	0.223570
610.000000	0.223494
611.000000	0.223388
612.000000	0.223359
613.000000	0.223335
614.000000	0.223296
615.000000	0.223305
616.000000	0.223232
617.000000	0.223078
618.000000	0.223062
619.000000	0.223048
620.000000	0.222986
621.000000	0.222907
622.000000	0.222907
623.000000	0.222950
624.000000	0.222983
625.000000	0.222966
626.000000	0.223000
627.000000	0.223103
628.000000	0.223164
629.000000	0.223202
630.000000	0.223185
631.000000	0.223281
632.000000	0.223348
633.000000	0.223378
634.000000	0.223371
635.000000	0.223292
636.000000	0.223230
637.000000	0.223226
638.000000	0.223264
639.000000	0.223360
640.000000	0.223488
641.000000	0.223456
642.000000	0.223555
643.000000	0.223740
644.000000	0.223867
645.000000	0.223939
646.000000	0.224019
647.000000	0.224130
648.000000	0.224241
649.000000	0.224397
650.000000	0.224584
651.000000	0.224747
652.000000	0.224900
653.000000	0.225095
654.000000	0.225334
655.000000	0.225547
656.000000	0.225776
657.000000	0.226005
658.000000	0.226113
659.000000	0.226277
660.000000	0.226543
661.000000	0.226756
662.000000	0.226997
663.000000	0.227305
664.000000	0.227618
665.000000	0.227886
666.000000	0.228174
667.000000	0.228527
668.000000	0.228889
669.000000	0.229213
670.000000	0.229512
671.000000	0.229922
672.000000	0.230313
673.000000	0.230640
674.000000	0.230937
675.000000	0.231300
676.000000	0.231739
677.000000	0.232235
678.000000	0.232647
679.000000	0.233066
680.000000	0.233552
681.000000	0.234002
682.000000	0.234490
683.000000	0.234970
684.000000	0.235449
685.000000	0.235909
686.000000	0.236402
687.000000	0.236941
688.000000	0.237351
689.000000	0.237735
690.000000	0.238223
691.000000	0.238795
692.000000	0.239339
693.000000	0.239873
694.000000	0.240428
695.000000	0.241061
696.000000	0.241719
697.000000	0.242309
698.000000	0.242891
699.000000	0.243529
700.000000	0.244231
701.000000	0.244780
702.000000	0.245328
703.000000	0.245939
704.000000	0.246615
705.000000	0.247306
706.000000	0.247951
707.000000	0.248564
708.000000	0.249160
709.000000	0.249787
710.000000	0.250477
711.000000	0.251117
712.000000	0.251782
713.000000	0.252485
714.000000	0.253093
715.000000	0.253717
716.000000	0.254359
717.000000	0.254960
718.000000	0.255649
719.000000	0.256361
720.000000	0.257037
721.000000	0.257704
722.000000	0.258335
723.000000	0.258989
724.000000	0.259707
725.000000	0.260298
726.000000	0.260830
727.000000	0.261340
728.000000	0.261866
729.000000	0.262453
730.000000	0.263066
731.000000	0.263639
732.000000	0.264190
733.000000	0.264761
734.000000	0.265325
735.000000	0.265892
736.000000	0.266497
737.000000	0.266970
738.000000	0.267411
739.000000	0.267904
740.000000	0.268360
741.000000	0.268891
742.000000	0.269442
743.000000	0.269947
744.000000	0.270407
745.000000	0.270771
746.000000	0.271111
747.000000	0.271454
748.000000	0.271865
749.000000	0.272269
750.000000	0.272613
751.000000	0.273045
752.000000	0.273478
753.000000	0.273872
754.000000	0.274201
755.000000	0.274579
756.000000	0.274982
757.000000	0.275313
758.000000	0.275615
759.000000	0.275919
760.000000	0.276185
761.000000	0.276488
762.000000	0.276782
763.000000	0.277020
764.000000	0.277222
765.000000	0.277382
766.000000	0.277561
767.000000	0.277790
768.000000	0.277931
769.000000	0.278084
770.000000	0.278315
771.000000	0.278628
772.000000	0.278947
773.000000	0.279196
774.000000	0.279421
775.000000	0.279587
776.000000	0.279730
777.000000	0.279864
778.000000	0.279986
779.000000	0.280037
780.000000	0.280063
781.000000	0.280188
782.000000	0.280391
783.000000	0.280654
784.000000	0.280795
785.000000	0.280876
786.000000	0.280954
787.000000	0.281037
788.000000	0.281044
789.000000	0.281099
790.000000	0.281203
791.000000	0.281334
792.000000	0.281437
793.000000	0.281524
794.000000	0.281601
795.000000	0.281577
796.000000	0.281538
797.000000	0.281557
798.000000	0.281702
799.000000	0.281798
800.000000	0.281867
801.000000	0.281963
802.000000	0.281903
803.000000	0.281807
804.000000	0.281772
805.000000	0.281687
806.000000	0.281652
807.000000	0.281720
808.000000	0.281778
809.000000	0.281818
810.000000	0.281842
811.000000	0.281846
812.000000	0.281875
813.000000	0.281840
814.000000	0.281767
815.000000	0.281801
816.000000	0.281823
817.000000	0.281876
818.000000	0.281924
819.000000	0.281850
820.000000	0.281802
821.000000	0.281798
822.000000	0.281808
823.000000	0.281803
824.000000	0.281752
825.000000	0.281738
826.000000	0.281758
827.000000	0.281756
828.000000	0.281724
829.000000	0.281619
830.000000	0.281467
831.000000	0.281358
832.000000	0.281266
833.000000	0.281251
834.000000	0.281197
835.000000	0.281073
836.000000	0.281038
837.000000	0.281072
838.000000	0.281169
839.000000	0.281285
840.000000	0.281187
841.000000	0.281040
842.000000	0.280985
843.000000	0.280895
844.000000	0.280890
845.000000	0.280917
846.000000	0.280802
847.000000	0.280722
848.000000	0.280684
849.000000	0.280659
850.000000	0.280490
851.000000	0.280283
852.000000	0.280119
853.000000	0.279936
854.000000	0.279691
855.000000	0.279517
856.000000	0.279402
857.000000	0.279263
858.000000	0.279142
859.000000	0.279018
860.000000	0.278995
861.000000	0.278924
862.000000	0.278778
863.000000	0.278536
864.000000	0.278467
865.000000	0.278457
866.000000	0.278422
867.000000	0.278323
868.000000	0.278203
869.000000	0.278041
870.000000	0.277894
871.000000	0.277712
872.000000	0.277540
873.000000	0.277364
874.000000	0.277228
875.000000	0.277011
876.000000	0.276764
877.000000	0.276550
878.000000	0.276378
879.000000	0.276270
880.000000	0.276121
881.000000	0.276055
882.000000	0.275888
883.000000	0.275664
884.000000	0.275460
885.000000	0.275360
886.000000	0.275203
887.000000	0.274955
888.000000	0.274778
889.000000	0.274601
890.000000	0.274332
891.000000	0.274099
892.000000	0.273962
893.000000	0.273891
894.000000	0.273858
895.000000	0.273480
896.000000	0.273115
897.000000	0.272864
898.000000	0.272708
899.000000	0.272503
900.000000	0.272271
901.000000	0.272026
902.000000	0.271869
903.000000	0.271826
904.000000	0.271793
905.000000	0.271578
906.000000	0.271352
907.000000	0.271116
908.000000	0.270939
909.000000	0.270800
910.000000	0.270596
911.000000	0.270339
912.000000	0.270088
913.000000	0.269887
914.000000	0.269683
915.000000	0.269515
916.000000	0.269329
917.000000	0.268966
918.000000	0.268693
919.000000	0.268642
920.000000	0.268516
921.000000	0.268224
922.000000	0.267855
923.000000	0.267563
924.000000	0.267290
925.000000	0.267079
926.000000	0.266920
927.000000	0.266575
928.000000	0.266565
929.000000	0.266508
930.000000	0.265955
931.000000	0.265840
932.000000	0.265851
933.000000	0.265687
934.000000	0.265069
935.000000	0.264749
936.000000	0.264616
937.000000	0.264343
938.000000	0.263986
939.000000	0.263871
940.000000	0.263853
941.000000	0.263672
942.000000	0.263510
943.000000	0.263394
944.000000	0.263185
945.000000	0.262858
946.000000	0.262611
947.000000	0.262424
948.000000	0.262140
949.000000	0.261738
950.000000	0.261345
951.000000	0.261016
952.000000	0.260832
953.000000	0.260696
954.000000	0.260520
955.000000	0.260210
956.000000	0.259902
957.000000	0.259631
958.000000	0.259434
959.000000	0.259411
960.000000	0.259306
961.000000	0.259145
962.000000	0.258916
963.000000	0.258598
964.000000	0.258201
965.000000	0.257962
966.000000	0.257899
967.000000	0.257733
968.000000	0.257566
969.000000	0.257308
970.000000	0.256939
971.000000	0.256687
972.000000	0.256629
973.000000	0.256636
974.000000	0.256511
975.000000	0.256044
976.000000	0.255664
977.000000	0.255590
978.000000	0.254999
979.000000	0.255086
980.000000	0.255191
981.000000	0.254563
982.000000	0.254785
983.000000	0.254612
984.000000	0.253988
985.000000	0.254107
986.000000	0.254123
987.000000	0.253882
988.000000	0.253402
989.000000	0.253144
990.000000	0.252932
991.000000	0.252932
992.000000	0.253263
993.000000	0.253101
994.000000	0.252936
995.000000	0.252855
996.000000	0.252373
997.000000	0.252412
998.000000	0.252530
999.000000	0.252444
1000.000000	0.252156
1001.000000	0.252559
1002.000000	0.252172
1003.000000	0.252399
1004.000000	0.252247
1005.000000	0.251618
1006.000000	0.251108
1007.000000	0.250455
1008.000000	0.250301
1009.000000	0.250485
1010.000000	0.250842
1011.000000	0.251463
1012.000000	0.251532
1013.000000	0.251331
1014.000000	0.250689
1015.000000	0.250141
1016.000000	0.251119
1017.000000	0.251204
1018.000000	0.251319
1019.000000	0.251558
1020.000000	0.251659
1021.000000	0.251105
1022.000000	0.250685
1023.000000	0.250583
1024.000000	0.249834
1025.000000	0.250103
1026.000000	0.250692
1027.000000	0.250719
1028.000000	0.251498
1029.000000	0.251743
1030.000000	0.251109
1031.000000	0.251268
1032.000000	0.251327
1033.000000	0.250886
1034.000000	0.250636
1035.000000	0.250778
1036.000000	0.250671
1037.000000	0.249876
1038.000000	0.249954
1039.000000	0.250773
1040.000000	0.251356
1041.000000	0.251856
1042.000000	0.252482
1043.000000	0.252325
1044.000000	0.252001
1045.000000	0.251785
1046.000000	0.251431
1047.000000	0.251630
1048.000000	0.252371
1049.000000	0.252523
1050.000000	0.252806
1051.000000	0.252765
1052.000000	0.251945
1053.000000	0.251807
1054.000000	0.252060
1055.000000	0.252381
1056.000000	0.253044
1057.000000	0.253720
1058.000000	0.253874
1059.000000	0.253892
1060.000000	0.254177
1061.000000	0.254093
1062.000000	0.254176
1063.000000	0.254598
1064.000000	0.254680
1065.000000	0.254261
1066.000000	0.254427
1067.000000	0.254841
1068.000000	0.255078
1069.000000	0.255608
1070.000000	0.255925
1071.000000	0.255916
1072.000000	0.256043
1073.000000	0.256311
1074.000000	0.256504
1075.000000	0.256634
1076.000000	0.256957
1077.000000	0.257093
1078.000000	0.256901
1079.000000	0.256765
1080.000000	0.256404
1081.000000	0.256410
1082.000000	0.256510
1083.000000	0.256755
1084.000000	0.257286
1085.000000	0.257811
1086.000000	0.258585
1087.000000	0.259086
1088.000000	0.259509
1089.000000	0.259813
1090.000000	0.259980
1091.000000	0.259788
1092.000000	0.259761
1093.000000	0.260026
1094.000000	0.260258
1095.000000	0.260465
1096.000000	0.260835
1097.000000	0.261432
1098.000000	0.261748
1099.000000	0.262016
1100.000000	0.262203
1101.000000	0.262026
1102.000000	0.262220
1103.000000	0.262613
1104.000000	0.262897
1105.000000	0.263295
1106.000000	0.263616
1107.000000	0.263857
1108.000000	0.263948
1109.000000	0.263755
1110.000000	0.264047
1111.000000	0.264218
1112.000000	0.264326
1113.000000	0.264465
1114.000000	0.264830
1115.000000	0.264927
1116.000000	0.264711
1117.000000	0.264839
1118.000000	0.265106
1119.000000	0.265237
1120.000000	0.265515
1121.000000	0.265640
1122.000000	0.265645
1123.000000	0.265835
1124.000000	0.265776
1125.000000	0.265941
1126.000000	0.266189
1127.000000	0.266396
1128.000000	0.266637
1129.000000	0.267145
1130.000000	0.267217
1131.000000	0.267008
1132.000000	0.267066
1133.000000	0.267100
1134.000000	0.267172
1135.000000	0.267371
1136.000000	0.267510
1137.000000	0.267462
1138.000000	0.267587
1139.000000	0.268047
1140.000000	0.268303
1141.000000	0.268564
1142.000000	0.268655
1143.000000	0.268395
1144.000000	0.268387
1145.000000	0.268159
1146.000000	0.268014
1147.000000	0.268166
1148.000000	0.268570
1149.000000	0.268669
1150.000000	0.268813
1151.000000	0.269002
1152.000000	0.268983
1153.000000	0.269104
1154.000000	0.269436
1155.000000	0.269576
1156.000000	0.269503
1157.000000	0.269625
1158.000000	0.269850
1159.000000	0.269947
1160.000000	0.270061
1161.000000	0.270123
1162.000000	0.270129
1163.000000	0.270216
1164.000000	0.270164
1165.000000	0.270112
1166.000000	0.270136
1167.000000	0.270115
1168.000000	0.270054
1169.000000	0.270080
1170.000000	0.270062
1171.000000	0.269916
1172.000000	0.269960
1173.000000	0.270120
1174.000000	0.270226
1175.000000	0.270390
1176.000000	0.270448
1177.000000	0.270532
1178.000000	0.270544
1179.000000	0.270430
1180.000000	0.270348
1181.000000	0.270289
1182.000000	0.270263
1183.000000	0.270376
1184.000000	0.270514
1185.000000	0.270545
1186.000000	0.270561
1187.000000	0.270572
1188.000000	0.270483
1189.000000	0.270479
1190.000000	0.270544
1191.000000	0.270643
1192.000000	0.270902
1193.000000	0.271094
1194.000000	0.271252
1195.000000	0.271340
1196.000000	0.271210
1197.000000	0.271225
1198.000000	0.271338
1199.000000	0.271389
1200.000000	0.271432
1201.000000	0.271490
1202.000000	0.271585
1203.000000	0.271648
1204.000000	0.271765
1205.000000	0.271871
1206.000000	0.271873
1207.000000	0.271846
1208.000000	0.271836
1209.000000	0.271852
1210.000000	0.271859
1211.000000	0.271871
1212.000000	0.271852
1213.000000	0.271856
1214.000000	0.271837
1215.000000	0.271742
1216.000000	0.271708
1217.000000	0.271656
1218.000000	0.271600
1219.000000	0.271554
1220.000000	0.271665
1221.000000	0.271594
1222.000000	0.271580
1223.000000	0.271814
1224.000000	0.271802
1225.000000	0.271768
1226.000000	0.271937
1227.000000	0.271849
1228.000000	0.271862
1229.000000	0.271848
1230.000000	0.271812
1231.000000	0.271772
1232.000000	0.271825
1233.000000	0.271970
1234.000000	0.272248
1235.000000	0.272348
1236.000000	0.272328
1237.000000	0.272312
1238.000000	0.272101
1239.000000	0.272017
1240.000000	0.271984
1241.000000	0.271962
1242.000000	0.272001
1243.000000	0.272169
1244.000000	0.272190
1245.000000	0.272219
1246.000000	0.272303
1247.000000	0.272232
1248.000000	0.272184
1249.000000	0.272301
1250.000000	0.272328
1251.000000	0.272257
1252.000000	0.272271
1253.000000	0.272392
1254.000000	0.272426
1255.000000	0.272472
1256.000000	0.272469
1257.000000	0.272441
1258.000000	0.272408
1259.000000	0.272211
1260.000000	0.272190
1261.000000	0.272180
1262.000000	0.272192
1263.000000	0.272316
1264.000000	0.272397
1265.000000	0.272498
1266.000000	0.272665
1267.000000	0.272680
1268.000000	0.272757
1269.000000	0.272830
1270.000000	0.272699
1271.000000	0.272715
1272.000000	0.272826
1273.000000	0.272756
1274.000000	0.272789
1275.000000	0.272767
1276.000000	0.272656
1277.000000	0.272719
1278.000000	0.272832
1279.000000	0.272803
1280.000000	0.272715
1281.000000	0.272630
1282.000000	0.272461
1283.000000	0.272504
1284.000000	0.272649
1285.000000	0.272738
1286.000000	0.272901
1287.000000	0.272876
1288.000000	0.272868
1289.000000	0.272975
1290.000000	0.272971
1291.000000	0.272989
1292.000000	0.273043
1293.000000	0.272862
1294.000000	0.272800
1295.000000	0.272924
1296.000000	0.272886
1297.000000	0.272906
1298.000000	0.272995
1299.000000	0.272980
1300.000000	0.273016
1301.000000	0.273167
1302.000000	0.273234
1303.000000	0.273370
1304.000000	0.273365
1305.000000	0.273419
1306.000000	0.273380
1307.000000	0.273170
1308.000000	0.273117
1309.000000	0.273137
1310.000000	0.273137
1311.000000	0.273206
1312.000000	0.273241
1313.000000	0.273187
1314.000000	0.273107
1315.000000	0.272939
1316.000000	0.272944
1317.000000	0.273036
1318.000000	0.273049
1319.000000	0.273139
1320.000000	0.273111
1321.000000	0.272986
1322.000000	0.272820
1323.000000	0.272635
1324.000000	0.272565
1325.000000	0.272581
1326.000000	0.272770
1327.000000	0.272799
1328.000000	0.272754
1329.000000	0.272719
1330.000000	0.272544
1331.000000	0.272481
1332.000000	0.272671
1333.000000	0.272690
1334.000000	0.272655
1335.000000	0.272686
1336.000000	0.272625
1337.000000	0.272618
1338.000000	0.272632
1339.000000	0.272658
1340.000000	0.272696
1341.000000	0.272691
1342.000000	0.272660
1343.000000	0.272689
1344.000000	0.272694
1345.000000	0.272696
1346.000000	0.272686
1347.000000	0.272655
1348.000000	0.272649
1349.000000	0.272492
1350.000000	0.272497
1351.000000	0.272487
1352.000000	0.272408
1353.000000	0.272514
1354.000000	0.272591
1355.000000	0.272500
1356.000000	0.272470
1357.000000	0.272375
1358.000000	0.272180
1359.000000	0.272069
1360.000000	0.271959
1361.000000	0.271870
1362.000000	0.271802
1363.000000	0.271725
1364.000000	0.271700
1365.000000	0.271786
1366.000000	0.271783
1367.000000	0.271724
1368.000000	0.271656
1369.000000	0.271800
1370.000000	0.271740
1371.000000	0.271725
1372.000000	0.271729
1373.000000	0.271520
1374.000000	0.271441
1375.000000	0.271363
1376.000000	0.271390
1377.000000	0.271536
1378.000000	0.271426
1379.000000	0.271273
1380.000000	0.271224
1381.000000	0.271129
1382.000000	0.271098
1383.000000	0.271042
1384.000000	0.270855
1385.000000	0.270689
1386.000000	0.270517
1387.000000	0.270289
1388.000000	0.270077
1389.000000	0.269804
1390.000000	0.269533
1391.000000	0.269342
1392.000000	0.269185
1393.000000	0.268937
1394.000000	0.268658
1395.000000	0.268379
1396.000000	0.268087
1397.000000	0.267728
1398.000000	0.267325
1399.000000	0.266954
1400.000000	0.266437
1401.000000	0.265993
1402.000000	0.265631
1403.000000	0.265304
1404.000000	0.264997
1405.000000	0.264858
1406.000000	0.264740
1407.000000	0.264439
1408.000000	0.264074
1409.000000	0.263857
1410.000000	0.263668
1411.000000	0.263572
1412.000000	0.263534
1413.000000	0.263444
1414.000000	0.263308
1415.000000	0.263140
1416.000000	0.263050
1417.000000	0.262922
1418.000000	0.262685
1419.000000	0.262578
1420.000000	0.262377
1421.000000	0.262246
1422.000000	0.262294
1423.000000	0.262366
1424.000000	0.262302
1425.000000	0.262197
1426.000000	0.262042
1427.000000	0.261952
1428.000000	0.261900
1429.000000	0.261843
1430.000000	0.261840
1431.000000	0.261753
1432.000000	0.261687
1433.000000	0.261711
1434.000000	0.261652
1435.000000	0.261583
1436.000000	0.261586
1437.000000	0.261590
1438.000000	0.261572
1439.000000	0.261582
1440.000000	0.261666
1441.000000	0.261784
1442.000000	0.261932
1443.000000	0.262074
1444.000000	0.262361
1445.000000	0.262645
1446.000000	0.262870
1447.000000	0.263090
1448.000000	0.263310
1449.000000	0.263518
1450.000000	0.263633
1451.000000	0.263763
1452.000000	0.263801
1453.000000	0.263732
1454.000000	0.263739
1455.000000	0.263810
1456.000000	0.263987
1457.000000	0.264151
1458.000000	0.264239
1459.000000	0.264333
1460.000000	0.264301
1461.000000	0.264254
1462.000000	0.264245
1463.000000	0.264200
1464.000000	0.264268
1465.000000	0.264322
1466.000000	0.264327
1467.000000	0.264418
1468.000000	0.264512
1469.000000	0.264674
1470.000000	0.264693
1471.000000	0.264669
1472.000000	0.264759
1473.000000	0.264845
1474.000000	0.264958
1475.000000	0.265131
1476.000000	0.265183
1477.000000	0.265255
1478.000000	0.265391
1479.000000	0.265475
1480.000000	0.265577
1481.000000	0.265692
1482.000000	0.265864
1483.000000	0.266023
1484.000000	0.266204
1485.000000	0.266325
1486.000000	0.266390
1487.000000	0.266455
1488.000000	0.266507
1489.000000	0.266626
1490.000000	0.266688
1491.000000	0.266758
1492.000000	0.266794
1493.000000	0.266845
1494.000000	0.266835
1495.000000	0.266879
1496.000000	0.267032
1497.000000	0.267067
1498.000000	0.267100
1499.000000	0.267015
1500.000000	0.266896
1501.000000	0.266876
1502.000000	0.266938
1503.000000	0.266998
1504.000000	0.267087
1505.000000	0.267077
1506.000000	0.266993
1507.000000	0.267048
1508.000000	0.267168
1509.000000	0.267217
1510.000000	0.267308
1511.000000	0.267438
1512.000000	0.267469
1513.000000	0.267511
1514.000000	0.267595
1515.000000	0.267570
1516.000000	0.267562
1517.000000	0.267520
1518.000000	0.267508
1519.000000	0.267574
1520.000000	0.267625
1521.000000	0.267625
1522.000000	0.267620
1523.000000	0.267606
1524.000000	0.267652
1525.000000	0.267857
1526.000000	0.267985
1527.000000	0.268028
1528.000000	0.268104
1529.000000	0.268092
1530.000000	0.268075
1531.000000	0.268228
1532.000000	0.268321
1533.000000	0.268313
1534.000000	0.268323
1535.000000	0.268310
1536.000000	0.268211
1537.000000	0.268231
1538.000000	0.268429
1539.000000	0.268537
1540.000000	0.268579
1541.000000	0.268704
1542.000000	0.268686
1543.000000	0.268572
1544.000000	0.268601
1545.000000	0.268674
1546.000000	0.268737
1547.000000	0.268864
1548.000000	0.268921
1549.000000	0.268830
1550.000000	0.268746
1551.000000	0.268720
1552.000000	0.268724
1553.000000	0.268712
1554.000000	0.268622
1555.000000	0.268581
1556.000000	0.268533
1557.000000	0.268439
1558.000000	0.268433
1559.000000	0.268447
1560.000000	0.268416
1561.000000	0.268470
1562.000000	0.268456
1563.000000	0.268407
1564.000000	0.268401
1565.000000	0.268342
1566.000000	0.268321
1567.000000	0.268464
1568.000000	0.268498
1569.000000	0.268611
1570.000000	0.268593
1571.000000	0.268432
1572.000000	0.268407
1573.000000	0.268384
1574.000000	0.268361
1575.000000	0.268402
1576.000000	0.268417
1577.000000	0.268376
1578.000000	0.268354
1579.000000	0.268463
1580.000000	0.268493
1581.000000	0.268502
1582.000000	0.268541
1583.000000	0.268577
1584.000000	0.268551
1585.000000	0.268603
1586.000000	0.268609
1587.000000	0.268555
1588.000000	0.268505
1589.000000	0.268429
1590.000000	0.268398
1591.000000	0.268396
1592.000000	0.268436
1593.000000	0.268561
1594.000000	0.268595
1595.000000	0.268708
1596.000000	0.268709
1597.000000	0.268545
1598.000000	0.268573
1599.000000	0.268690
1600.000000	0.268695
1601.000000	0.268853
1602.000000	0.268944
1603.000000	0.268965
1604.000000	0.268995
1605.000000	0.269072
1606.000000	0.269093
1607.000000	0.269064
1608.000000	0.269084
1609.000000	0.269212
1610.000000	0.269207
1611.000000	0.269213
1612.000000	0.269098
1613.000000	0.268938
1614.000000	0.268799
1615.000000	0.268591
1616.000000	0.268526
1617.000000	0.268507
1618.000000	0.268434
1619.000000	0.268394
1620.000000	0.268371
1621.000000	0.268318
1622.000000	0.268353
1623.000000	0.268474
1624.000000	0.268511
1625.000000	0.268406
1626.000000	0.268355
1627.000000	0.268292
1628.000000	0.268298
1629.000000	0.268349
1630.000000	0.268439
1631.000000	0.268547
1632.000000	0.268550
1633.000000	0.268547
1634.000000	0.268547
1635.000000	0.268480
1636.000000	0.268511
1637.000000	0.268637
1638.000000	0.268663
1639.000000	0.268743
1640.000000	0.268780
1641.000000	0.268805
1642.000000	0.268862
1643.000000	0.268986
1644.000000	0.269015
1645.000000	0.268994
1646.000000	0.268979
1647.000000	0.268950
1648.000000	0.268885
1649.000000	0.268884
1650.000000	0.268883
1651.000000	0.268908
1652.000000	0.268905
1653.000000	0.268850
1654.000000	0.268851
1655.000000	0.268783
1656.000000	0.268704
1657.000000	0.268714
1658.000000	0.268724
1659.000000	0.268827
1660.000000	0.268879
1661.000000	0.268918
1662.000000	0.268883
1663.000000	0.268692
1664.000000	0.268588
1665.000000	0.268482
1666.000000	0.268503
1667.000000	0.268532
1668.000000	0.268582
1669.000000	0.268712
1670.000000	0.268628
1671.000000	0.268511
1672.000000	0.268558
1673.000000	0.268574
1674.000000	0.268625
1675.000000	0.268709
1676.000000	0.268759
1677.000000	0.268649
1678.000000	0.268658
1679.000000	0.268743
1680.000000	0.268599
1681.000000	0.268531
1682.000000	0.268670
1683.000000	0.268853
1684.000000	0.268883
1685.000000	0.268897
1686.000000	0.268717
1687.000000	0.268420
1688.000000	0.268461
1689.000000	0.268629
1690.000000	0.268612
1691.000000	0.268605
1692.000000	0.268556
1693.000000	0.268413
1694.000000	0.268272
1695.000000	0.268350
1696.000000	0.268409
1697.000000	0.268334
1698.000000	0.268234
1699.000000	0.268294
1700.000000	0.268399
1701.000000	0.268491
1702.000000	0.268627
1703.000000	0.268638
1704.000000	0.268426
1705.000000	0.268418
1706.000000	0.268603
1707.000000	0.268705
1708.000000	0.268906
1709.000000	0.268916
1710.000000	0.268789
1711.000000	0.268806
1712.000000	0.268821
1713.000000	0.268853
1714.000000	0.269126
1715.000000	0.269155
1716.000000	0.268990
1717.000000	0.268946
1718.000000	0.268807
1719.000000	0.268735
1720.000000	0.268896
1721.000000	0.268836
1722.000000	0.268592
1723.000000	0.268496
1724.000000	0.268398
1725.000000	0.268367
1726.000000	0.268379
1727.000000	0.268396
1728.000000	0.268340
1729.000000	0.268306
1730.000000	0.268456
1731.000000	0.268525
1732.000000	0.268628
1733.000000	0.268627
1734.000000	0.268388
1735.000000	0.268382
1736.000000	0.268332
1737.000000	0.268398
1738.000000	0.268726
1739.000000	0.268784
1740.000000	0.268682
1741.000000	0.268734
1742.000000	0.268786
1743.000000	0.268875
1744.000000	0.269073
1745.000000	0.269074
1746.000000	0.268932
1747.000000	0.269051
1748.000000	0.268989
1749.000000	0.268906
1750.000000	0.268785
1751.000000	0.268472
1752.000000	0.268455
1753.000000	0.268628
1754.000000	0.268639
1755.000000	0.268705
1756.000000	0.268637
1757.000000	0.268288
1758.000000	0.268115
1759.000000	0.267942
1760.000000	0.267852
1761.000000	0.267909
1762.000000	0.267837
1763.000000	0.267716
1764.000000	0.267682
1765.000000	0.267589
1766.000000	0.267555
1767.000000	0.267559
1768.000000	0.267549
1769.000000	0.267533
1770.000000	0.267707
1771.000000	0.268072
1772.000000	0.268202
1773.000000	0.268316
1774.000000	0.268330
1775.000000	0.268159
1776.000000	0.268129
1777.000000	0.268113
1778.000000	0.268070
1779.000000	0.267952
1780.000000	0.268082
1781.000000	0.268349
1782.000000	0.268451
1783.000000	0.268724
1784.000000	0.268700
1785.000000	0.268455
1786.000000	0.268284
1787.000000	0.268279
1788.000000	0.268269
1789.000000	0.268131
1790.000000	0.268141
1791.000000	0.268113
1792.000000	0.268193
1793.000000	0.268236
1794.000000	0.268294
1795.000000	0.268324
1796.000000	0.268327
1797.000000	0.268281
1798.000000	0.268078
1799.000000	0.268032
1800.000000	0.268046
1801.000000	0.268166
1802.000000	0.268053
1803.000000	0.267938
1804.000000	0.268196
1805.000000	0.268380
1806.000000	0.268575
1807.000000	0.269664
1808.000000	0.269911
1809.000000	0.269430
1810.000000	0.269027
1811.000000	0.268775
1812.000000	0.268412
1813.000000	0.268025
1814.000000	0.267827
1815.000000	0.267416
1816.000000	0.266585
1817.000000	0.266157
1818.000000	0.266037
1819.000000	0.265632
1820.000000	0.266256
1821.000000	0.266529
1822.000000	0.266757
1823.000000	0.267268
1824.000000	0.267395
1825.000000	0.266911
1826.000000	0.266841
1827.000000	0.266713
1828.000000	0.266542
1829.000000	0.267087
1830.000000	0.267447
1831.000000	0.267363
1832.000000	0.267157
1833.000000	0.266844
1834.000000	0.266175
1835.000000	0.265594
1836.000000	0.264634
1837.000000	0.264309
1838.000000	0.264135
1839.000000	0.263569
1840.000000	0.264081
1841.000000	0.264573
1842.000000	0.264937
1843.000000	0.265140
1844.000000	0.265836
1845.000000	0.267152
1846.000000	0.267495
1847.000000	0.267711
1848.000000	0.267358
1849.000000	0.266423
1850.000000	0.265817
1851.000000	0.265586
1852.000000	0.265934
1853.000000	0.265875
1854.000000	0.265712
1855.000000	0.265476
1856.000000	0.265253
1857.000000	0.264458
1858.000000	0.263782
1859.000000	0.263287
1860.000000	0.262479
1861.000000	0.262274
1862.000000	0.262303
1863.000000	0.262802
1864.000000	0.262908
1865.000000	0.263501
1866.000000	0.263642
1867.000000	0.263388
1868.000000	0.263127
1869.000000	0.262725
1870.000000	0.261933
1871.000000	0.261354
1872.000000	0.260514
1873.000000	0.260000
1874.000000	0.259623
1875.000000	0.259522
1876.000000	0.259425
1877.000000	0.259362
1878.000000	0.259404
1879.000000	0.258413
1880.000000	0.257417
1881.000000	0.256590
1882.000000	0.255217
1883.000000	0.254516
1884.000000	0.253796
1885.000000	0.252816
1886.000000	0.251886
1887.000000	0.251446
1888.000000	0.250187
1889.000000	0.248495
1890.000000	0.247441
1891.000000	0.246335
1892.000000	0.245475
1893.000000	0.244742
1894.000000	0.243407
1895.000000	0.241836
1896.000000	0.239813
1897.000000	0.238127
1898.000000	0.236661
1899.000000	0.235260
1900.000000	0.234393
1901.000000	0.233509
1902.000000	0.232408
1903.000000	0.231998
1904.000000	0.231684
1905.000000	0.230604
1906.000000	0.229887
1907.000000	0.229235
1908.000000	0.228721
1909.000000	0.228082
1910.000000	0.228529
1911.000000	0.228729
1912.000000	0.228355
1913.000000	0.228648
1914.000000	0.228506
1915.000000	0.228172
1916.000000	0.228570
1917.000000	0.228673
1918.000000	0.228670
1919.000000	0.228765
1920.000000	0.229604
1921.000000	0.229750
1922.000000	0.229654
1923.000000	0.230539
1924.000000	0.230676
1925.000000	0.230593
1926.000000	0.231427
1927.000000	0.231797
1928.000000	0.231848
1929.000000	0.231648
1930.000000	0.231860
1931.000000	0.231628
1932.000000	0.231375
1933.000000	0.231875
1934.000000	0.232429
1935.000000	0.232932
1936.000000	0.233287
1937.000000	0.233170
1938.000000	0.232643
1939.000000	0.232205
1940.000000	0.231523
1941.000000	0.231126
1942.000000	0.231238
1943.000000	0.231426
1944.000000	0.231209
1945.000000	0.231233
1946.000000	0.231074
1947.000000	0.230831
1948.000000	0.231526
1949.000000	0.232061
1950.000000	0.232446
1951.000000	0.232693
1952.000000	0.233046
1953.000000	0.232764
1954.000000	0.232562
1955.000000	0.232540
1956.000000	0.232479
1957.000000	0.232594
1958.000000	0.233077
1959.000000	0.233444
1960.000000	0.233577
1961.000000	0.233496
1962.000000	0.233623
1963.000000	0.233767
1964.000000	0.233951
1965.000000	0.234103
1966.000000	0.234942
1967.000000	0.234797
1968.000000	0.234406
1969.000000	0.234562
1970.000000	0.234321
1971.000000	0.234487
1972.000000	0.234788
1973.000000	0.234472
1974.000000	0.233492
1975.000000	0.232968
1976.000000	0.232204
1977.000000	0.231789
1978.000000	0.232271
1979.000000	0.232843
1980.000000	0.233407
1981.000000	0.234157
1982.000000	0.234133
1983.000000	0.234281
1984.000000	0.234614
1985.000000	0.235231
1986.000000	0.235410
1987.000000	0.235745
1988.000000	0.235723
1989.000000	0.235142
1990.000000	0.234746
1991.000000	0.233979
1992.000000	0.234158
1993.000000	0.234912
1994.000000	0.235299
1995.000000	0.236510
1996.000000	0.237064
1997.000000	0.237507
1998.000000	0.238066
1999.000000	0.238258
2000.000000	0.237889
2001.000000	0.237810
2002.000000	0.237852
2003.000000	0.237675
2004.000000	0.237751
2005.000000	0.238267
2006.000000	0.239378
2007.000000	0.239983
2008.000000	0.240608
2009.000000	0.241749
2010.000000	0.242095
2011.000000	0.241488
2012.000000	0.241553
2013.000000	0.241627
2014.000000	0.241462
2015.000000	0.241676
2016.000000	0.242062
2017.000000	0.242185
2018.000000	0.242135
2019.000000	0.242124
2020.000000	0.242171
2021.000000	0.242532
2022.000000	0.243377
2023.000000	0.243633
2024.000000	0.243868
2025.000000	0.244051
2026.000000	0.243702
2027.000000	0.243453
2028.000000	0.243718
2029.000000	0.243779
2030.000000	0.243957
2031.000000	0.244442
2032.000000	0.244386
2033.000000	0.244730
2034.000000	0.244917
2035.000000	0.244975
2036.000000	0.244853
2037.000000	0.244850
2038.000000	0.244836
2039.000000	0.244669
2040.000000	0.244613
2041.000000	0.245058
2042.000000	0.245447
2043.000000	0.245700
2044.000000	0.245642
2045.000000	0.245364
2046.000000	0.245532
2047.000000	0.245810
2048.000000	0.246581
2049.000000	0.247093
2050.000000	0.247334
2051.000000	0.247253
2052.000000	0.246454
2053.000000	0.246136
2054.000000	0.245893
2055.000000	0.246383
2056.000000	0.246729
2057.000000	0.247359
2058.000000	0.247764
2059.000000	0.247610
2060.000000	0.247513
2061.000000	0.247322
2062.000000	0.247133
2063.000000	0.246563
2064.000000	0.246500
2065.000000	0.246929
2066.000000	0.247196
2067.000000	0.247692
2068.000000	0.248750
2069.000000	0.249609
2070.000000	0.249824
2071.000000	0.250181
2072.000000	0.250298
2073.000000	0.249943
2074.000000	0.249585
2075.000000	0.249181
2076.000000	0.248495
2077.000000	0.248088
2078.000000	0.247685
2079.000000	0.247463
2080.000000	0.247206
2081.000000	0.247367
2082.000000	0.247887
2083.000000	0.248584
2084.000000	0.249243
2085.000000	0.249767
2086.000000	0.249649
2087.000000	0.249587
2088.000000	0.249413
2089.000000	0.249631
2090.000000	0.249946
2091.000000	0.250723
2092.000000	0.250825
2093.000000	0.250890
2094.000000	0.250812
2095.000000	0.249858
2096.000000	0.249825
2097.000000	0.250391
2098.000000	0.250481
2099.000000	0.251091
2100.000000	0.252108
2101.000000	0.252235
2102.000000	0.252139
2103.000000	0.251478
2104.000000	0.250718
2105.000000	0.250551
2106.000000	0.250707
2107.000000	0.250856
2108.000000	0.251403
2109.000000	0.251762
2110.000000	0.252014
2111.000000	0.252087
2112.000000	0.251983
2113.000000	0.251918
2114.000000	0.251568
2115.000000	0.251183
2116.000000	0.251236
2117.000000	0.250803
2118.000000	0.250600
2119.000000	0.250336
2120.000000	0.250583
2121.000000	0.251304
2122.000000	0.251882
2123.000000	0.253276
2124.000000	0.253432
2125.000000	0.252567
2126.000000	0.252159
2127.000000	0.250776
2128.000000	0.250666
2129.000000	0.251373
2130.000000	0.252429
2131.000000	0.253150
2132.000000	0.253658
2133.000000	0.253264
2134.000000	0.252767
2135.000000	0.252369
2136.000000	0.252201
2137.000000	0.252010
2138.000000	0.251922
2139.000000	0.251671
2140.000000	0.251331
2141.000000	0.251311
2142.000000	0.251347
2143.000000	0.251366
2144.000000	0.251819
2145.000000	0.251983
2146.000000	0.251828
2147.000000	0.252510
2148.000000	0.252415
2149.000000	0.253140
2150.000000	0.255181
2151.000000	0.256206
2152.000000	0.256631
2153.000000	0.256281
2154.000000	0.255708
2155.000000	0.253288
2156.000000	0.252704
2157.000000	0.253387
2158.000000	0.253026
2159.000000	0.252217
2160.000000	0.252287
2161.000000	0.252277
2162.000000	0.252681
2163.000000	0.254552
2164.000000	0.254938
2165.000000	0.254367
2166.000000	0.254254
2167.000000	0.253028
2168.000000	0.252510
2169.000000	0.252842
2170.000000	0.252386
2171.000000	0.252256
2172.000000	0.252411
2173.000000	0.252806
2174.000000	0.253197
2175.000000	0.253703
2176.000000	0.254623
2177.000000	0.255331
2178.000000	0.256530
2179.000000	0.256649
2180.000000	0.256073
2181.000000	0.255998
2182.000000	0.254514
2183.000000	0.253765
2184.000000	0.254302
2185.000000	0.253489
2186.000000	0.253318
2187.000000	0.252809
2188.000000	0.252784
2189.000000	0.253822
2190.000000	0.253640
2191.000000	0.254342
2192.000000	0.254140
2193.000000	0.252905
2194.000000	0.252148
2195.000000	0.250952
2196.000000	0.250477
2197.000000	0.250427
2198.000000	0.250010
2199.000000	0.250279
2200.000000	0.250331
2201.000000	0.250171
2202.000000	0.250031
2203.000000	0.249530
2204.000000	0.249454
2205.000000	0.249109
2206.000000	0.248445
2207.000000	0.250508
2208.000000	0.251723
2209.000000	0.249910
2210.000000	0.249940
2211.000000	0.250641
2212.000000	0.250119
2213.000000	0.250898
2214.000000	0.255399
2215.000000	0.255456
2216.000000	0.252438
2217.000000	0.251645
2218.000000	0.249615
2219.000000	0.249812
2220.000000	0.252607
2221.000000	0.253748
2222.000000	0.256175
2223.000000	0.256030
2224.000000	0.254039
2225.000000	0.251540
2226.000000	0.248054
2227.000000	0.246117
2228.000000	0.247823
2229.000000	0.248691
2230.000000	0.251096
2231.000000	0.253112
2232.000000	0.249995
2233.000000	0.250114
2234.000000	0.249894
2235.000000	0.247340
2236.000000	0.246406
2237.000000	0.246358
2238.000000	0.245777
2239.000000	0.245363
2240.000000	0.244987
2241.000000	0.244428
2242.000000	0.244957
2243.000000	0.245856
2244.000000	0.246822
2245.000000	0.249781
2246.000000	0.250127
2247.000000	0.248574
2248.000000	0.247516
2249.000000	0.244952
2250.000000	0.243465
2251.000000	0.243618
2252.000000	0.245085
2253.000000	0.247447
2254.000000	0.250772
2255.000000	0.254218
2256.000000	0.256192
2257.000000	0.256655
2258.000000	0.256472
2259.000000	0.253972
2260.000000	0.252188
2261.000000	0.252035
2262.000000	0.253423
2263.000000	0.252683
2264.000000	0.252924
2265.000000	0.251519
2266.000000	0.247882
2267.000000	0.245749
2268.000000	0.241816
2269.000000	0.241329
2270.000000	0.243460
2271.000000	0.243957
2272.000000	0.247146
2273.000000	0.248598
2274.000000	0.247421
2275.000000	0.247193
2276.000000	0.247541
2277.000000	0.247218
2278.000000	0.245774
2279.000000	0.243494
2280.000000	0.240442
2281.000000	0.240016
2282.000000	0.239430
2283.000000	0.239974
2284.000000	0.242131
2285.000000	0.240812
2286.000000	0.240814
2287.000000	0.240594
2288.000000	0.238964
2289.000000	0.238269
2290.000000	0.237633
2291.000000	0.238312
2292.000000	0.238190
2293.000000	0.239164
2294.000000	0.239048
2295.000000	0.237939
2296.000000	0.237081
2297.000000	0.235769
2298.000000	0.234381
2299.000000	0.232710
2300.000000	0.231502
2301.000000	0.229963
2302.000000	0.229780
2303.000000	0.230617
2304.000000	0.232180
2305.000000	0.235108
2306.000000	0.237433
2307.000000	0.240392
2308.000000	0.242005
2309.000000	0.244257
2310.000000	0.244361
2311.000000	0.242142
2312.000000	0.239905
2313.000000	0.236152
2314.000000	0.235185
2315.000000	0.237332
2316.000000	0.240124
2317.000000	0.244091
2318.000000	0.247029
2319.000000	0.248064
2320.000000	0.247078
2321.000000	0.245495
2322.000000	0.243444
2323.000000	0.241956
2324.000000	0.241156
2325.000000	0.239695
2326.000000	0.238391
2327.000000	0.236770
2328.000000	0.237779
2329.000000	0.241622
2330.000000	0.244211
2331.000000	0.246282
2332.000000	0.246022
2333.000000	0.245529
2334.000000	0.245992
2335.000000	0.245153
2336.000000	0.244345
2337.000000	0.243330
2338.000000	0.239571
2339.000000	0.237428
2340.000000	0.236342
2341.000000	0.235851
2342.000000	0.235729
2343.000000	0.236750
2344.000000	0.239899
2345.000000	0.240795
2346.000000	0.240893
2347.000000	0.242152
2348.000000	0.243275
2349.000000	0.243949
2350.000000	0.245251
2351.000000	0.244424
2352.000000	0.241957
2353.000000	0.239201
2354.000000	0.237297
2355.000000	0.237186
2356.000000	0.238290
2357.000000	0.240394
2358.000000	0.240642
2359.000000	0.241641
2360.000000	0.241892
2361.000000	0.239990
2362.000000	0.240771
2363.000000	0.240197
2364.000000	0.237724
2365.000000	0.237588
2366.000000	0.235339
2367.000000	0.232995
2368.000000	0.233593
2369.000000	0.232539
2370.000000	0.232182
2371.000000	0.230063
2372.000000	0.228565
2373.000000	0.229915
2374.000000	0.228413
2375.000000	0.229885
2376.000000	0.231892
2377.000000	0.230596
2378.000000	0.230850
2379.000000	0.231258
2380.000000	0.229107
2381.000000	0.229504
2382.000000	0.227425
2383.000000	0.226571
2384.000000	0.229498
2385.000000	0.225603
2386.000000	0.228039
2387.000000	0.231685
2388.000000	0.229126
2389.000000	0.231768
2390.000000	0.234262
2391.000000	0.230972
2392.000000	0.225463
2393.000000	0.221502
2394.000000	0.218433
2395.000000	0.217377
2396.000000	0.222286
2397.000000	0.230411
2398.000000	0.232451
2399.000000	0.228744
2400.000000	0.225719
2401.000000	0.221044
2402.000000	0.216717
2403.000000	0.214519
2404.000000	0.212719
2405.000000	0.208239
2406.000000	0.202860
2407.000000	0.205674
2408.000000	0.210781
2409.000000	0.215681
2410.000000	0.224293
2411.000000	0.229200
2412.000000	0.225524
2413.000000	0.219752
2414.000000	0.220344
2415.000000	0.217926
2416.000000	0.220170
2417.000000	0.233325
2418.000000	0.237280
2419.000000	0.239178
2420.000000	0.236783
2421.000000	0.223479
2422.000000	0.213621
2423.000000	0.208222
2424.000000	0.211049
2425.000000	0.219074
2426.000000	0.219530
2427.000000	0.213618
2428.000000	0.207374
2429.000000	0.204288
2430.000000	0.206386
2431.000000	0.209679
2432.000000	0.208577
2433.000000	0.200032
2434.000000	0.192953
2435.000000	0.187092
2436.000000	0.181877
2437.000000	0.188302
2438.000000	0.193122
2439.000000	0.203195
2440.000000	0.218800
2441.000000	0.224092
2442.000000	0.226488
2443.000000	0.220599
2444.000000	0.214252
2445.000000	0.205601
2446.000000	0.192011
2447.000000	0.190423
2448.000000	0.190722
2449.000000	0.204804
2450.000000	0.226437
2451.000000	0.236867
2452.000000	0.233168
2453.000000	0.210164
2454.000000	0.189181
2455.000000	0.174160
2456.000000	0.165427
2457.000000	0.163928
2458.000000	0.161664
2459.000000	0.169979
2460.000000	0.185041
2461.000000	0.204846
2462.000000	0.230937
2463.000000	0.225390
2464.000000	0.221027
2465.000000	0.222730
2466.000000	0.198193
2467.000000	0.197389
2468.000000	0.189485
2469.000000	0.181999
2470.000000	0.205309
2471.000000	0.214986
2472.000000	0.214015
2473.000000	0.191921
2474.000000	0.155615
2475.000000	0.142154
2476.000000	0.148936
2477.000000	0.157643
2478.000000	0.172187
2479.000000	0.182091
2480.000000	0.177822
2481.000000	0.203766
2482.000000	0.230995
2483.000000	0.272495
2484.000000	0.303682
2485.000000	0.305291
2486.000000	0.341985
2487.000000	0.314606
2488.000000	0.294819
2489.000000	0.304624
2490.000000	0.260855
2491.000000	0.231171
2492.000000	0.202671
2493.000000	0.168091
2494.000000	0.156054
2495.000000	0.147895
2496.000000	0.155804
2497.000000	0.190921
2498.000000	0.216779
2499.000000	0.254860
2500.000000	0.295730
