# Wavelength	Nau-2_10_FV7_90_00000.asd.rts.txt
350.000000	0.185556
351.000000	0.189056
352.000000	0.195384
353.000000	0.202541
354.000000	0.206869
355.000000	0.187911
356.000000	0.182927
357.000000	0.193666
358.000000	0.194201
359.000000	0.185489
360.000000	0.180122
361.000000	0.188955
362.000000	0.189456
363.000000	0.187012
364.000000	0.186785
365.000000	0.189517
366.000000	0.190491
367.000000	0.188691
368.000000	0.186551
369.000000	0.184824
370.000000	0.186421
371.000000	0.193065
372.000000	0.195385
373.000000	0.191879
374.000000	0.186349
375.000000	0.192963
376.000000	0.199148
377.000000	0.199867
378.000000	0.196269
379.000000	0.195391
380.000000	0.196286
381.000000	0.196405
382.000000	0.198587
383.000000	0.200081
384.000000	0.199781
385.000000	0.201886
386.000000	0.202803
387.000000	0.202434
388.000000	0.204235
389.000000	0.204198
390.000000	0.203367
391.000000	0.204080
392.000000	0.204922
393.000000	0.205754
394.000000	0.206134
395.000000	0.203247
396.000000	0.203614
397.000000	0.207520
398.000000	0.207090
399.000000	0.207091
400.000000	0.207527
401.000000	0.206697
402.000000	0.207120
403.000000	0.208259
404.000000	0.209187
405.000000	0.208974
406.000000	0.209307
407.000000	0.210620
408.000000	0.211225
409.000000	0.210782
410.000000	0.210281
411.000000	0.211517
412.000000	0.211449
413.000000	0.211127
414.000000	0.212075
415.000000	0.212854
416.000000	0.212934
417.000000	0.212462
418.000000	0.212860
419.000000	0.213082
420.000000	0.213160
421.000000	0.214023
422.000000	0.214620
423.000000	0.214969
424.000000	0.215453
425.000000	0.215802
426.000000	0.216106
427.000000	0.216435
428.000000	0.216704
429.000000	0.217158
430.000000	0.217714
431.000000	0.217820
432.000000	0.217635
433.000000	0.217687
434.000000	0.218693
435.000000	0.218692
436.000000	0.218326
437.000000	0.218534
438.000000	0.219317
439.000000	0.219616
440.000000	0.219235
441.000000	0.219366
442.000000	0.219542
443.000000	0.219688
444.000000	0.220100
445.000000	0.220493
446.000000	0.220727
447.000000	0.220663
448.000000	0.221212
449.000000	0.221795
450.000000	0.222026
451.000000	0.222442
452.000000	0.222718
453.000000	0.222779
454.000000	0.223009
455.000000	0.223463
456.000000	0.224005
457.000000	0.224249
458.000000	0.224431
459.000000	0.224588
460.000000	0.224794
461.000000	0.225190
462.000000	0.225506
463.000000	0.225602
464.000000	0.226061
465.000000	0.226518
466.000000	0.226828
467.000000	0.227079
468.000000	0.227129
469.000000	0.227148
470.000000	0.227487
471.000000	0.227945
472.000000	0.228236
473.000000	0.228305
474.000000	0.228616
475.000000	0.228817
476.000000	0.229022
477.000000	0.229573
478.000000	0.229707
479.000000	0.229754
480.000000	0.230126
481.000000	0.230303
482.000000	0.230386
483.000000	0.230424
484.000000	0.230954
485.000000	0.231202
486.000000	0.231118
487.000000	0.231511
488.000000	0.231823
489.000000	0.232031
490.000000	0.232408
491.000000	0.232786
492.000000	0.233014
493.000000	0.232925
494.000000	0.233276
495.000000	0.233674
496.000000	0.233830
497.000000	0.234302
498.000000	0.234601
499.000000	0.234710
500.000000	0.235011
501.000000	0.235324
502.000000	0.235572
503.000000	0.235641
504.000000	0.235924
505.000000	0.236260
506.000000	0.236453
507.000000	0.236635
508.000000	0.236891
509.000000	0.237206
510.000000	0.237521
511.000000	0.237749
512.000000	0.237986
513.000000	0.238444
514.000000	0.238917
515.000000	0.239339
516.000000	0.239644
517.000000	0.240017
518.000000	0.240354
519.000000	0.240535
520.000000	0.240900
521.000000	0.241236
522.000000	0.241493
523.000000	0.241854
524.000000	0.242227
525.000000	0.242582
526.000000	0.242956
527.000000	0.243447
528.000000	0.243915
529.000000	0.244264
530.000000	0.244649
531.000000	0.245092
532.000000	0.245515
533.000000	0.245930
534.000000	0.246435
535.000000	0.246965
536.000000	0.247306
537.000000	0.247659
538.000000	0.248067
539.000000	0.248502
540.000000	0.248947
541.000000	0.249378
542.000000	0.249801
543.000000	0.250140
544.000000	0.250543
545.000000	0.251012
546.000000	0.251499
547.000000	0.251936
548.000000	0.252374
549.000000	0.252865
550.000000	0.253355
551.000000	0.253836
552.000000	0.254270
553.000000	0.254731
554.000000	0.255226
555.000000	0.255757
556.000000	0.256323
557.000000	0.256847
558.000000	0.257415
559.000000	0.257991
560.000000	0.258546
561.000000	0.259129
562.000000	0.259688
563.000000	0.260233
564.000000	0.260703
565.000000	0.261006
566.000000	0.261622
567.000000	0.262242
568.000000	0.262668
569.000000	0.263109
570.000000	0.263592
571.000000	0.264075
572.000000	0.264456
573.000000	0.264830
574.000000	0.265205
575.000000	0.265619
576.000000	0.266108
577.000000	0.266457
578.000000	0.266611
579.000000	0.266910
580.000000	0.267171
581.000000	0.267344
582.000000	0.267617
583.000000	0.267839
584.000000	0.268052
585.000000	0.268403
586.000000	0.268630
587.000000	0.268810
588.000000	0.269070
589.000000	0.269270
590.000000	0.269454
591.000000	0.269669
592.000000	0.269948
593.000000	0.270135
594.000000	0.270236
595.000000	0.270440
596.000000	0.270539
597.000000	0.270629
598.000000	0.270802
599.000000	0.270828
600.000000	0.270819
601.000000	0.270835
602.000000	0.270884
603.000000	0.270937
604.000000	0.270994
605.000000	0.271077
606.000000	0.271147
607.000000	0.271199
608.000000	0.271247
609.000000	0.271288
610.000000	0.271386
611.000000	0.271576
612.000000	0.271583
613.000000	0.271605
614.000000	0.271781
615.000000	0.271877
616.000000	0.271951
617.000000	0.272007
618.000000	0.272108
619.000000	0.272075
620.000000	0.271981
621.000000	0.272036
622.000000	0.272028
623.000000	0.272035
624.000000	0.272119
625.000000	0.272112
626.000000	0.272115
627.000000	0.272150
628.000000	0.272081
629.000000	0.272183
630.000000	0.272321
631.000000	0.272402
632.000000	0.272456
633.000000	0.272534
634.000000	0.272655
635.000000	0.272725
636.000000	0.272832
637.000000	0.272980
638.000000	0.273038
639.000000	0.273109
640.000000	0.273262
641.000000	0.273403
642.000000	0.273524
643.000000	0.273656
644.000000	0.273842
645.000000	0.274004
646.000000	0.274151
647.000000	0.274271
648.000000	0.274357
649.000000	0.274452
650.000000	0.274569
651.000000	0.274732
652.000000	0.274927
653.000000	0.275130
654.000000	0.275248
655.000000	0.275480
656.000000	0.275759
657.000000	0.275945
658.000000	0.276113
659.000000	0.276265
660.000000	0.276411
661.000000	0.276649
662.000000	0.276827
663.000000	0.276982
664.000000	0.277167
665.000000	0.277451
666.000000	0.277751
667.000000	0.277954
668.000000	0.278252
669.000000	0.278562
670.000000	0.278825
671.000000	0.279039
672.000000	0.279314
673.000000	0.279635
674.000000	0.279904
675.000000	0.280174
676.000000	0.280431
677.000000	0.280671
678.000000	0.280926
679.000000	0.281224
680.000000	0.281573
681.000000	0.281891
682.000000	0.282248
683.000000	0.282601
684.000000	0.283009
685.000000	0.283344
686.000000	0.283653
687.000000	0.283985
688.000000	0.284318
689.000000	0.284650
690.000000	0.285008
691.000000	0.285373
692.000000	0.285704
693.000000	0.286065
694.000000	0.286470
695.000000	0.286885
696.000000	0.287305
697.000000	0.287732
698.000000	0.288070
699.000000	0.288410
700.000000	0.288829
701.000000	0.289218
702.000000	0.289666
703.000000	0.290148
704.000000	0.290533
705.000000	0.290904
706.000000	0.291260
707.000000	0.291660
708.000000	0.292043
709.000000	0.292388
710.000000	0.292722
711.000000	0.293120
712.000000	0.293531
713.000000	0.293950
714.000000	0.294388
715.000000	0.294779
716.000000	0.295160
717.000000	0.295586
718.000000	0.295942
719.000000	0.296274
720.000000	0.296645
721.000000	0.296970
722.000000	0.297316
723.000000	0.297741
724.000000	0.298110
725.000000	0.298413
726.000000	0.298764
727.000000	0.299164
728.000000	0.299493
729.000000	0.299834
730.000000	0.300200
731.000000	0.300494
732.000000	0.300761
733.000000	0.301060
734.000000	0.301361
735.000000	0.301646
736.000000	0.302018
737.000000	0.302370
738.000000	0.302677
739.000000	0.302996
740.000000	0.303222
741.000000	0.303499
742.000000	0.303785
743.000000	0.304042
744.000000	0.304322
745.000000	0.304595
746.000000	0.304887
747.000000	0.305134
748.000000	0.305341
749.000000	0.305580
750.000000	0.305846
751.000000	0.306049
752.000000	0.306230
753.000000	0.306430
754.000000	0.306673
755.000000	0.306881
756.000000	0.307058
757.000000	0.307192
758.000000	0.307367
759.000000	0.307539
760.000000	0.307636
761.000000	0.307826
762.000000	0.307967
763.000000	0.308036
764.000000	0.308164
765.000000	0.308293
766.000000	0.308459
767.000000	0.308680
768.000000	0.308890
769.000000	0.309072
770.000000	0.309242
771.000000	0.309452
772.000000	0.309625
773.000000	0.309715
774.000000	0.309825
775.000000	0.309896
776.000000	0.309942
777.000000	0.309962
778.000000	0.309951
779.000000	0.310002
780.000000	0.310102
781.000000	0.310118
782.000000	0.310142
783.000000	0.310258
784.000000	0.310351
785.000000	0.310449
786.000000	0.310537
787.000000	0.310591
788.000000	0.310568
789.000000	0.310651
790.000000	0.310817
791.000000	0.310973
792.000000	0.311036
793.000000	0.311029
794.000000	0.311015
795.000000	0.311103
796.000000	0.311143
797.000000	0.311074
798.000000	0.310941
799.000000	0.310918
800.000000	0.310954
801.000000	0.310956
802.000000	0.311019
803.000000	0.311102
804.000000	0.311185
805.000000	0.311179
806.000000	0.311092
807.000000	0.311037
808.000000	0.311023
809.000000	0.311064
810.000000	0.311071
811.000000	0.310984
812.000000	0.310922
813.000000	0.310888
814.000000	0.310884
815.000000	0.310929
816.000000	0.310927
817.000000	0.310883
818.000000	0.310759
819.000000	0.310712
820.000000	0.310656
821.000000	0.310538
822.000000	0.310530
823.000000	0.310544
824.000000	0.310490
825.000000	0.310414
826.000000	0.310409
827.000000	0.310417
828.000000	0.310439
829.000000	0.310482
830.000000	0.310479
831.000000	0.310471
832.000000	0.310401
833.000000	0.310379
834.000000	0.310455
835.000000	0.310625
836.000000	0.310647
837.000000	0.310641
838.000000	0.310650
839.000000	0.310614
840.000000	0.310467
841.000000	0.310287
842.000000	0.310134
843.000000	0.310099
844.000000	0.310102
845.000000	0.310028
846.000000	0.309803
847.000000	0.309713
848.000000	0.309692
849.000000	0.309631
850.000000	0.309551
851.000000	0.309499
852.000000	0.309510
853.000000	0.309488
854.000000	0.309402
855.000000	0.309334
856.000000	0.309201
857.000000	0.308963
858.000000	0.308828
859.000000	0.308779
860.000000	0.308657
861.000000	0.308519
862.000000	0.308429
863.000000	0.308371
864.000000	0.308317
865.000000	0.308209
866.000000	0.308066
867.000000	0.307973
868.000000	0.307899
869.000000	0.307766
870.000000	0.307603
871.000000	0.307499
872.000000	0.307392
873.000000	0.307187
874.000000	0.306970
875.000000	0.306729
876.000000	0.306518
877.000000	0.306347
878.000000	0.306277
879.000000	0.306202
880.000000	0.305974
881.000000	0.305906
882.000000	0.305767
883.000000	0.305568
884.000000	0.305349
885.000000	0.305167
886.000000	0.304939
887.000000	0.304677
888.000000	0.304510
889.000000	0.304371
890.000000	0.304203
891.000000	0.304141
892.000000	0.303898
893.000000	0.303625
894.000000	0.303498
895.000000	0.303272
896.000000	0.303008
897.000000	0.302818
898.000000	0.302777
899.000000	0.302632
900.000000	0.302350
901.000000	0.301985
902.000000	0.301818
903.000000	0.301640
904.000000	0.301490
905.000000	0.301322
906.000000	0.301000
907.000000	0.300784
908.000000	0.300694
909.000000	0.300312
910.000000	0.300035
911.000000	0.299852
912.000000	0.299687
913.000000	0.299537
914.000000	0.299312
915.000000	0.299062
916.000000	0.298785
917.000000	0.298489
918.000000	0.298248
919.000000	0.298057
920.000000	0.297769
921.000000	0.297545
922.000000	0.297329
923.000000	0.296957
924.000000	0.296653
925.000000	0.296396
926.000000	0.296185
927.000000	0.296002
928.000000	0.295746
929.000000	0.295419
930.000000	0.295090
931.000000	0.294967
932.000000	0.294672
933.000000	0.294233
934.000000	0.294032
935.000000	0.293703
936.000000	0.293475
937.000000	0.293430
938.000000	0.293229
939.000000	0.293062
940.000000	0.292819
941.000000	0.292405
942.000000	0.292044
943.000000	0.291823
944.000000	0.291630
945.000000	0.291467
946.000000	0.291305
947.000000	0.291088
948.000000	0.290738
949.000000	0.290511
950.000000	0.290398
951.000000	0.290285
952.000000	0.290096
953.000000	0.289902
954.000000	0.289698
955.000000	0.289400
956.000000	0.289001
957.000000	0.288780
958.000000	0.288708
959.000000	0.288691
960.000000	0.288360
961.000000	0.288070
962.000000	0.287849
963.000000	0.287363
964.000000	0.287106
965.000000	0.286910
966.000000	0.286469
967.000000	0.285983
968.000000	0.285806
969.000000	0.285712
970.000000	0.285369
971.000000	0.285011
972.000000	0.284877
973.000000	0.284775
974.000000	0.284211
975.000000	0.284103
976.000000	0.284015
977.000000	0.283590
978.000000	0.283660
979.000000	0.283518
980.000000	0.283144
981.000000	0.283177
982.000000	0.282943
983.000000	0.282734
984.000000	0.282578
985.000000	0.282056
986.000000	0.281882
987.000000	0.281683
988.000000	0.281188
989.000000	0.281229
990.000000	0.281342
991.000000	0.281264
992.000000	0.280952
993.000000	0.280768
994.000000	0.280721
995.000000	0.280735
996.000000	0.280366
997.000000	0.280236
998.000000	0.279959
999.000000	0.279578
1000.000000	0.279686
1001.000000	0.279565
1002.000000	0.279859
1003.000000	0.279798
1004.000000	0.279513
1005.000000	0.278573
1006.000000	0.278327
1007.000000	0.278251
1008.000000	0.278288
1009.000000	0.278382
1010.000000	0.278595
1011.000000	0.278446
1012.000000	0.278148
1013.000000	0.277644
1014.000000	0.276856
1015.000000	0.276945
1016.000000	0.277380
1017.000000	0.277838
1018.000000	0.278741
1019.000000	0.278918
1020.000000	0.278435
1021.000000	0.277934
1022.000000	0.276881
1023.000000	0.276749
1024.000000	0.276811
1025.000000	0.277326
1026.000000	0.277783
1027.000000	0.278365
1028.000000	0.278150
1029.000000	0.277476
1030.000000	0.277090
1031.000000	0.276935
1032.000000	0.276953
1033.000000	0.276958
1034.000000	0.277098
1035.000000	0.277390
1036.000000	0.277422
1037.000000	0.277377
1038.000000	0.277470
1039.000000	0.277511
1040.000000	0.277826
1041.000000	0.277979
1042.000000	0.277862
1043.000000	0.277719
1044.000000	0.277474
1045.000000	0.277481
1046.000000	0.277859
1047.000000	0.278314
1048.000000	0.279102
1049.000000	0.279271
1050.000000	0.279341
1051.000000	0.279458
1052.000000	0.279047
1053.000000	0.278912
1054.000000	0.279464
1055.000000	0.279498
1056.000000	0.279004
1057.000000	0.279046
1058.000000	0.279411
1059.000000	0.279481
1060.000000	0.280082
1061.000000	0.280647
1062.000000	0.280769
1063.000000	0.280941
1064.000000	0.280971
1065.000000	0.280718
1066.000000	0.280744
1067.000000	0.280671
1068.000000	0.280853
1069.000000	0.281334
1070.000000	0.281671
1071.000000	0.282371
1072.000000	0.282514
1073.000000	0.282253
1074.000000	0.282117
1075.000000	0.282064
1076.000000	0.282217
1077.000000	0.282485
1078.000000	0.283195
1079.000000	0.283807
1080.000000	0.284594
1081.000000	0.284856
1082.000000	0.285304
1083.000000	0.285311
1084.000000	0.284435
1085.000000	0.284405
1086.000000	0.284584
1087.000000	0.284790
1088.000000	0.285332
1089.000000	0.285710
1090.000000	0.285918
1091.000000	0.286378
1092.000000	0.286411
1093.000000	0.286325
1094.000000	0.286554
1095.000000	0.286615
1096.000000	0.286831
1097.000000	0.287450
1098.000000	0.287872
1099.000000	0.288210
1100.000000	0.288357
1101.000000	0.288279
1102.000000	0.288451
1103.000000	0.288521
1104.000000	0.288615
1105.000000	0.288896
1106.000000	0.289195
1107.000000	0.289454
1108.000000	0.289552
1109.000000	0.289671
1110.000000	0.289871
1111.000000	0.290047
1112.000000	0.289951
1113.000000	0.290242
1114.000000	0.290947
1115.000000	0.291216
1116.000000	0.291472
1117.000000	0.291542
1118.000000	0.291150
1119.000000	0.291181
1120.000000	0.291346
1121.000000	0.291492
1122.000000	0.291978
1123.000000	0.292424
1124.000000	0.292727
1125.000000	0.292861
1126.000000	0.292669
1127.000000	0.292662
1128.000000	0.292657
1129.000000	0.292473
1130.000000	0.292685
1131.000000	0.293345
1132.000000	0.293481
1133.000000	0.293515
1134.000000	0.293696
1135.000000	0.293675
1136.000000	0.293729
1137.000000	0.294017
1138.000000	0.294082
1139.000000	0.293908
1140.000000	0.294051
1141.000000	0.294293
1142.000000	0.294515
1143.000000	0.294882
1144.000000	0.295190
1145.000000	0.295314
1146.000000	0.295286
1147.000000	0.295348
1148.000000	0.295253
1149.000000	0.295331
1150.000000	0.295537
1151.000000	0.295660
1152.000000	0.295771
1153.000000	0.295821
1154.000000	0.295632
1155.000000	0.295745
1156.000000	0.296089
1157.000000	0.296243
1158.000000	0.296471
1159.000000	0.296577
1160.000000	0.296409
1161.000000	0.296352
1162.000000	0.296339
1163.000000	0.296554
1164.000000	0.296608
1165.000000	0.296648
1166.000000	0.296692
1167.000000	0.296634
1168.000000	0.296685
1169.000000	0.296858
1170.000000	0.296893
1171.000000	0.296997
1172.000000	0.297005
1173.000000	0.296773
1174.000000	0.296724
1175.000000	0.296694
1176.000000	0.296666
1177.000000	0.296806
1178.000000	0.296887
1179.000000	0.296956
1180.000000	0.296951
1181.000000	0.296967
1182.000000	0.296972
1183.000000	0.297050
1184.000000	0.297186
1185.000000	0.297286
1186.000000	0.297481
1187.000000	0.297512
1188.000000	0.297454
1189.000000	0.297363
1190.000000	0.297188
1191.000000	0.297141
1192.000000	0.297160
1193.000000	0.297340
1194.000000	0.297629
1195.000000	0.297783
1196.000000	0.297938
1197.000000	0.297974
1198.000000	0.297831
1199.000000	0.297803
1200.000000	0.297746
1201.000000	0.297730
1202.000000	0.297793
1203.000000	0.297883
1204.000000	0.297895
1205.000000	0.297932
1206.000000	0.297849
1207.000000	0.297759
1208.000000	0.297632
1209.000000	0.297376
1210.000000	0.297406
1211.000000	0.297642
1212.000000	0.297698
1213.000000	0.297910
1214.000000	0.298009
1215.000000	0.297842
1216.000000	0.297850
1217.000000	0.297993
1218.000000	0.297985
1219.000000	0.297959
1220.000000	0.297956
1221.000000	0.297785
1222.000000	0.297680
1223.000000	0.297678
1224.000000	0.297691
1225.000000	0.297752
1226.000000	0.297789
1227.000000	0.297916
1228.000000	0.298058
1229.000000	0.298007
1230.000000	0.297870
1231.000000	0.297767
1232.000000	0.297568
1233.000000	0.297570
1234.000000	0.297781
1235.000000	0.297776
1236.000000	0.297541
1237.000000	0.297562
1238.000000	0.297629
1239.000000	0.297622
1240.000000	0.297729
1241.000000	0.297749
1242.000000	0.297662
1243.000000	0.297581
1244.000000	0.297545
1245.000000	0.297649
1246.000000	0.297711
1247.000000	0.297721
1248.000000	0.297697
1249.000000	0.297707
1250.000000	0.297733
1251.000000	0.297767
1252.000000	0.297719
1253.000000	0.297730
1254.000000	0.297620
1255.000000	0.297247
1256.000000	0.297171
1257.000000	0.297257
1258.000000	0.297297
1259.000000	0.297419
1260.000000	0.297534
1261.000000	0.297480
1262.000000	0.297570
1263.000000	0.297843
1264.000000	0.297997
1265.000000	0.298014
1266.000000	0.298008
1267.000000	0.297926
1268.000000	0.297814
1269.000000	0.297745
1270.000000	0.297674
1271.000000	0.297581
1272.000000	0.297636
1273.000000	0.297606
1274.000000	0.297526
1275.000000	0.297555
1276.000000	0.297627
1277.000000	0.297648
1278.000000	0.297674
1279.000000	0.297695
1280.000000	0.297549
1281.000000	0.297475
1282.000000	0.297519
1283.000000	0.297596
1284.000000	0.297643
1285.000000	0.297659
1286.000000	0.297659
1287.000000	0.297691
1288.000000	0.297666
1289.000000	0.297577
1290.000000	0.297599
1291.000000	0.297640
1292.000000	0.297624
1293.000000	0.297588
1294.000000	0.297460
1295.000000	0.297327
1296.000000	0.297236
1297.000000	0.297244
1298.000000	0.297398
1299.000000	0.297479
1300.000000	0.297680
1301.000000	0.297900
1302.000000	0.297862
1303.000000	0.297704
1304.000000	0.297622
1305.000000	0.297493
1306.000000	0.297391
1307.000000	0.297378
1308.000000	0.297448
1309.000000	0.297568
1310.000000	0.297593
1311.000000	0.297662
1312.000000	0.297725
1313.000000	0.297787
1314.000000	0.297799
1315.000000	0.297722
1316.000000	0.297766
1317.000000	0.297797
1318.000000	0.297689
1319.000000	0.297598
1320.000000	0.297547
1321.000000	0.297301
1322.000000	0.297114
1323.000000	0.297236
1324.000000	0.297327
1325.000000	0.297355
1326.000000	0.297371
1327.000000	0.297272
1328.000000	0.297152
1329.000000	0.297057
1330.000000	0.297056
1331.000000	0.296993
1332.000000	0.296943
1333.000000	0.296862
1334.000000	0.296698
1335.000000	0.296722
1336.000000	0.296871
1337.000000	0.296978
1338.000000	0.297157
1339.000000	0.297221
1340.000000	0.297213
1341.000000	0.297164
1342.000000	0.297305
1343.000000	0.297431
1344.000000	0.297346
1345.000000	0.297414
1346.000000	0.297453
1347.000000	0.297364
1348.000000	0.297406
1349.000000	0.297300
1350.000000	0.297351
1351.000000	0.297383
1352.000000	0.297395
1353.000000	0.297583
1354.000000	0.297554
1355.000000	0.297393
1356.000000	0.297422
1357.000000	0.297272
1358.000000	0.297052
1359.000000	0.296919
1360.000000	0.296796
1361.000000	0.296719
1362.000000	0.296628
1363.000000	0.296498
1364.000000	0.296449
1365.000000	0.296373
1366.000000	0.296358
1367.000000	0.296390
1368.000000	0.296520
1369.000000	0.296771
1370.000000	0.296828
1371.000000	0.296756
1372.000000	0.296745
1373.000000	0.296560
1374.000000	0.296368
1375.000000	0.296376
1376.000000	0.296347
1377.000000	0.296455
1378.000000	0.296654
1379.000000	0.296535
1380.000000	0.296506
1381.000000	0.296509
1382.000000	0.296419
1383.000000	0.296491
1384.000000	0.296406
1385.000000	0.296220
1386.000000	0.296125
1387.000000	0.296094
1388.000000	0.296074
1389.000000	0.295982
1390.000000	0.295780
1391.000000	0.295496
1392.000000	0.295346
1393.000000	0.295165
1394.000000	0.295078
1395.000000	0.294934
1396.000000	0.294736
1397.000000	0.294545
1398.000000	0.294247
1399.000000	0.294100
1400.000000	0.294068
1401.000000	0.293925
1402.000000	0.293830
1403.000000	0.293774
1404.000000	0.293596
1405.000000	0.293317
1406.000000	0.293092
1407.000000	0.293016
1408.000000	0.292945
1409.000000	0.292930
1410.000000	0.292946
1411.000000	0.292769
1412.000000	0.292652
1413.000000	0.292608
1414.000000	0.292556
1415.000000	0.292594
1416.000000	0.292487
1417.000000	0.292424
1418.000000	0.292394
1419.000000	0.292372
1420.000000	0.292397
1421.000000	0.292429
1422.000000	0.292532
1423.000000	0.292684
1424.000000	0.292621
1425.000000	0.292587
1426.000000	0.292551
1427.000000	0.292528
1428.000000	0.292556
1429.000000	0.292609
1430.000000	0.292696
1431.000000	0.292768
1432.000000	0.292817
1433.000000	0.292958
1434.000000	0.293018
1435.000000	0.293073
1436.000000	0.293099
1437.000000	0.293083
1438.000000	0.293111
1439.000000	0.293202
1440.000000	0.293271
1441.000000	0.293386
1442.000000	0.293469
1443.000000	0.293468
1444.000000	0.293399
1445.000000	0.293459
1446.000000	0.293573
1447.000000	0.293614
1448.000000	0.293718
1449.000000	0.293805
1450.000000	0.293814
1451.000000	0.293944
1452.000000	0.294043
1453.000000	0.294160
1454.000000	0.294309
1455.000000	0.294453
1456.000000	0.294622
1457.000000	0.294573
1458.000000	0.294550
1459.000000	0.294593
1460.000000	0.294559
1461.000000	0.294661
1462.000000	0.294719
1463.000000	0.294586
1464.000000	0.294605
1465.000000	0.294692
1466.000000	0.294700
1467.000000	0.294842
1468.000000	0.294854
1469.000000	0.294839
1470.000000	0.294859
1471.000000	0.294889
1472.000000	0.295039
1473.000000	0.295209
1474.000000	0.295185
1475.000000	0.295078
1476.000000	0.294940
1477.000000	0.294837
1478.000000	0.294898
1479.000000	0.294973
1480.000000	0.294967
1481.000000	0.294895
1482.000000	0.294683
1483.000000	0.294632
1484.000000	0.294649
1485.000000	0.294644
1486.000000	0.294741
1487.000000	0.294817
1488.000000	0.294804
1489.000000	0.294876
1490.000000	0.294902
1491.000000	0.294916
1492.000000	0.294918
1493.000000	0.295000
1494.000000	0.295019
1495.000000	0.295070
1496.000000	0.295273
1497.000000	0.295284
1498.000000	0.295203
1499.000000	0.295134
1500.000000	0.295063
1501.000000	0.294954
1502.000000	0.294969
1503.000000	0.295059
1504.000000	0.295158
1505.000000	0.295240
1506.000000	0.295217
1507.000000	0.295253
1508.000000	0.295288
1509.000000	0.295282
1510.000000	0.295286
1511.000000	0.295318
1512.000000	0.295397
1513.000000	0.295321
1514.000000	0.295296
1515.000000	0.295334
1516.000000	0.295269
1517.000000	0.295189
1518.000000	0.295136
1519.000000	0.295058
1520.000000	0.294979
1521.000000	0.294862
1522.000000	0.294782
1523.000000	0.294736
1524.000000	0.294724
1525.000000	0.294868
1526.000000	0.295007
1527.000000	0.295046
1528.000000	0.295106
1529.000000	0.295107
1530.000000	0.294986
1531.000000	0.294965
1532.000000	0.294968
1533.000000	0.294926
1534.000000	0.294954
1535.000000	0.295061
1536.000000	0.295098
1537.000000	0.295144
1538.000000	0.295149
1539.000000	0.294973
1540.000000	0.294808
1541.000000	0.294792
1542.000000	0.294834
1543.000000	0.294854
1544.000000	0.294898
1545.000000	0.295043
1546.000000	0.295101
1547.000000	0.295139
1548.000000	0.295322
1549.000000	0.295413
1550.000000	0.295370
1551.000000	0.295440
1552.000000	0.295549
1553.000000	0.295489
1554.000000	0.295461
1555.000000	0.295509
1556.000000	0.295398
1557.000000	0.295245
1558.000000	0.295258
1559.000000	0.295350
1560.000000	0.295361
1561.000000	0.295487
1562.000000	0.295514
1563.000000	0.295452
1564.000000	0.295515
1565.000000	0.295682
1566.000000	0.295620
1567.000000	0.295602
1568.000000	0.295505
1569.000000	0.295257
1570.000000	0.295181
1571.000000	0.295232
1572.000000	0.295116
1573.000000	0.294916
1574.000000	0.294842
1575.000000	0.294732
1576.000000	0.294726
1577.000000	0.294921
1578.000000	0.294948
1579.000000	0.294923
1580.000000	0.294947
1581.000000	0.295046
1582.000000	0.295058
1583.000000	0.295030
1584.000000	0.295021
1585.000000	0.295048
1586.000000	0.295090
1587.000000	0.295250
1588.000000	0.295235
1589.000000	0.295028
1590.000000	0.294988
1591.000000	0.294970
1592.000000	0.294982
1593.000000	0.295219
1594.000000	0.295230
1595.000000	0.295118
1596.000000	0.295103
1597.000000	0.295078
1598.000000	0.295069
1599.000000	0.295145
1600.000000	0.295142
1601.000000	0.295159
1602.000000	0.295164
1603.000000	0.295177
1604.000000	0.295235
1605.000000	0.295358
1606.000000	0.295374
1607.000000	0.295424
1608.000000	0.295423
1609.000000	0.295374
1610.000000	0.295302
1611.000000	0.295218
1612.000000	0.295258
1613.000000	0.295427
1614.000000	0.295449
1615.000000	0.295561
1616.000000	0.295630
1617.000000	0.295523
1618.000000	0.295536
1619.000000	0.295666
1620.000000	0.295650
1621.000000	0.295598
1622.000000	0.295537
1623.000000	0.295326
1624.000000	0.295238
1625.000000	0.295026
1626.000000	0.294911
1627.000000	0.294997
1628.000000	0.294970
1629.000000	0.294897
1630.000000	0.294832
1631.000000	0.294661
1632.000000	0.294484
1633.000000	0.294279
1634.000000	0.294197
1635.000000	0.294141
1636.000000	0.294141
1637.000000	0.294344
1638.000000	0.294372
1639.000000	0.294369
1640.000000	0.294386
1641.000000	0.294452
1642.000000	0.294398
1643.000000	0.294316
1644.000000	0.294311
1645.000000	0.294254
1646.000000	0.294193
1647.000000	0.294251
1648.000000	0.294212
1649.000000	0.294115
1650.000000	0.294157
1651.000000	0.294316
1652.000000	0.294436
1653.000000	0.294589
1654.000000	0.294649
1655.000000	0.294565
1656.000000	0.294579
1657.000000	0.294679
1658.000000	0.294661
1659.000000	0.294776
1660.000000	0.294778
1661.000000	0.294536
1662.000000	0.294445
1663.000000	0.294367
1664.000000	0.294312
1665.000000	0.294320
1666.000000	0.294283
1667.000000	0.294171
1668.000000	0.294064
1669.000000	0.293865
1670.000000	0.293692
1671.000000	0.293634
1672.000000	0.293586
1673.000000	0.293522
1674.000000	0.293553
1675.000000	0.293501
1676.000000	0.293509
1677.000000	0.293405
1678.000000	0.293265
1679.000000	0.293320
1680.000000	0.293328
1681.000000	0.293390
1682.000000	0.293340
1683.000000	0.293242
1684.000000	0.293357
1685.000000	0.293298
1686.000000	0.293189
1687.000000	0.293377
1688.000000	0.293395
1689.000000	0.293374
1690.000000	0.293520
1691.000000	0.293611
1692.000000	0.293530
1693.000000	0.293500
1694.000000	0.293518
1695.000000	0.293560
1696.000000	0.293626
1697.000000	0.293597
1698.000000	0.293517
1699.000000	0.293486
1700.000000	0.293402
1701.000000	0.293477
1702.000000	0.293583
1703.000000	0.293538
1704.000000	0.293533
1705.000000	0.293509
1706.000000	0.293395
1707.000000	0.293306
1708.000000	0.293192
1709.000000	0.293104
1710.000000	0.293071
1711.000000	0.293138
1712.000000	0.293477
1713.000000	0.293502
1714.000000	0.293370
1715.000000	0.293364
1716.000000	0.293306
1717.000000	0.293195
1718.000000	0.293081
1719.000000	0.293029
1720.000000	0.292947
1721.000000	0.292893
1722.000000	0.293011
1723.000000	0.293037
1724.000000	0.292985
1725.000000	0.292949
1726.000000	0.292840
1727.000000	0.292789
1728.000000	0.292713
1729.000000	0.292517
1730.000000	0.292418
1731.000000	0.292320
1732.000000	0.292103
1733.000000	0.292066
1734.000000	0.292094
1735.000000	0.292002
1736.000000	0.291810
1737.000000	0.291748
1738.000000	0.291688
1739.000000	0.291714
1740.000000	0.291852
1741.000000	0.291925
1742.000000	0.292040
1743.000000	0.292069
1744.000000	0.292033
1745.000000	0.292045
1746.000000	0.292000
1747.000000	0.292057
1748.000000	0.292034
1749.000000	0.291895
1750.000000	0.291811
1751.000000	0.291890
1752.000000	0.291996
1753.000000	0.292058
1754.000000	0.292064
1755.000000	0.291904
1756.000000	0.291862
1757.000000	0.291923
1758.000000	0.291883
1759.000000	0.291768
1760.000000	0.291774
1761.000000	0.291678
1762.000000	0.291704
1763.000000	0.292044
1764.000000	0.292146
1765.000000	0.292047
1766.000000	0.292111
1767.000000	0.292163
1768.000000	0.292085
1769.000000	0.292079
1770.000000	0.292129
1771.000000	0.292018
1772.000000	0.291995
1773.000000	0.292128
1774.000000	0.292115
1775.000000	0.292075
1776.000000	0.291950
1777.000000	0.291689
1778.000000	0.291539
1779.000000	0.291316
1780.000000	0.291222
1781.000000	0.291232
1782.000000	0.291201
1783.000000	0.291206
1784.000000	0.291254
1785.000000	0.291282
1786.000000	0.291313
1787.000000	0.291454
1788.000000	0.291559
1789.000000	0.291513
1790.000000	0.291627
1791.000000	0.291520
1792.000000	0.291234
1793.000000	0.291169
1794.000000	0.291096
1795.000000	0.291090
1796.000000	0.291381
1797.000000	0.291496
1798.000000	0.291376
1799.000000	0.291417
1800.000000	0.291602
1801.000000	0.291062
1802.000000	0.291327
1803.000000	0.292006
1804.000000	0.291805
1805.000000	0.291256
1806.000000	0.290700
1807.000000	0.289165
1808.000000	0.288440
1809.000000	0.287918
1810.000000	0.287867
1811.000000	0.287762
1812.000000	0.288161
1813.000000	0.288174
1814.000000	0.287891
1815.000000	0.288079
1816.000000	0.288433
1817.000000	0.288490
1818.000000	0.288838
1819.000000	0.289347
1820.000000	0.288613
1821.000000	0.288809
1822.000000	0.288568
1823.000000	0.287814
1824.000000	0.287622
1825.000000	0.287399
1826.000000	0.287537
1827.000000	0.287841
1828.000000	0.288801
1829.000000	0.289061
1830.000000	0.289367
1831.000000	0.289720
1832.000000	0.289863
1833.000000	0.290044
1834.000000	0.290507
1835.000000	0.290683
1836.000000	0.290577
1837.000000	0.290510
1838.000000	0.290541
1839.000000	0.290090
1840.000000	0.289065
1841.000000	0.288132
1842.000000	0.287567
1843.000000	0.286459
1844.000000	0.286393
1845.000000	0.287443
1846.000000	0.287842
1847.000000	0.288206
1848.000000	0.288668
1849.000000	0.288629
1850.000000	0.288702
1851.000000	0.288593
1852.000000	0.287990
1853.000000	0.288187
1854.000000	0.288491
1855.000000	0.288552
1856.000000	0.288793
1857.000000	0.289348
1858.000000	0.288781
1859.000000	0.288004
1860.000000	0.287700
1861.000000	0.287258
1862.000000	0.286887
1863.000000	0.286647
1864.000000	0.286727
1865.000000	0.286960
1866.000000	0.287125
1867.000000	0.287504
1868.000000	0.288224
1869.000000	0.288010
1870.000000	0.287676
1871.000000	0.287330
1872.000000	0.286778
1873.000000	0.286708
1874.000000	0.287112
1875.000000	0.287085
1876.000000	0.286871
1877.000000	0.286546
1878.000000	0.285983
1879.000000	0.285086
1880.000000	0.284728
1881.000000	0.284651
1882.000000	0.284100
1883.000000	0.283883
1884.000000	0.283752
1885.000000	0.283425
1886.000000	0.282891
1887.000000	0.282361
1888.000000	0.281989
1889.000000	0.281037
1890.000000	0.280763
1891.000000	0.280872
1892.000000	0.280633
1893.000000	0.280920
1894.000000	0.281031
1895.000000	0.280562
1896.000000	0.279852
1897.000000	0.279371
1898.000000	0.278196
1899.000000	0.277310
1900.000000	0.277308
1901.000000	0.276682
1902.000000	0.275850
1903.000000	0.274988
1904.000000	0.274479
1905.000000	0.274518
1906.000000	0.274499
1907.000000	0.274986
1908.000000	0.275708
1909.000000	0.275573
1910.000000	0.275455
1911.000000	0.275880
1912.000000	0.275789
1913.000000	0.275763
1914.000000	0.276152
1915.000000	0.276231
1916.000000	0.276633
1917.000000	0.276973
1918.000000	0.277853
1919.000000	0.278056
1920.000000	0.278083
1921.000000	0.278270
1922.000000	0.278049
1923.000000	0.278286
1924.000000	0.278777
1925.000000	0.278523
1926.000000	0.278433
1927.000000	0.278613
1928.000000	0.278768
1929.000000	0.278882
1930.000000	0.279353
1931.000000	0.279678
1932.000000	0.279574
1933.000000	0.279204
1934.000000	0.278850
1935.000000	0.278703
1936.000000	0.278684
1937.000000	0.278804
1938.000000	0.278851
1939.000000	0.279009
1940.000000	0.279201
1941.000000	0.279765
1942.000000	0.280265
1943.000000	0.280742
1944.000000	0.281345
1945.000000	0.281862
1946.000000	0.282177
1947.000000	0.281920
1948.000000	0.281592
1949.000000	0.281149
1950.000000	0.280466
1951.000000	0.279920
1952.000000	0.279666
1953.000000	0.279242
1954.000000	0.279327
1955.000000	0.279366
1956.000000	0.279007
1957.000000	0.279433
1958.000000	0.278976
1959.000000	0.278561
1960.000000	0.279165
1961.000000	0.278665
1962.000000	0.278434
1963.000000	0.278369
1964.000000	0.278407
1965.000000	0.277754
1966.000000	0.278162
1967.000000	0.278314
1968.000000	0.278541
1969.000000	0.279785
1970.000000	0.280194
1971.000000	0.280201
1972.000000	0.280783
1973.000000	0.280710
1974.000000	0.279574
1975.000000	0.279518
1976.000000	0.280078
1977.000000	0.280122
1978.000000	0.280282
1979.000000	0.280787
1980.000000	0.281337
1981.000000	0.281624
1982.000000	0.281886
1983.000000	0.282415
1984.000000	0.282171
1985.000000	0.281016
1986.000000	0.280488
1987.000000	0.279860
1988.000000	0.279363
1989.000000	0.279866
1990.000000	0.280203
1991.000000	0.280117
1992.000000	0.279916
1993.000000	0.279462
1994.000000	0.279446
1995.000000	0.279896
1996.000000	0.280450
1997.000000	0.280783
1998.000000	0.281194
1999.000000	0.281418
2000.000000	0.281342
2001.000000	0.281440
2002.000000	0.281959
2003.000000	0.282015
2004.000000	0.282258
2005.000000	0.282535
2006.000000	0.282665
2007.000000	0.282670
2008.000000	0.282722
2009.000000	0.282802
2010.000000	0.282844
2011.000000	0.282867
2012.000000	0.282705
2013.000000	0.282188
2014.000000	0.281933
2015.000000	0.282160
2016.000000	0.282045
2017.000000	0.282367
2018.000000	0.282473
2019.000000	0.282380
2020.000000	0.282070
2021.000000	0.282022
2022.000000	0.282441
2023.000000	0.282366
2024.000000	0.282065
2025.000000	0.282014
2026.000000	0.281801
2027.000000	0.281257
2028.000000	0.281153
2029.000000	0.280739
2030.000000	0.280479
2031.000000	0.280354
2032.000000	0.280188
2033.000000	0.280379
2034.000000	0.280657
2035.000000	0.281038
2036.000000	0.281443
2037.000000	0.282839
2038.000000	0.283050
2039.000000	0.282593
2040.000000	0.282427
2041.000000	0.282250
2042.000000	0.282003
2043.000000	0.282355
2044.000000	0.282277
2045.000000	0.281582
2046.000000	0.280831
2047.000000	0.280729
2048.000000	0.281140
2049.000000	0.281450
2050.000000	0.281916
2051.000000	0.282118
2052.000000	0.281837
2053.000000	0.281601
2054.000000	0.281804
2055.000000	0.281465
2056.000000	0.281325
2057.000000	0.281469
2058.000000	0.281402
2059.000000	0.282013
2060.000000	0.282376
2061.000000	0.282839
2062.000000	0.283203
2063.000000	0.283588
2064.000000	0.283772
2065.000000	0.284247
2066.000000	0.284166
2067.000000	0.284013
2068.000000	0.283870
2069.000000	0.283313
2070.000000	0.283143
2071.000000	0.282988
2072.000000	0.282722
2073.000000	0.282549
2074.000000	0.281888
2075.000000	0.281589
2076.000000	0.281472
2077.000000	0.281176
2078.000000	0.281099
2079.000000	0.280569
2080.000000	0.279336
2081.000000	0.278810
2082.000000	0.278383
2083.000000	0.278197
2084.000000	0.278094
2085.000000	0.278721
2086.000000	0.278864
2087.000000	0.278516
2088.000000	0.279570
2089.000000	0.280368
2090.000000	0.280713
2091.000000	0.281487
2092.000000	0.281685
2093.000000	0.280738
2094.000000	0.280375
2095.000000	0.280201
2096.000000	0.279917
2097.000000	0.279216
2098.000000	0.279455
2099.000000	0.279556
2100.000000	0.279329
2101.000000	0.279473
2102.000000	0.279241
2103.000000	0.278479
2104.000000	0.278252
2105.000000	0.278293
2106.000000	0.278353
2107.000000	0.278781
2108.000000	0.280208
2109.000000	0.280753
2110.000000	0.281058
2111.000000	0.281061
2112.000000	0.280380
2113.000000	0.279395
2114.000000	0.279690
2115.000000	0.280038
2116.000000	0.280433
2117.000000	0.280914
2118.000000	0.280809
2119.000000	0.280698
2120.000000	0.280695
2121.000000	0.280942
2122.000000	0.281152
2123.000000	0.281065
2124.000000	0.281285
2125.000000	0.282271
2126.000000	0.282192
2127.000000	0.281612
2128.000000	0.281479
2129.000000	0.280537
2130.000000	0.280432
2131.000000	0.281006
2132.000000	0.280239
2133.000000	0.280133
2134.000000	0.279765
2135.000000	0.279321
2136.000000	0.279417
2137.000000	0.279260
2138.000000	0.278956
2139.000000	0.278913
2140.000000	0.278970
2141.000000	0.279150
2142.000000	0.279523
2143.000000	0.279594
2144.000000	0.279746
2145.000000	0.280038
2146.000000	0.279904
2147.000000	0.281281
2148.000000	0.282638
2149.000000	0.283002
2150.000000	0.283484
2151.000000	0.283401
2152.000000	0.282546
2153.000000	0.281581
2154.000000	0.280892
2155.000000	0.280005
2156.000000	0.279489
2157.000000	0.279379
2158.000000	0.279356
2159.000000	0.279678
2160.000000	0.279870
2161.000000	0.280160
2162.000000	0.280347
2163.000000	0.280260
2164.000000	0.280342
2165.000000	0.280876
2166.000000	0.280374
2167.000000	0.280466
2168.000000	0.280781
2169.000000	0.279818
2170.000000	0.280005
2171.000000	0.279983
2172.000000	0.279734
2173.000000	0.279680
2174.000000	0.280224
2175.000000	0.280074
2176.000000	0.279119
2177.000000	0.279106
2178.000000	0.279594
2179.000000	0.279994
2180.000000	0.281078
2181.000000	0.281906
2182.000000	0.282367
2183.000000	0.281664
2184.000000	0.281194
2185.000000	0.280972
2186.000000	0.280881
2187.000000	0.281015
2188.000000	0.280565
2189.000000	0.280726
2190.000000	0.280863
2191.000000	0.280108
2192.000000	0.280121
2193.000000	0.280734
2194.000000	0.280808
2195.000000	0.281366
2196.000000	0.281381
2197.000000	0.280671
2198.000000	0.280605
2199.000000	0.280302
2200.000000	0.280138
2201.000000	0.280307
2202.000000	0.280765
2203.000000	0.281627
2204.000000	0.281923
2205.000000	0.281874
2206.000000	0.282115
2207.000000	0.279410
2208.000000	0.277276
2209.000000	0.276278
2210.000000	0.276404
2211.000000	0.277052
2212.000000	0.279404
2213.000000	0.280255
2214.000000	0.279826
2215.000000	0.279189
2216.000000	0.278470
2217.000000	0.277618
2218.000000	0.276233
2219.000000	0.276296
2220.000000	0.276746
2221.000000	0.277121
2222.000000	0.277627
2223.000000	0.278260
2224.000000	0.279282
2225.000000	0.280582
2226.000000	0.279452
2227.000000	0.280324
2228.000000	0.279584
2229.000000	0.275520
2230.000000	0.272953
2231.000000	0.270745
2232.000000	0.269978
2233.000000	0.272470
2234.000000	0.275746
2235.000000	0.279195
2236.000000	0.280047
2237.000000	0.278499
2238.000000	0.278125
2239.000000	0.276453
2240.000000	0.275602
2241.000000	0.275379
2242.000000	0.275709
2243.000000	0.276801
2244.000000	0.276837
2245.000000	0.277117
2246.000000	0.277290
2247.000000	0.275694
2248.000000	0.275316
2249.000000	0.276114
2250.000000	0.276852
2251.000000	0.276957
2252.000000	0.275815
2253.000000	0.275284
2254.000000	0.275602
2255.000000	0.275846
2256.000000	0.277012
2257.000000	0.277504
2258.000000	0.278168
2259.000000	0.279223
2260.000000	0.280270
2261.000000	0.280392
2262.000000	0.279669
2263.000000	0.279248
2264.000000	0.278728
2265.000000	0.277529
2266.000000	0.276040
2267.000000	0.275622
2268.000000	0.274127
2269.000000	0.274084
2270.000000	0.276804
2271.000000	0.277155
2272.000000	0.276448
2273.000000	0.276373
2274.000000	0.274904
2275.000000	0.274491
2276.000000	0.274696
2277.000000	0.275789
2278.000000	0.276929
2279.000000	0.278535
2280.000000	0.278776
2281.000000	0.279412
2282.000000	0.278595
2283.000000	0.276828
2284.000000	0.275539
2285.000000	0.272285
2286.000000	0.271774
2287.000000	0.271400
2288.000000	0.271240
2289.000000	0.274548
2290.000000	0.274171
2291.000000	0.274102
2292.000000	0.274883
2293.000000	0.273837
2294.000000	0.274246
2295.000000	0.276430
2296.000000	0.276465
2297.000000	0.275396
2298.000000	0.274762
2299.000000	0.273018
2300.000000	0.272753
2301.000000	0.274480
2302.000000	0.275193
2303.000000	0.276179
2304.000000	0.275315
2305.000000	0.271982
2306.000000	0.270025
2307.000000	0.266421
2308.000000	0.267183
2309.000000	0.268194
2310.000000	0.269879
2311.000000	0.272250
2312.000000	0.272149
2313.000000	0.270958
2314.000000	0.269794
2315.000000	0.269832
2316.000000	0.270438
2317.000000	0.271928
2318.000000	0.274735
2319.000000	0.277102
2320.000000	0.276859
2321.000000	0.276489
2322.000000	0.277095
2323.000000	0.275270
2324.000000	0.274624
2325.000000	0.274367
2326.000000	0.270622
2327.000000	0.268026
2328.000000	0.265508
2329.000000	0.263722
2330.000000	0.265235
2331.000000	0.265702
2332.000000	0.267910
2333.000000	0.270434
2334.000000	0.272225
2335.000000	0.273905
2336.000000	0.275106
2337.000000	0.274588
2338.000000	0.272151
2339.000000	0.271023
2340.000000	0.270705
2341.000000	0.270246
2342.000000	0.270652
2343.000000	0.270796
2344.000000	0.269017
2345.000000	0.269348
2346.000000	0.270497
2347.000000	0.271184
2348.000000	0.273367
2349.000000	0.273980
2350.000000	0.273603
2351.000000	0.273877
2352.000000	0.272714
2353.000000	0.273558
2354.000000	0.274571
2355.000000	0.276451
2356.000000	0.276552
2357.000000	0.274554
2358.000000	0.271564
2359.000000	0.268498
2360.000000	0.267649
2361.000000	0.267873
2362.000000	0.268179
2363.000000	0.267689
2364.000000	0.268550
2365.000000	0.268877
2366.000000	0.269341
2367.000000	0.273461
2368.000000	0.274999
2369.000000	0.275845
2370.000000	0.278433
2371.000000	0.279057
2372.000000	0.278351
2373.000000	0.275451
2374.000000	0.275377
2375.000000	0.275541
2376.000000	0.275653
2377.000000	0.280420
2378.000000	0.276778
2379.000000	0.272846
2380.000000	0.270346
2381.000000	0.266488
2382.000000	0.269614
2383.000000	0.270702
2384.000000	0.271786
2385.000000	0.270497
2386.000000	0.271847
2387.000000	0.275444
2388.000000	0.275395
2389.000000	0.279355
2390.000000	0.277570
2391.000000	0.271989
2392.000000	0.269261
2393.000000	0.267602
2394.000000	0.270779
2395.000000	0.277284
2396.000000	0.282141
2397.000000	0.280237
2398.000000	0.271158
2399.000000	0.259036
2400.000000	0.249135
2401.000000	0.245244
2402.000000	0.249053
2403.000000	0.259021
2404.000000	0.265662
2405.000000	0.270229
2406.000000	0.278753
2407.000000	0.282682
2408.000000	0.279908
2409.000000	0.278460
2410.000000	0.276760
2411.000000	0.272923
2412.000000	0.271540
2413.000000	0.271969
2414.000000	0.270587
2415.000000	0.269038
2416.000000	0.275609
2417.000000	0.284838
2418.000000	0.289511
2419.000000	0.291747
2420.000000	0.287668
2421.000000	0.277365
2422.000000	0.268117
2423.000000	0.259441
2424.000000	0.254479
2425.000000	0.254937
2426.000000	0.256629
2427.000000	0.267126
2428.000000	0.275866
2429.000000	0.281619
2430.000000	0.285107
2431.000000	0.278425
2432.000000	0.277857
2433.000000	0.282512
2434.000000	0.283787
2435.000000	0.285327
2436.000000	0.276164
2437.000000	0.257404
2438.000000	0.255649
2439.000000	0.264324
2440.000000	0.268957
2441.000000	0.282374
2442.000000	0.286441
2443.000000	0.275087
2444.000000	0.274829
2445.000000	0.269620
2446.000000	0.264062
2447.000000	0.281456
2448.000000	0.289735
2449.000000	0.294592
2450.000000	0.308131
2451.000000	0.299246
2452.000000	0.279529
2453.000000	0.273141
2454.000000	0.266840
2455.000000	0.256432
2456.000000	0.268736
2457.000000	0.287273
2458.000000	0.284123
2459.000000	0.286519
2460.000000	0.277336
2461.000000	0.249950
2462.000000	0.243845
2463.000000	0.235326
2464.000000	0.229470
2465.000000	0.240912
2466.000000	0.239219
2467.000000	0.241260
2468.000000	0.248659
2469.000000	0.243179
2470.000000	0.237850
2471.000000	0.234536
2472.000000	0.243203
2473.000000	0.247901
2474.000000	0.250126
2475.000000	0.259149
2476.000000	0.249895
2477.000000	0.258426
2478.000000	0.256992
2479.000000	0.241354
2480.000000	0.253650
2481.000000	0.242898
2482.000000	0.240350
2483.000000	0.257537
2484.000000	0.254070
2485.000000	0.260540
2486.000000	0.283836
2487.000000	0.320819
2488.000000	0.328222
2489.000000	0.297678
2490.000000	0.274359
2491.000000	0.260403
2492.000000	0.244327
2493.000000	0.246581
2494.000000	0.273991
2495.000000	0.303403
2496.000000	0.307788
2497.000000	0.343615
2498.000000	0.344055
2499.000000	0.289558
2500.000000	0.278646
