# Wavelength	NAu-1-70_HEX-20_FV7-10_00000.asd.rts.txt
350.000000	0.112728
351.000000	0.088728
352.000000	0.094490
353.000000	0.109772
354.000000	0.117439
355.000000	0.111447
356.000000	0.105580
357.000000	0.107851
358.000000	0.121864
359.000000	0.125320
360.000000	0.118855
361.000000	0.109704
362.000000	0.110282
363.000000	0.110188
364.000000	0.104150
365.000000	0.104459
366.000000	0.106035
367.000000	0.107138
368.000000	0.108823
369.000000	0.110884
370.000000	0.110461
371.000000	0.105298
372.000000	0.103948
373.000000	0.105044
374.000000	0.107220
375.000000	0.112081
376.000000	0.114096
377.000000	0.113118
378.000000	0.114141
379.000000	0.114625
380.000000	0.113947
381.000000	0.112754
382.000000	0.114124
383.000000	0.116324
384.000000	0.117572
385.000000	0.116876
386.000000	0.116610
387.000000	0.117887
388.000000	0.120573
389.000000	0.122972
390.000000	0.124749
391.000000	0.125928
392.000000	0.125152
393.000000	0.126220
394.000000	0.130847
395.000000	0.132446
396.000000	0.132959
397.000000	0.133999
398.000000	0.137077
399.000000	0.138887
400.000000	0.139877
401.000000	0.141939
402.000000	0.144234
403.000000	0.146545
404.000000	0.148588
405.000000	0.148704
406.000000	0.150060
407.000000	0.153172
408.000000	0.153862
409.000000	0.154845
410.000000	0.156410
411.000000	0.157607
412.000000	0.159940
413.000000	0.161969
414.000000	0.162239
415.000000	0.162883
416.000000	0.163425
417.000000	0.163693
418.000000	0.164698
419.000000	0.165616
420.000000	0.166116
421.000000	0.166204
422.000000	0.166462
423.000000	0.166870
424.000000	0.167202
425.000000	0.166798
426.000000	0.166609
427.000000	0.167083
428.000000	0.166497
429.000000	0.166195
430.000000	0.166509
431.000000	0.166442
432.000000	0.166501
433.000000	0.166581
434.000000	0.166427
435.000000	0.166429
436.000000	0.166379
437.000000	0.166035
438.000000	0.165630
439.000000	0.164955
440.000000	0.164141
441.000000	0.163864
442.000000	0.163320
443.000000	0.162557
444.000000	0.162320
445.000000	0.162141
446.000000	0.162147
447.000000	0.162465
448.000000	0.163000
449.000000	0.163907
450.000000	0.165322
451.000000	0.167246
452.000000	0.169766
453.000000	0.172665
454.000000	0.175515
455.000000	0.178555
456.000000	0.181860
457.000000	0.185329
458.000000	0.189003
459.000000	0.192426
460.000000	0.195268
461.000000	0.197767
462.000000	0.200244
463.000000	0.202638
464.000000	0.204609
465.000000	0.206519
466.000000	0.208175
467.000000	0.209145
468.000000	0.210561
469.000000	0.212048
470.000000	0.213078
471.000000	0.213941
472.000000	0.214874
473.000000	0.215957
474.000000	0.216818
475.000000	0.217382
476.000000	0.217960
477.000000	0.219065
478.000000	0.219868
479.000000	0.220558
480.000000	0.221399
481.000000	0.222044
482.000000	0.222647
483.000000	0.223244
484.000000	0.224117
485.000000	0.224890
486.000000	0.225543
487.000000	0.226180
488.000000	0.227010
489.000000	0.227910
490.000000	0.228490
491.000000	0.229268
492.000000	0.230201
493.000000	0.231002
494.000000	0.231869
495.000000	0.232778
496.000000	0.233652
497.000000	0.234477
498.000000	0.235332
499.000000	0.236263
500.000000	0.237104
501.000000	0.237866
502.000000	0.238704
503.000000	0.239753
504.000000	0.240779
505.000000	0.241756
506.000000	0.242703
507.000000	0.243598
508.000000	0.244500
509.000000	0.245448
510.000000	0.246583
511.000000	0.247776
512.000000	0.248930
513.000000	0.249901
514.000000	0.250854
515.000000	0.251953
516.000000	0.253245
517.000000	0.254303
518.000000	0.255422
519.000000	0.256747
520.000000	0.257997
521.000000	0.259258
522.000000	0.260543
523.000000	0.261712
524.000000	0.262979
525.000000	0.264377
526.000000	0.265880
527.000000	0.267250
528.000000	0.268573
529.000000	0.270043
530.000000	0.271569
531.000000	0.273182
532.000000	0.274777
533.000000	0.276244
534.000000	0.277711
535.000000	0.279248
536.000000	0.280933
537.000000	0.282535
538.000000	0.284104
539.000000	0.285780
540.000000	0.287426
541.000000	0.289034
542.000000	0.290661
543.000000	0.292297
544.000000	0.293969
545.000000	0.295612
546.000000	0.297265
547.000000	0.298874
548.000000	0.300492
549.000000	0.302144
550.000000	0.303747
551.000000	0.305351
552.000000	0.306972
553.000000	0.308585
554.000000	0.310169
555.000000	0.311732
556.000000	0.313371
557.000000	0.314876
558.000000	0.316337
559.000000	0.317823
560.000000	0.319271
561.000000	0.320729
562.000000	0.322116
563.000000	0.323353
564.000000	0.324593
565.000000	0.325869
566.000000	0.327115
567.000000	0.328365
568.000000	0.329594
569.000000	0.330721
570.000000	0.331797
571.000000	0.332820
572.000000	0.333781
573.000000	0.334667
574.000000	0.335486
575.000000	0.336317
576.000000	0.337158
577.000000	0.337899
578.000000	0.338555
579.000000	0.339250
580.000000	0.339862
581.000000	0.340373
582.000000	0.340957
583.000000	0.341462
584.000000	0.341888
585.000000	0.342321
586.000000	0.342765
587.000000	0.343157
588.000000	0.343453
589.000000	0.343831
590.000000	0.344165
591.000000	0.344388
592.000000	0.344635
593.000000	0.344821
594.000000	0.344952
595.000000	0.345142
596.000000	0.345286
597.000000	0.345419
598.000000	0.345515
599.000000	0.345625
600.000000	0.345711
601.000000	0.345669
602.000000	0.345691
603.000000	0.345758
604.000000	0.345841
605.000000	0.345854
606.000000	0.345896
607.000000	0.345963
608.000000	0.345989
609.000000	0.345976
610.000000	0.346012
611.000000	0.346159
612.000000	0.346189
613.000000	0.346139
614.000000	0.346109
615.000000	0.346118
616.000000	0.346127
617.000000	0.346091
618.000000	0.346075
619.000000	0.346040
620.000000	0.345925
621.000000	0.345749
622.000000	0.345697
623.000000	0.345692
624.000000	0.345649
625.000000	0.345640
626.000000	0.345630
627.000000	0.345612
628.000000	0.345622
629.000000	0.345705
630.000000	0.345723
631.000000	0.345761
632.000000	0.345807
633.000000	0.345886
634.000000	0.345994
635.000000	0.346065
636.000000	0.346137
637.000000	0.346214
638.000000	0.346284
639.000000	0.346419
640.000000	0.346637
641.000000	0.346723
642.000000	0.346892
643.000000	0.347116
644.000000	0.347311
645.000000	0.347541
646.000000	0.347768
647.000000	0.347933
648.000000	0.348088
649.000000	0.348310
650.000000	0.348566
651.000000	0.348749
652.000000	0.348904
653.000000	0.349107
654.000000	0.349346
655.000000	0.349559
656.000000	0.349829
657.000000	0.350154
658.000000	0.350444
659.000000	0.350717
660.000000	0.350982
661.000000	0.351289
662.000000	0.351571
663.000000	0.351889
664.000000	0.352260
665.000000	0.352666
666.000000	0.353049
667.000000	0.353343
668.000000	0.353718
669.000000	0.354082
670.000000	0.354402
671.000000	0.354772
672.000000	0.355213
673.000000	0.355675
674.000000	0.356060
675.000000	0.356429
676.000000	0.356840
677.000000	0.357360
678.000000	0.357911
679.000000	0.358474
680.000000	0.359030
681.000000	0.359470
682.000000	0.359987
683.000000	0.360548
684.000000	0.361167
685.000000	0.361718
686.000000	0.362265
687.000000	0.362863
688.000000	0.363395
689.000000	0.363924
690.000000	0.364536
691.000000	0.365131
692.000000	0.365729
693.000000	0.366389
694.000000	0.366993
695.000000	0.367590
696.000000	0.368213
697.000000	0.368885
698.000000	0.369548
699.000000	0.370221
700.000000	0.370936
701.000000	0.371675
702.000000	0.372422
703.000000	0.373136
704.000000	0.373805
705.000000	0.374508
706.000000	0.375222
707.000000	0.375986
708.000000	0.376717
709.000000	0.377437
710.000000	0.378192
711.000000	0.378947
712.000000	0.379713
713.000000	0.380494
714.000000	0.381200
715.000000	0.381916
716.000000	0.382652
717.000000	0.383357
718.000000	0.384109
719.000000	0.384850
720.000000	0.385552
721.000000	0.386293
722.000000	0.387050
723.000000	0.387854
724.000000	0.388579
725.000000	0.389295
726.000000	0.390054
727.000000	0.390692
728.000000	0.391293
729.000000	0.391943
730.000000	0.392624
731.000000	0.393314
732.000000	0.393949
733.000000	0.394554
734.000000	0.395111
735.000000	0.395641
736.000000	0.396275
737.000000	0.396843
738.000000	0.397242
739.000000	0.397738
740.000000	0.398294
741.000000	0.398831
742.000000	0.399341
743.000000	0.399784
744.000000	0.400193
745.000000	0.400610
746.000000	0.401092
747.000000	0.401554
748.000000	0.401964
749.000000	0.402365
750.000000	0.402737
751.000000	0.403029
752.000000	0.403325
753.000000	0.403653
754.000000	0.403959
755.000000	0.404282
756.000000	0.404596
757.000000	0.404826
758.000000	0.405148
759.000000	0.405452
760.000000	0.405591
761.000000	0.405748
762.000000	0.405817
763.000000	0.405798
764.000000	0.405848
765.000000	0.405888
766.000000	0.405960
767.000000	0.406082
768.000000	0.406160
769.000000	0.406120
770.000000	0.405990
771.000000	0.405928
772.000000	0.405864
773.000000	0.405734
774.000000	0.405643
775.000000	0.405540
776.000000	0.405420
777.000000	0.405259
778.000000	0.405052
779.000000	0.404868
780.000000	0.404676
781.000000	0.404321
782.000000	0.404024
783.000000	0.403852
784.000000	0.403593
785.000000	0.403362
786.000000	0.403153
787.000000	0.402946
788.000000	0.402740
789.000000	0.402447
790.000000	0.402065
791.000000	0.401701
792.000000	0.401325
793.000000	0.400935
794.000000	0.400542
795.000000	0.400163
796.000000	0.399758
797.000000	0.399328
798.000000	0.398940
799.000000	0.398535
800.000000	0.398097
801.000000	0.397643
802.000000	0.397263
803.000000	0.396818
804.000000	0.396308
805.000000	0.395844
806.000000	0.395331
807.000000	0.394854
808.000000	0.394385
809.000000	0.393920
810.000000	0.393466
811.000000	0.393002
812.000000	0.392490
813.000000	0.391987
814.000000	0.391497
815.000000	0.391006
816.000000	0.390476
817.000000	0.389955
818.000000	0.389399
819.000000	0.388872
820.000000	0.388448
821.000000	0.388039
822.000000	0.387514
823.000000	0.386931
824.000000	0.386295
825.000000	0.385743
826.000000	0.385167
827.000000	0.384561
828.000000	0.383989
829.000000	0.383460
830.000000	0.382949
831.000000	0.382510
832.000000	0.382024
833.000000	0.381552
834.000000	0.381072
835.000000	0.380595
836.000000	0.380107
837.000000	0.379523
838.000000	0.378922
839.000000	0.378454
840.000000	0.377961
841.000000	0.377460
842.000000	0.376960
843.000000	0.376559
844.000000	0.376153
845.000000	0.375670
846.000000	0.375175
847.000000	0.374609
848.000000	0.374047
849.000000	0.373601
850.000000	0.373090
851.000000	0.372563
852.000000	0.372111
853.000000	0.371730
854.000000	0.371293
855.000000	0.370869
856.000000	0.370372
857.000000	0.369921
858.000000	0.369576
859.000000	0.369221
860.000000	0.368753
861.000000	0.368307
862.000000	0.367928
863.000000	0.367530
864.000000	0.367124
865.000000	0.366733
866.000000	0.366379
867.000000	0.365973
868.000000	0.365648
869.000000	0.365274
870.000000	0.364786
871.000000	0.364330
872.000000	0.363903
873.000000	0.363452
874.000000	0.363110
875.000000	0.362705
876.000000	0.362306
877.000000	0.361979
878.000000	0.361610
879.000000	0.361297
880.000000	0.360964
881.000000	0.360776
882.000000	0.360527
883.000000	0.360152
884.000000	0.359621
885.000000	0.359314
886.000000	0.359075
887.000000	0.358839
888.000000	0.358727
889.000000	0.358551
890.000000	0.358207
891.000000	0.357891
892.000000	0.357529
893.000000	0.357194
894.000000	0.357058
895.000000	0.356991
896.000000	0.356777
897.000000	0.356478
898.000000	0.356239
899.000000	0.355964
900.000000	0.355689
901.000000	0.355416
902.000000	0.355250
903.000000	0.355123
904.000000	0.355053
905.000000	0.354941
906.000000	0.354815
907.000000	0.354696
908.000000	0.354611
909.000000	0.354392
910.000000	0.354342
911.000000	0.354310
912.000000	0.354126
913.000000	0.353838
914.000000	0.353554
915.000000	0.353353
916.000000	0.353096
917.000000	0.352981
918.000000	0.352907
919.000000	0.352773
920.000000	0.352716
921.000000	0.352689
922.000000	0.352725
923.000000	0.352821
924.000000	0.352657
925.000000	0.352505
926.000000	0.352506
927.000000	0.352318
928.000000	0.352181
929.000000	0.352117
930.000000	0.352080
931.000000	0.352054
932.000000	0.351961
933.000000	0.351816
934.000000	0.351618
935.000000	0.351461
936.000000	0.351407
937.000000	0.351376
938.000000	0.351438
939.000000	0.351397
940.000000	0.351306
941.000000	0.351519
942.000000	0.351639
943.000000	0.351767
944.000000	0.351826
945.000000	0.351809
946.000000	0.351665
947.000000	0.351623
948.000000	0.351815
949.000000	0.351936
950.000000	0.352026
951.000000	0.352045
952.000000	0.352019
953.000000	0.352127
954.000000	0.352328
955.000000	0.352396
956.000000	0.352033
957.000000	0.352082
958.000000	0.352231
959.000000	0.352003
960.000000	0.352277
961.000000	0.352484
962.000000	0.352344
963.000000	0.352130
964.000000	0.352129
965.000000	0.352334
966.000000	0.352509
967.000000	0.352650
968.000000	0.352700
969.000000	0.352687
970.000000	0.352841
971.000000	0.353248
972.000000	0.353429
973.000000	0.353312
974.000000	0.353591
975.000000	0.353570
976.000000	0.353713
977.000000	0.354261
978.000000	0.354108
979.000000	0.354301
980.000000	0.354536
981.000000	0.354580
982.000000	0.354726
983.000000	0.354943
984.000000	0.355186
985.000000	0.355253
986.000000	0.355441
987.000000	0.355661
988.000000	0.355701
989.000000	0.355732
990.000000	0.356150
991.000000	0.356535
992.000000	0.356487
993.000000	0.356842
994.000000	0.357432
995.000000	0.358096
996.000000	0.358286
997.000000	0.358437
998.000000	0.358675
999.000000	0.359101
1000.000000	0.359520
1001.000000	0.359167
1002.000000	0.359138
1003.000000	0.358991
1004.000000	0.359407
1005.000000	0.360822
1006.000000	0.361014
1007.000000	0.361024
1008.000000	0.360768
1009.000000	0.360723
1010.000000	0.360481
1011.000000	0.361367
1012.000000	0.362565
1013.000000	0.362855
1014.000000	0.363138
1015.000000	0.363567
1016.000000	0.364124
1017.000000	0.364143
1018.000000	0.364175
1019.000000	0.364465
1020.000000	0.364788
1021.000000	0.364863
1022.000000	0.365391
1023.000000	0.365961
1024.000000	0.366166
1025.000000	0.366822
1026.000000	0.366976
1027.000000	0.367090
1028.000000	0.367463
1029.000000	0.367533
1030.000000	0.368537
1031.000000	0.369839
1032.000000	0.370646
1033.000000	0.371110
1034.000000	0.371652
1035.000000	0.371887
1036.000000	0.372410
1037.000000	0.373320
1038.000000	0.373704
1039.000000	0.374026
1040.000000	0.374235
1041.000000	0.374325
1042.000000	0.374501
1043.000000	0.375211
1044.000000	0.376249
1045.000000	0.376867
1046.000000	0.377485
1047.000000	0.378184
1048.000000	0.378731
1049.000000	0.379033
1050.000000	0.379268
1051.000000	0.379791
1052.000000	0.380075
1053.000000	0.380536
1054.000000	0.381931
1055.000000	0.382617
1056.000000	0.382856
1057.000000	0.383142
1058.000000	0.383764
1059.000000	0.383986
1060.000000	0.384734
1061.000000	0.385893
1062.000000	0.386757
1063.000000	0.387736
1064.000000	0.388423
1065.000000	0.388834
1066.000000	0.389428
1067.000000	0.389769
1068.000000	0.390273
1069.000000	0.390937
1070.000000	0.391565
1071.000000	0.392209
1072.000000	0.392910
1073.000000	0.393794
1074.000000	0.394730
1075.000000	0.395034
1076.000000	0.395620
1077.000000	0.395851
1078.000000	0.395823
1079.000000	0.396453
1080.000000	0.397647
1081.000000	0.398397
1082.000000	0.399448
1083.000000	0.400252
1084.000000	0.400678
1085.000000	0.401467
1086.000000	0.402507
1087.000000	0.403358
1088.000000	0.404221
1089.000000	0.404850
1090.000000	0.405123
1091.000000	0.405469
1092.000000	0.406080
1093.000000	0.406953
1094.000000	0.407508
1095.000000	0.408008
1096.000000	0.408698
1097.000000	0.409249
1098.000000	0.409896
1099.000000	0.410770
1100.000000	0.411605
1101.000000	0.412069
1102.000000	0.412914
1103.000000	0.414127
1104.000000	0.415177
1105.000000	0.416453
1106.000000	0.417415
1107.000000	0.417977
1108.000000	0.418670
1109.000000	0.419359
1110.000000	0.420043
1111.000000	0.420626
1112.000000	0.421180
1113.000000	0.421918
1114.000000	0.422524
1115.000000	0.423396
1116.000000	0.424829
1117.000000	0.425596
1118.000000	0.426073
1119.000000	0.426581
1120.000000	0.426623
1121.000000	0.427090
1122.000000	0.428019
1123.000000	0.428940
1124.000000	0.429635
1125.000000	0.430432
1126.000000	0.431121
1127.000000	0.431783
1128.000000	0.432448
1129.000000	0.433241
1130.000000	0.433934
1131.000000	0.434594
1132.000000	0.435164
1133.000000	0.435773
1134.000000	0.436345
1135.000000	0.436732
1136.000000	0.437201
1137.000000	0.437709
1138.000000	0.438120
1139.000000	0.438476
1140.000000	0.439133
1141.000000	0.439885
1142.000000	0.440555
1143.000000	0.441364
1144.000000	0.442144
1145.000000	0.442568
1146.000000	0.442852
1147.000000	0.443324
1148.000000	0.443676
1149.000000	0.444131
1150.000000	0.444742
1151.000000	0.445288
1152.000000	0.445646
1153.000000	0.446266
1154.000000	0.447049
1155.000000	0.447584
1156.000000	0.448130
1157.000000	0.448686
1158.000000	0.448980
1159.000000	0.449423
1160.000000	0.450029
1161.000000	0.450507
1162.000000	0.451018
1163.000000	0.451635
1164.000000	0.452073
1165.000000	0.452531
1166.000000	0.453119
1167.000000	0.453722
1168.000000	0.454249
1169.000000	0.454861
1170.000000	0.455500
1171.000000	0.456152
1172.000000	0.456808
1173.000000	0.457519
1174.000000	0.458135
1175.000000	0.458570
1176.000000	0.459073
1177.000000	0.459787
1178.000000	0.460347
1179.000000	0.460915
1180.000000	0.461304
1181.000000	0.461663
1182.000000	0.461856
1183.000000	0.462288
1184.000000	0.462829
1185.000000	0.463333
1186.000000	0.463973
1187.000000	0.464466
1188.000000	0.464895
1189.000000	0.465262
1190.000000	0.465652
1191.000000	0.466025
1192.000000	0.466466
1193.000000	0.466983
1194.000000	0.467272
1195.000000	0.467769
1196.000000	0.468350
1197.000000	0.468836
1198.000000	0.469522
1199.000000	0.470004
1200.000000	0.470310
1201.000000	0.470510
1202.000000	0.470785
1203.000000	0.471118
1204.000000	0.471331
1205.000000	0.471541
1206.000000	0.471958
1207.000000	0.472628
1208.000000	0.473037
1209.000000	0.473718
1210.000000	0.474128
1211.000000	0.474167
1212.000000	0.474375
1213.000000	0.474672
1214.000000	0.475039
1215.000000	0.475470
1216.000000	0.475794
1217.000000	0.476048
1218.000000	0.476333
1219.000000	0.476628
1220.000000	0.476867
1221.000000	0.477186
1222.000000	0.477419
1223.000000	0.477629
1224.000000	0.477982
1225.000000	0.478310
1226.000000	0.478733
1227.000000	0.479039
1228.000000	0.479239
1229.000000	0.479422
1230.000000	0.479496
1231.000000	0.479638
1232.000000	0.479936
1233.000000	0.480362
1234.000000	0.480954
1235.000000	0.481315
1236.000000	0.481485
1237.000000	0.481742
1238.000000	0.481730
1239.000000	0.481932
1240.000000	0.482285
1241.000000	0.482687
1242.000000	0.482913
1243.000000	0.483061
1244.000000	0.483231
1245.000000	0.483529
1246.000000	0.483847
1247.000000	0.484284
1248.000000	0.484664
1249.000000	0.484864
1250.000000	0.484999
1251.000000	0.485319
1252.000000	0.485547
1253.000000	0.485722
1254.000000	0.485935
1255.000000	0.486250
1256.000000	0.486401
1257.000000	0.486438
1258.000000	0.486698
1259.000000	0.486863
1260.000000	0.487112
1261.000000	0.487528
1262.000000	0.487763
1263.000000	0.487942
1264.000000	0.487977
1265.000000	0.488164
1266.000000	0.488294
1267.000000	0.488343
1268.000000	0.488640
1269.000000	0.488756
1270.000000	0.488850
1271.000000	0.489080
1272.000000	0.489293
1273.000000	0.489543
1274.000000	0.489602
1275.000000	0.489667
1276.000000	0.489688
1277.000000	0.489894
1278.000000	0.490046
1279.000000	0.490143
1280.000000	0.490222
1281.000000	0.490151
1282.000000	0.489920
1283.000000	0.490047
1284.000000	0.490259
1285.000000	0.490315
1286.000000	0.490388
1287.000000	0.490464
1288.000000	0.490421
1289.000000	0.490453
1290.000000	0.490545
1291.000000	0.490567
1292.000000	0.490636
1293.000000	0.490695
1294.000000	0.490727
1295.000000	0.490860
1296.000000	0.490975
1297.000000	0.490901
1298.000000	0.490884
1299.000000	0.491056
1300.000000	0.491150
1301.000000	0.491268
1302.000000	0.491272
1303.000000	0.491421
1304.000000	0.491308
1305.000000	0.491160
1306.000000	0.491098
1307.000000	0.491018
1308.000000	0.491017
1309.000000	0.491168
1310.000000	0.491128
1311.000000	0.490988
1312.000000	0.490964
1313.000000	0.490868
1314.000000	0.490594
1315.000000	0.490435
1316.000000	0.490409
1317.000000	0.490237
1318.000000	0.490145
1319.000000	0.490041
1320.000000	0.489745
1321.000000	0.489533
1322.000000	0.489405
1323.000000	0.489187
1324.000000	0.489044
1325.000000	0.488847
1326.000000	0.488686
1327.000000	0.488598
1328.000000	0.488524
1329.000000	0.488357
1330.000000	0.488228
1331.000000	0.488060
1332.000000	0.487868
1333.000000	0.487673
1334.000000	0.487602
1335.000000	0.487466
1336.000000	0.487274
1337.000000	0.487081
1338.000000	0.486833
1339.000000	0.486449
1340.000000	0.486042
1341.000000	0.485766
1342.000000	0.485533
1343.000000	0.485382
1344.000000	0.485230
1345.000000	0.484933
1346.000000	0.484868
1347.000000	0.484492
1348.000000	0.484016
1349.000000	0.483612
1350.000000	0.483042
1351.000000	0.482496
1352.000000	0.482149
1353.000000	0.481812
1354.000000	0.481596
1355.000000	0.481461
1356.000000	0.481260
1357.000000	0.481001
1358.000000	0.480750
1359.000000	0.480320
1360.000000	0.480003
1361.000000	0.479784
1362.000000	0.479589
1363.000000	0.479502
1364.000000	0.479300
1365.000000	0.479109
1366.000000	0.478800
1367.000000	0.478375
1368.000000	0.477741
1369.000000	0.477424
1370.000000	0.476850
1371.000000	0.476180
1372.000000	0.475671
1373.000000	0.474974
1374.000000	0.474163
1375.000000	0.473283
1376.000000	0.472450
1377.000000	0.471642
1378.000000	0.470721
1379.000000	0.469570
1380.000000	0.468249
1381.000000	0.466651
1382.000000	0.464915
1383.000000	0.463255
1384.000000	0.461393
1385.000000	0.459449
1386.000000	0.457415
1387.000000	0.455435
1388.000000	0.453331
1389.000000	0.450824
1390.000000	0.448454
1391.000000	0.446044
1392.000000	0.443617
1393.000000	0.441133
1394.000000	0.438775
1395.000000	0.436308
1396.000000	0.433727
1397.000000	0.431129
1398.000000	0.428531
1399.000000	0.425901
1400.000000	0.423131
1401.000000	0.420374
1402.000000	0.417670
1403.000000	0.414940
1404.000000	0.412384
1405.000000	0.409631
1406.000000	0.406866
1407.000000	0.404429
1408.000000	0.401814
1409.000000	0.399391
1410.000000	0.397205
1411.000000	0.394894
1412.000000	0.392796
1413.000000	0.391086
1414.000000	0.389563
1415.000000	0.388387
1416.000000	0.387410
1417.000000	0.386464
1418.000000	0.385807
1419.000000	0.385323
1420.000000	0.384733
1421.000000	0.384296
1422.000000	0.383808
1423.000000	0.383366
1424.000000	0.382793
1425.000000	0.382186
1426.000000	0.381378
1427.000000	0.380304
1428.000000	0.379347
1429.000000	0.378399
1430.000000	0.377558
1431.000000	0.376889
1432.000000	0.376320
1433.000000	0.375780
1434.000000	0.375645
1435.000000	0.375764
1436.000000	0.376241
1437.000000	0.377089
1438.000000	0.378087
1439.000000	0.379415
1440.000000	0.380968
1441.000000	0.382895
1442.000000	0.384804
1443.000000	0.386857
1444.000000	0.388855
1445.000000	0.390816
1446.000000	0.392698
1447.000000	0.394438
1448.000000	0.396018
1449.000000	0.397290
1450.000000	0.398301
1451.000000	0.399218
1452.000000	0.399813
1453.000000	0.400199
1454.000000	0.400529
1455.000000	0.400748
1456.000000	0.401088
1457.000000	0.401509
1458.000000	0.401818
1459.000000	0.402081
1460.000000	0.402258
1461.000000	0.402359
1462.000000	0.402548
1463.000000	0.402697
1464.000000	0.402795
1465.000000	0.403097
1466.000000	0.403418
1467.000000	0.403712
1468.000000	0.404131
1469.000000	0.404611
1470.000000	0.405011
1471.000000	0.405554
1472.000000	0.406148
1473.000000	0.406794
1474.000000	0.407429
1475.000000	0.408087
1476.000000	0.408788
1477.000000	0.409487
1478.000000	0.410281
1479.000000	0.411113
1480.000000	0.411886
1481.000000	0.412648
1482.000000	0.413478
1483.000000	0.414305
1484.000000	0.415091
1485.000000	0.415966
1486.000000	0.416933
1487.000000	0.417774
1488.000000	0.418607
1489.000000	0.419433
1490.000000	0.420016
1491.000000	0.420743
1492.000000	0.421492
1493.000000	0.422228
1494.000000	0.422925
1495.000000	0.423597
1496.000000	0.424186
1497.000000	0.424871
1498.000000	0.425625
1499.000000	0.426378
1500.000000	0.427086
1501.000000	0.427827
1502.000000	0.428464
1503.000000	0.429027
1504.000000	0.429649
1505.000000	0.430265
1506.000000	0.430873
1507.000000	0.431384
1508.000000	0.431954
1509.000000	0.432559
1510.000000	0.432974
1511.000000	0.433461
1512.000000	0.433876
1513.000000	0.434153
1514.000000	0.434589
1515.000000	0.434927
1516.000000	0.435191
1517.000000	0.435459
1518.000000	0.435668
1519.000000	0.435948
1520.000000	0.436455
1521.000000	0.436827
1522.000000	0.437248
1523.000000	0.437826
1524.000000	0.438186
1525.000000	0.438565
1526.000000	0.438948
1527.000000	0.439221
1528.000000	0.439549
1529.000000	0.439899
1530.000000	0.440116
1531.000000	0.440430
1532.000000	0.440772
1533.000000	0.440965
1534.000000	0.441298
1535.000000	0.441578
1536.000000	0.441641
1537.000000	0.442045
1538.000000	0.442441
1539.000000	0.442663
1540.000000	0.443055
1541.000000	0.443397
1542.000000	0.443736
1543.000000	0.444132
1544.000000	0.444459
1545.000000	0.444796
1546.000000	0.445035
1547.000000	0.445237
1548.000000	0.445481
1549.000000	0.445662
1550.000000	0.445771
1551.000000	0.445888
1552.000000	0.446063
1553.000000	0.446367
1554.000000	0.446605
1555.000000	0.446741
1556.000000	0.446979
1557.000000	0.447101
1558.000000	0.447334
1559.000000	0.447662
1560.000000	0.447880
1561.000000	0.448096
1562.000000	0.448234
1563.000000	0.448368
1564.000000	0.448546
1565.000000	0.448730
1566.000000	0.448753
1567.000000	0.448858
1568.000000	0.448904
1569.000000	0.448921
1570.000000	0.448978
1571.000000	0.449040
1572.000000	0.449078
1573.000000	0.449104
1574.000000	0.449146
1575.000000	0.449185
1576.000000	0.449337
1577.000000	0.449565
1578.000000	0.449678
1579.000000	0.449917
1580.000000	0.450038
1581.000000	0.450154
1582.000000	0.450213
1583.000000	0.450185
1584.000000	0.450147
1585.000000	0.450126
1586.000000	0.450199
1587.000000	0.450329
1588.000000	0.450461
1589.000000	0.450700
1590.000000	0.450799
1591.000000	0.450800
1592.000000	0.450941
1593.000000	0.451173
1594.000000	0.451276
1595.000000	0.451539
1596.000000	0.451660
1597.000000	0.451607
1598.000000	0.451647
1599.000000	0.451715
1600.000000	0.451749
1601.000000	0.451916
1602.000000	0.451997
1603.000000	0.452098
1604.000000	0.452176
1605.000000	0.452257
1606.000000	0.452305
1607.000000	0.452443
1608.000000	0.452432
1609.000000	0.452351
1610.000000	0.452328
1611.000000	0.452279
1612.000000	0.452288
1613.000000	0.452533
1614.000000	0.452652
1615.000000	0.452779
1616.000000	0.453018
1617.000000	0.453254
1618.000000	0.453416
1619.000000	0.453589
1620.000000	0.453719
1621.000000	0.453828
1622.000000	0.453990
1623.000000	0.454035
1624.000000	0.454251
1625.000000	0.454400
1626.000000	0.454407
1627.000000	0.454515
1628.000000	0.454650
1629.000000	0.454580
1630.000000	0.454697
1631.000000	0.454907
1632.000000	0.455006
1633.000000	0.455086
1634.000000	0.455286
1635.000000	0.455592
1636.000000	0.455781
1637.000000	0.456009
1638.000000	0.456127
1639.000000	0.456230
1640.000000	0.456358
1641.000000	0.456531
1642.000000	0.456731
1643.000000	0.457036
1644.000000	0.457206
1645.000000	0.457374
1646.000000	0.457434
1647.000000	0.457333
1648.000000	0.457383
1649.000000	0.457610
1650.000000	0.457805
1651.000000	0.458152
1652.000000	0.458428
1653.000000	0.458610
1654.000000	0.458769
1655.000000	0.458780
1656.000000	0.458788
1657.000000	0.458855
1658.000000	0.458948
1659.000000	0.459233
1660.000000	0.459414
1661.000000	0.459416
1662.000000	0.459572
1663.000000	0.459741
1664.000000	0.459877
1665.000000	0.460024
1666.000000	0.460331
1667.000000	0.460510
1668.000000	0.460804
1669.000000	0.461336
1670.000000	0.461432
1671.000000	0.461476
1672.000000	0.461641
1673.000000	0.461576
1674.000000	0.461887
1675.000000	0.462237
1676.000000	0.462384
1677.000000	0.462577
1678.000000	0.462674
1679.000000	0.462556
1680.000000	0.462572
1681.000000	0.462646
1682.000000	0.462567
1683.000000	0.462693
1684.000000	0.462804
1685.000000	0.462822
1686.000000	0.462870
1687.000000	0.462907
1688.000000	0.462927
1689.000000	0.462983
1690.000000	0.462947
1691.000000	0.463082
1692.000000	0.463183
1693.000000	0.463166
1694.000000	0.463284
1695.000000	0.463533
1696.000000	0.463558
1697.000000	0.463531
1698.000000	0.463516
1699.000000	0.463504
1700.000000	0.463452
1701.000000	0.463529
1702.000000	0.463424
1703.000000	0.463264
1704.000000	0.463269
1705.000000	0.463176
1706.000000	0.462895
1707.000000	0.462869
1708.000000	0.462927
1709.000000	0.462916
1710.000000	0.463268
1711.000000	0.463444
1712.000000	0.463456
1713.000000	0.463556
1714.000000	0.463847
1715.000000	0.463882
1716.000000	0.463825
1717.000000	0.463747
1718.000000	0.463370
1719.000000	0.463179
1720.000000	0.463197
1721.000000	0.463125
1722.000000	0.463020
1723.000000	0.462999
1724.000000	0.463058
1725.000000	0.463125
1726.000000	0.463140
1727.000000	0.463160
1728.000000	0.463073
1729.000000	0.462952
1730.000000	0.463057
1731.000000	0.463006
1732.000000	0.462875
1733.000000	0.462862
1734.000000	0.462620
1735.000000	0.462526
1736.000000	0.462492
1737.000000	0.462411
1738.000000	0.462301
1739.000000	0.462384
1740.000000	0.462612
1741.000000	0.462511
1742.000000	0.462377
1743.000000	0.462425
1744.000000	0.462243
1745.000000	0.462302
1746.000000	0.462703
1747.000000	0.462749
1748.000000	0.462627
1749.000000	0.462336
1750.000000	0.462083
1751.000000	0.461856
1752.000000	0.461836
1753.000000	0.461784
1754.000000	0.461758
1755.000000	0.461764
1756.000000	0.461713
1757.000000	0.461664
1758.000000	0.461613
1759.000000	0.461499
1760.000000	0.461387
1761.000000	0.461196
1762.000000	0.461049
1763.000000	0.460918
1764.000000	0.460839
1765.000000	0.460789
1766.000000	0.460723
1767.000000	0.460550
1768.000000	0.460385
1769.000000	0.460329
1770.000000	0.460339
1771.000000	0.460392
1772.000000	0.460303
1773.000000	0.460112
1774.000000	0.459925
1775.000000	0.459711
1776.000000	0.459553
1777.000000	0.459340
1778.000000	0.459214
1779.000000	0.459065
1780.000000	0.459094
1781.000000	0.459231
1782.000000	0.459328
1783.000000	0.459622
1784.000000	0.459614
1785.000000	0.459494
1786.000000	0.459536
1787.000000	0.459760
1788.000000	0.460036
1789.000000	0.460281
1790.000000	0.460459
1791.000000	0.460497
1792.000000	0.460634
1793.000000	0.460674
1794.000000	0.460552
1795.000000	0.460519
1796.000000	0.460405
1797.000000	0.460398
1798.000000	0.460412
1799.000000	0.460545
1800.000000	0.461010
1801.000000	0.459822
1802.000000	0.460507
1803.000000	0.461638
1804.000000	0.462292
1805.000000	0.462445
1806.000000	0.462655
1807.000000	0.462882
1808.000000	0.462889
1809.000000	0.462839
1810.000000	0.462376
1811.000000	0.461755
1812.000000	0.460927
1813.000000	0.460450
1814.000000	0.459564
1815.000000	0.459288
1816.000000	0.459725
1817.000000	0.459549
1818.000000	0.459048
1819.000000	0.459461
1820.000000	0.459403
1821.000000	0.459239
1822.000000	0.459475
1823.000000	0.459949
1824.000000	0.460183
1825.000000	0.460826
1826.000000	0.460902
1827.000000	0.460273
1828.000000	0.459884
1829.000000	0.459757
1830.000000	0.459381
1831.000000	0.459285
1832.000000	0.459579
1833.000000	0.459550
1834.000000	0.459442
1835.000000	0.459361
1836.000000	0.459168
1837.000000	0.459142
1838.000000	0.459277
1839.000000	0.458717
1840.000000	0.457937
1841.000000	0.457777
1842.000000	0.457418
1843.000000	0.456698
1844.000000	0.456304
1845.000000	0.456210
1846.000000	0.455786
1847.000000	0.455004
1848.000000	0.454415
1849.000000	0.453433
1850.000000	0.452420
1851.000000	0.451817
1852.000000	0.451365
1853.000000	0.450997
1854.000000	0.450781
1855.000000	0.450090
1856.000000	0.449233
1857.000000	0.447888
1858.000000	0.446602
1859.000000	0.445624
1860.000000	0.444379
1861.000000	0.443030
1862.000000	0.441237
1863.000000	0.438696
1864.000000	0.437028
1865.000000	0.435960
1866.000000	0.434113
1867.000000	0.432325
1868.000000	0.430292
1869.000000	0.427295
1870.000000	0.423977
1871.000000	0.421035
1872.000000	0.418404
1873.000000	0.415691
1874.000000	0.413475
1875.000000	0.409957
1876.000000	0.405583
1877.000000	0.401105
1878.000000	0.395760
1879.000000	0.390981
1880.000000	0.386881
1881.000000	0.382136
1882.000000	0.377409
1883.000000	0.372374
1884.000000	0.366954
1885.000000	0.360842
1886.000000	0.354855
1887.000000	0.348777
1888.000000	0.341797
1889.000000	0.334584
1890.000000	0.327724
1891.000000	0.320615
1892.000000	0.313729
1893.000000	0.307328
1894.000000	0.300411
1895.000000	0.293481
1896.000000	0.286387
1897.000000	0.279632
1898.000000	0.272888
1899.000000	0.266903
1900.000000	0.261513
1901.000000	0.256234
1902.000000	0.251424
1903.000000	0.246739
1904.000000	0.241975
1905.000000	0.237874
1906.000000	0.234286
1907.000000	0.231011
1908.000000	0.228658
1909.000000	0.227479
1910.000000	0.226195
1911.000000	0.225285
1912.000000	0.224729
1913.000000	0.224296
1914.000000	0.224041
1915.000000	0.223690
1916.000000	0.223762
1917.000000	0.223866
1918.000000	0.224069
1919.000000	0.224408
1920.000000	0.224641
1921.000000	0.225014
1922.000000	0.225710
1923.000000	0.226496
1924.000000	0.227401
1925.000000	0.228328
1926.000000	0.229335
1927.000000	0.229877
1928.000000	0.230393
1929.000000	0.231062
1930.000000	0.231787
1931.000000	0.231896
1932.000000	0.232354
1933.000000	0.233497
1934.000000	0.234874
1935.000000	0.236137
1936.000000	0.237400
1937.000000	0.237983
1938.000000	0.238223
1939.000000	0.238695
1940.000000	0.239242
1941.000000	0.239221
1942.000000	0.239876
1943.000000	0.240604
1944.000000	0.240024
1945.000000	0.240017
1946.000000	0.240398
1947.000000	0.239985
1948.000000	0.240230
1949.000000	0.241246
1950.000000	0.242052
1951.000000	0.242670
1952.000000	0.243506
1953.000000	0.244242
1954.000000	0.244577
1955.000000	0.244404
1956.000000	0.244790
1957.000000	0.245416
1958.000000	0.245737
1959.000000	0.246159
1960.000000	0.246314
1961.000000	0.246455
1962.000000	0.246861
1963.000000	0.247436
1964.000000	0.248611
1965.000000	0.249499
1966.000000	0.250066
1967.000000	0.250839
1968.000000	0.251327
1969.000000	0.251640
1970.000000	0.252011
1971.000000	0.251864
1972.000000	0.251994
1973.000000	0.252391
1974.000000	0.253058
1975.000000	0.253802
1976.000000	0.255044
1977.000000	0.256042
1978.000000	0.256757
1979.000000	0.258022
1980.000000	0.259441
1981.000000	0.260490
1982.000000	0.261165
1983.000000	0.261856
1984.000000	0.262516
1985.000000	0.262848
1986.000000	0.263367
1987.000000	0.263936
1988.000000	0.264923
1989.000000	0.266219
1990.000000	0.268039
1991.000000	0.269797
1992.000000	0.271026
1993.000000	0.271653
1994.000000	0.272112
1995.000000	0.273124
1996.000000	0.274354
1997.000000	0.275591
1998.000000	0.277336
1999.000000	0.278656
2000.000000	0.279675
2001.000000	0.280949
2002.000000	0.282353
2003.000000	0.283236
2004.000000	0.284497
2005.000000	0.285564
2006.000000	0.286267
2007.000000	0.287421
2008.000000	0.288546
2009.000000	0.289523
2010.000000	0.290880
2011.000000	0.292545
2012.000000	0.293911
2013.000000	0.295267
2014.000000	0.296387
2015.000000	0.297825
2016.000000	0.298983
2017.000000	0.299952
2018.000000	0.300921
2019.000000	0.301560
2020.000000	0.302346
2021.000000	0.303436
2022.000000	0.304897
2023.000000	0.306248
2024.000000	0.307831
2025.000000	0.309198
2026.000000	0.310335
2027.000000	0.311613
2028.000000	0.312705
2029.000000	0.313467
2030.000000	0.314502
2031.000000	0.315678
2032.000000	0.316570
2033.000000	0.318164
2034.000000	0.319198
2035.000000	0.319826
2036.000000	0.320597
2037.000000	0.321407
2038.000000	0.322360
2039.000000	0.323307
2040.000000	0.324993
2041.000000	0.326629
2042.000000	0.327719
2043.000000	0.328605
2044.000000	0.329359
2045.000000	0.329964
2046.000000	0.330661
2047.000000	0.331482
2048.000000	0.332530
2049.000000	0.333527
2050.000000	0.333968
2051.000000	0.334728
2052.000000	0.335620
2053.000000	0.336336
2054.000000	0.337167
2055.000000	0.338440
2056.000000	0.339798
2057.000000	0.340799
2058.000000	0.341911
2059.000000	0.342988
2060.000000	0.343492
2061.000000	0.343393
2062.000000	0.343765
2063.000000	0.343994
2064.000000	0.344105
2065.000000	0.344492
2066.000000	0.344856
2067.000000	0.345243
2068.000000	0.345926
2069.000000	0.347660
2070.000000	0.349078
2071.000000	0.349803
2072.000000	0.350857
2073.000000	0.351193
2074.000000	0.351751
2075.000000	0.352526
2076.000000	0.353777
2077.000000	0.354673
2078.000000	0.355405
2079.000000	0.355940
2080.000000	0.356590
2081.000000	0.357050
2082.000000	0.356878
2083.000000	0.357703
2084.000000	0.358496
2085.000000	0.358731
2086.000000	0.359595
2087.000000	0.360562
2088.000000	0.362167
2089.000000	0.363821
2090.000000	0.364787
2091.000000	0.365573
2092.000000	0.366442
2093.000000	0.366666
2094.000000	0.367344
2095.000000	0.368906
2096.000000	0.369541
2097.000000	0.369693
2098.000000	0.369422
2099.000000	0.369025
2100.000000	0.369008
2101.000000	0.369875
2102.000000	0.370891
2103.000000	0.371616
2104.000000	0.372152
2105.000000	0.372816
2106.000000	0.373051
2107.000000	0.373920
2108.000000	0.375604
2109.000000	0.376524
2110.000000	0.377057
2111.000000	0.377457
2112.000000	0.377277
2113.000000	0.376890
2114.000000	0.377247
2115.000000	0.377587
2116.000000	0.377614
2117.000000	0.378167
2118.000000	0.378805
2119.000000	0.378993
2120.000000	0.379591
2121.000000	0.380849
2122.000000	0.381376
2123.000000	0.381513
2124.000000	0.381878
2125.000000	0.382103
2126.000000	0.382115
2127.000000	0.382165
2128.000000	0.382187
2129.000000	0.381731
2130.000000	0.381632
2131.000000	0.381279
2132.000000	0.381615
2133.000000	0.382347
2134.000000	0.383099
2135.000000	0.383851
2136.000000	0.384377
2137.000000	0.384330
2138.000000	0.383474
2139.000000	0.383162
2140.000000	0.382603
2141.000000	0.382229
2142.000000	0.382227
2143.000000	0.381615
2144.000000	0.380650
2145.000000	0.380435
2146.000000	0.380357
2147.000000	0.381146
2148.000000	0.381633
2149.000000	0.382411
2150.000000	0.382291
2151.000000	0.381316
2152.000000	0.381598
2153.000000	0.380559
2154.000000	0.380204
2155.000000	0.380650
2156.000000	0.380395
2157.000000	0.379831
2158.000000	0.379317
2159.000000	0.378472
2160.000000	0.377906
2161.000000	0.377080
2162.000000	0.377093
2163.000000	0.377702
2164.000000	0.377827
2165.000000	0.378413
2166.000000	0.378633
2167.000000	0.377713
2168.000000	0.378103
2169.000000	0.378167
2170.000000	0.377073
2171.000000	0.376705
2172.000000	0.376190
2173.000000	0.376178
2174.000000	0.376988
2175.000000	0.376873
2176.000000	0.376280
2177.000000	0.376339
2178.000000	0.376467
2179.000000	0.376771
2180.000000	0.377740
2181.000000	0.378452
2182.000000	0.378756
2183.000000	0.377669
2184.000000	0.376588
2185.000000	0.375651
2186.000000	0.372897
2187.000000	0.371451
2188.000000	0.371208
2189.000000	0.370946
2190.000000	0.372540
2191.000000	0.373873
2192.000000	0.373907
2193.000000	0.372724
2194.000000	0.372201
2195.000000	0.370762
2196.000000	0.370373
2197.000000	0.371142
2198.000000	0.371257
2199.000000	0.371795
2200.000000	0.371288
2201.000000	0.369651
2202.000000	0.368223
2203.000000	0.365982
2204.000000	0.363845
2205.000000	0.360457
2206.000000	0.360435
2207.000000	0.361268
2208.000000	0.362271
2209.000000	0.364286
2210.000000	0.366443
2211.000000	0.366690
2212.000000	0.364873
2213.000000	0.364503
2214.000000	0.363776
2215.000000	0.363678
2216.000000	0.363858
2217.000000	0.365737
2218.000000	0.369485
2219.000000	0.370844
2220.000000	0.374954
2221.000000	0.373789
2222.000000	0.365328
2223.000000	0.362929
2224.000000	0.360827
2225.000000	0.358704
2226.000000	0.363395
2227.000000	0.368006
2228.000000	0.369289
2229.000000	0.369505
2230.000000	0.367457
2231.000000	0.365384
2232.000000	0.364286
2233.000000	0.363653
2234.000000	0.362275
2235.000000	0.361525
2236.000000	0.361757
2237.000000	0.362903
2238.000000	0.362845
2239.000000	0.362651
2240.000000	0.363830
2241.000000	0.364826
2242.000000	0.366317
2243.000000	0.370567
2244.000000	0.372040
2245.000000	0.371753
2246.000000	0.371759
2247.000000	0.370366
2248.000000	0.369680
2249.000000	0.369506
2250.000000	0.368587
2251.000000	0.367408
2252.000000	0.367348
2253.000000	0.367078
2254.000000	0.365620
2255.000000	0.365266
2256.000000	0.364779
2257.000000	0.364253
2258.000000	0.364871
2259.000000	0.362822
2260.000000	0.361054
2261.000000	0.358340
2262.000000	0.353527
2263.000000	0.349930
2264.000000	0.346595
2265.000000	0.343554
2266.000000	0.341295
2267.000000	0.338911
2268.000000	0.336222
2269.000000	0.334266
2270.000000	0.333403
2271.000000	0.330754
2272.000000	0.327484
2273.000000	0.324098
2274.000000	0.318786
2275.000000	0.315498
2276.000000	0.312886
2277.000000	0.311825
2278.000000	0.311173
2279.000000	0.307134
2280.000000	0.302122
2281.000000	0.297437
2282.000000	0.293429
2283.000000	0.290878
2284.000000	0.290704
2285.000000	0.290374
2286.000000	0.288983
2287.000000	0.289088
2288.000000	0.289172
2289.000000	0.290524
2290.000000	0.292318
2291.000000	0.294875
2292.000000	0.297881
2293.000000	0.299287
2294.000000	0.301251
2295.000000	0.303751
2296.000000	0.305628
2297.000000	0.306319
2298.000000	0.308933
2299.000000	0.312611
2300.000000	0.315511
2301.000000	0.319934
2302.000000	0.321633
2303.000000	0.321232
2304.000000	0.321531
2305.000000	0.320580
2306.000000	0.320572
2307.000000	0.321297
2308.000000	0.321810
2309.000000	0.321680
2310.000000	0.321661
2311.000000	0.320869
2312.000000	0.319511
2313.000000	0.319415
2314.000000	0.320405
2315.000000	0.321451
2316.000000	0.321029
2317.000000	0.318485
2318.000000	0.316632
2319.000000	0.315912
2320.000000	0.316981
2321.000000	0.319649
2322.000000	0.319403
2323.000000	0.318573
2324.000000	0.318831
2325.000000	0.319426
2326.000000	0.321098
2327.000000	0.323117
2328.000000	0.324135
2329.000000	0.323761
2330.000000	0.322980
2331.000000	0.322149
2332.000000	0.321109
2333.000000	0.319487
2334.000000	0.318299
2335.000000	0.316560
2336.000000	0.312567
2337.000000	0.311045
2338.000000	0.310881
2339.000000	0.309261
2340.000000	0.309737
2341.000000	0.307347
2342.000000	0.300657
2343.000000	0.297497
2344.000000	0.293092
2345.000000	0.291615
2346.000000	0.295782
2347.000000	0.296787
2348.000000	0.297311
2349.000000	0.299534
2350.000000	0.296440
2351.000000	0.290969
2352.000000	0.286984
2353.000000	0.283216
2354.000000	0.283148
2355.000000	0.283073
2356.000000	0.284757
2357.000000	0.286228
2358.000000	0.284087
2359.000000	0.284161
2360.000000	0.281716
2361.000000	0.275327
2362.000000	0.271415
2363.000000	0.267817
2364.000000	0.264869
2365.000000	0.265879
2366.000000	0.266513
2367.000000	0.265695
2368.000000	0.265471
2369.000000	0.264777
2370.000000	0.261423
2371.000000	0.259792
2372.000000	0.256989
2373.000000	0.250700
2374.000000	0.251557
2375.000000	0.251835
2376.000000	0.248737
2377.000000	0.248702
2378.000000	0.248271
2379.000000	0.250315
2380.000000	0.255717
2381.000000	0.258106
2382.000000	0.255517
2383.000000	0.250794
2384.000000	0.244243
2385.000000	0.240570
2386.000000	0.239737
2387.000000	0.239114
2388.000000	0.236422
2389.000000	0.232878
2390.000000	0.235232
2391.000000	0.233242
2392.000000	0.230966
2393.000000	0.232809
2394.000000	0.228119
2395.000000	0.225665
2396.000000	0.222354
2397.000000	0.216764
2398.000000	0.217264
2399.000000	0.212103
2400.000000	0.206925
2401.000000	0.210105
2402.000000	0.211384
2403.000000	0.215183
2404.000000	0.220638
2405.000000	0.221372
2406.000000	0.221116
2407.000000	0.217683
2408.000000	0.218047
2409.000000	0.221795
2410.000000	0.219862
2411.000000	0.219207
2412.000000	0.215943
2413.000000	0.208820
2414.000000	0.207671
2415.000000	0.209788
2416.000000	0.211085
2417.000000	0.212531
2418.000000	0.214124
2419.000000	0.214411
2420.000000	0.217722
2421.000000	0.219977
2422.000000	0.218123
2423.000000	0.217372
2424.000000	0.207987
2425.000000	0.198052
2426.000000	0.195287
2427.000000	0.190475
2428.000000	0.192244
2429.000000	0.200757
2430.000000	0.201102
2431.000000	0.201597
2432.000000	0.204280
2433.000000	0.204565
2434.000000	0.213410
2435.000000	0.215782
2436.000000	0.212294
2437.000000	0.209396
2438.000000	0.209469
2439.000000	0.215805
2440.000000	0.212156
2441.000000	0.202871
2442.000000	0.185307
2443.000000	0.175129
2444.000000	0.172907
2445.000000	0.170866
2446.000000	0.178514
2447.000000	0.172841
2448.000000	0.176390
2449.000000	0.185991
2450.000000	0.186086
2451.000000	0.186744
2452.000000	0.178267
2453.000000	0.177697
2454.000000	0.170583
2455.000000	0.164199
2456.000000	0.163036
2457.000000	0.153471
2458.000000	0.162091
2459.000000	0.169307
2460.000000	0.173396
2461.000000	0.171437
2462.000000	0.150855
2463.000000	0.131753
2464.000000	0.120499
2465.000000	0.114561
2466.000000	0.107539
2467.000000	0.112681
2468.000000	0.116998
2469.000000	0.121624
2470.000000	0.145368
2471.000000	0.144106
2472.000000	0.129285
2473.000000	0.123280
2474.000000	0.100292
2475.000000	0.096629
2476.000000	0.106286
2477.000000	0.098254
2478.000000	0.099272
2479.000000	0.111712
2480.000000	0.117153
2481.000000	0.114743
2482.000000	0.121291
2483.000000	0.118452
2484.000000	0.116542
2485.000000	0.140725
2486.000000	0.166313
2487.000000	0.197327
2488.000000	0.184003
2489.000000	0.150619
2490.000000	0.116251
2491.000000	0.090886
2492.000000	0.084214
2493.000000	0.121507
2494.000000	0.135937
2495.000000	0.130212
2496.000000	0.117705
2497.000000	0.087454
2498.000000	0.058620
2499.000000	0.016662
2500.000000	0.017587
