# Wavelength	NAu-2-80_HEX-10_FV7-10_00002.asd.rts.txt
350.000000	0.082719
351.000000	0.054048
352.000000	0.065212
353.000000	0.076130
354.000000	0.068253
355.000000	0.060610
356.000000	0.060451
357.000000	0.066949
358.000000	0.073881
359.000000	0.069644
360.000000	0.066767
361.000000	0.077620
362.000000	0.069204
363.000000	0.063022
364.000000	0.069807
365.000000	0.064684
366.000000	0.059622
367.000000	0.059433
368.000000	0.063636
369.000000	0.070504
370.000000	0.073254
371.000000	0.065934
372.000000	0.060693
373.000000	0.061756
374.000000	0.068208
375.000000	0.069633
376.000000	0.070232
377.000000	0.070117
378.000000	0.065449
379.000000	0.063838
380.000000	0.065074
381.000000	0.066412
382.000000	0.065706
383.000000	0.064305
384.000000	0.063825
385.000000	0.065593
386.000000	0.065203
387.000000	0.063064
388.000000	0.064643
389.000000	0.067018
390.000000	0.068376
391.000000	0.067484
392.000000	0.067979
393.000000	0.068725
394.000000	0.068672
395.000000	0.069576
396.000000	0.068797
397.000000	0.066414
398.000000	0.066041
399.000000	0.067190
400.000000	0.068135
401.000000	0.066684
402.000000	0.067289
403.000000	0.067733
404.000000	0.066119
405.000000	0.066409
406.000000	0.067416
407.000000	0.068321
408.000000	0.069280
409.000000	0.069541
410.000000	0.069364
411.000000	0.069596
412.000000	0.070046
413.000000	0.070414
414.000000	0.070541
415.000000	0.071354
416.000000	0.071836
417.000000	0.071547
418.000000	0.071399
419.000000	0.072034
420.000000	0.072948
421.000000	0.072548
422.000000	0.072460
423.000000	0.072701
424.000000	0.072898
425.000000	0.073734
426.000000	0.074267
427.000000	0.073946
428.000000	0.073925
429.000000	0.074135
430.000000	0.074545
431.000000	0.075259
432.000000	0.075423
433.000000	0.075282
434.000000	0.075631
435.000000	0.076296
436.000000	0.076865
437.000000	0.077074
438.000000	0.077702
439.000000	0.077970
440.000000	0.077690
441.000000	0.077787
442.000000	0.078182
443.000000	0.078658
444.000000	0.078884
445.000000	0.079228
446.000000	0.079497
447.000000	0.079460
448.000000	0.080233
449.000000	0.081109
450.000000	0.081493
451.000000	0.081509
452.000000	0.081676
453.000000	0.082207
454.000000	0.083115
455.000000	0.083710
456.000000	0.084094
457.000000	0.084636
458.000000	0.084991
459.000000	0.085146
460.000000	0.085243
461.000000	0.085688
462.000000	0.086369
463.000000	0.086941
464.000000	0.086674
465.000000	0.087032
466.000000	0.087841
467.000000	0.087918
468.000000	0.087907
469.000000	0.088049
470.000000	0.088511
471.000000	0.089162
472.000000	0.089538
473.000000	0.089569
474.000000	0.090254
475.000000	0.090849
476.000000	0.091191
477.000000	0.091582
478.000000	0.091988
479.000000	0.092336
480.000000	0.092423
481.000000	0.092514
482.000000	0.092793
483.000000	0.093256
484.000000	0.093655
485.000000	0.094167
486.000000	0.094743
487.000000	0.094611
488.000000	0.094624
489.000000	0.094903
490.000000	0.095108
491.000000	0.095275
492.000000	0.095380
493.000000	0.095365
494.000000	0.095319
495.000000	0.095434
496.000000	0.095744
497.000000	0.095917
498.000000	0.096029
499.000000	0.096135
500.000000	0.096205
501.000000	0.096281
502.000000	0.096362
503.000000	0.096400
504.000000	0.096434
505.000000	0.096545
506.000000	0.096791
507.000000	0.097132
508.000000	0.097435
509.000000	0.097651
510.000000	0.097932
511.000000	0.098305
512.000000	0.098723
513.000000	0.099046
514.000000	0.099342
515.000000	0.099713
516.000000	0.100212
517.000000	0.100589
518.000000	0.100898
519.000000	0.101229
520.000000	0.101833
521.000000	0.102359
522.000000	0.102777
523.000000	0.103547
524.000000	0.104383
525.000000	0.105169
526.000000	0.105881
527.000000	0.106861
528.000000	0.108043
529.000000	0.109286
530.000000	0.110566
531.000000	0.111950
532.000000	0.113415
533.000000	0.114839
534.000000	0.116319
535.000000	0.117860
536.000000	0.119394
537.000000	0.120946
538.000000	0.122450
539.000000	0.123815
540.000000	0.125216
541.000000	0.126606
542.000000	0.127929
543.000000	0.129145
544.000000	0.130353
545.000000	0.131581
546.000000	0.132853
547.000000	0.134119
548.000000	0.135419
549.000000	0.136813
550.000000	0.138265
551.000000	0.139814
552.000000	0.141484
553.000000	0.143251
554.000000	0.145181
555.000000	0.147281
556.000000	0.149346
557.000000	0.151449
558.000000	0.153685
559.000000	0.155993
560.000000	0.158250
561.000000	0.160494
562.000000	0.162764
563.000000	0.165015
564.000000	0.167195
565.000000	0.169208
566.000000	0.171148
567.000000	0.172995
568.000000	0.174721
569.000000	0.176349
570.000000	0.177828
571.000000	0.179137
572.000000	0.180297
573.000000	0.181329
574.000000	0.182278
575.000000	0.183210
576.000000	0.183879
577.000000	0.184440
578.000000	0.185037
579.000000	0.185370
580.000000	0.185574
581.000000	0.185713
582.000000	0.185731
583.000000	0.185743
584.000000	0.185734
585.000000	0.185617
586.000000	0.185428
587.000000	0.185163
588.000000	0.184812
589.000000	0.184377
590.000000	0.183865
591.000000	0.183302
592.000000	0.182773
593.000000	0.182141
594.000000	0.181386
595.000000	0.180601
596.000000	0.179823
597.000000	0.179047
598.000000	0.178185
599.000000	0.177253
600.000000	0.176317
601.000000	0.175402
602.000000	0.174624
603.000000	0.173767
604.000000	0.172778
605.000000	0.171886
606.000000	0.170971
607.000000	0.170049
608.000000	0.169215
609.000000	0.168455
610.000000	0.167642
611.000000	0.166684
612.000000	0.165940
613.000000	0.165192
614.000000	0.164325
615.000000	0.163516
616.000000	0.162789
617.000000	0.162104
618.000000	0.161399
619.000000	0.160682
620.000000	0.159928
621.000000	0.159158
622.000000	0.158507
623.000000	0.157940
624.000000	0.157399
625.000000	0.156883
626.000000	0.156367
627.000000	0.155857
628.000000	0.155411
629.000000	0.155026
630.000000	0.154609
631.000000	0.154167
632.000000	0.153772
633.000000	0.153421
634.000000	0.153090
635.000000	0.152781
636.000000	0.152526
637.000000	0.152325
638.000000	0.152136
639.000000	0.151943
640.000000	0.151797
641.000000	0.151737
642.000000	0.151631
643.000000	0.151543
644.000000	0.151582
645.000000	0.151634
646.000000	0.151680
647.000000	0.151711
648.000000	0.151781
649.000000	0.151950
650.000000	0.152175
651.000000	0.152293
652.000000	0.152494
653.000000	0.152793
654.000000	0.153094
655.000000	0.153482
656.000000	0.153909
657.000000	0.154304
658.000000	0.154750
659.000000	0.155229
660.000000	0.155733
661.000000	0.156306
662.000000	0.156919
663.000000	0.157586
664.000000	0.158293
665.000000	0.158999
666.000000	0.159750
667.000000	0.160570
668.000000	0.161365
669.000000	0.162228
670.000000	0.163205
671.000000	0.164214
672.000000	0.165243
673.000000	0.166297
674.000000	0.167413
675.000000	0.168498
676.000000	0.169617
677.000000	0.170877
678.000000	0.172222
679.000000	0.173583
680.000000	0.174920
681.000000	0.176219
682.000000	0.177634
683.000000	0.179146
684.000000	0.180695
685.000000	0.182285
686.000000	0.183924
687.000000	0.185597
688.000000	0.187344
689.000000	0.189165
690.000000	0.191065
691.000000	0.192980
692.000000	0.194919
693.000000	0.196949
694.000000	0.199102
695.000000	0.201332
696.000000	0.203591
697.000000	0.205831
698.000000	0.208113
699.000000	0.210431
700.000000	0.212789
701.000000	0.215237
702.000000	0.217702
703.000000	0.220165
704.000000	0.222724
705.000000	0.225441
706.000000	0.228233
707.000000	0.231021
708.000000	0.233873
709.000000	0.236744
710.000000	0.239622
711.000000	0.242618
712.000000	0.245652
713.000000	0.248685
714.000000	0.251681
715.000000	0.254752
716.000000	0.257890
717.000000	0.261021
718.000000	0.264239
719.000000	0.267486
720.000000	0.270735
721.000000	0.274078
722.000000	0.277434
723.000000	0.280800
724.000000	0.284139
725.000000	0.287464
726.000000	0.290860
727.000000	0.294285
728.000000	0.297743
729.000000	0.301178
730.000000	0.304515
731.000000	0.307881
732.000000	0.311245
733.000000	0.314654
734.000000	0.318151
735.000000	0.321524
736.000000	0.324868
737.000000	0.328138
738.000000	0.331378
739.000000	0.334668
740.000000	0.337882
741.000000	0.341163
742.000000	0.344371
743.000000	0.347449
744.000000	0.350538
745.000000	0.353537
746.000000	0.356511
747.000000	0.359463
748.000000	0.362403
749.000000	0.365317
750.000000	0.368148
751.000000	0.370865
752.000000	0.373528
753.000000	0.376178
754.000000	0.378815
755.000000	0.381441
756.000000	0.383940
757.000000	0.386172
758.000000	0.388486
759.000000	0.390771
760.000000	0.392875
761.000000	0.394977
762.000000	0.397027
763.000000	0.398951
764.000000	0.400756
765.000000	0.402543
766.000000	0.404366
767.000000	0.406208
768.000000	0.407888
769.000000	0.409474
770.000000	0.411009
771.000000	0.412484
772.000000	0.413949
773.000000	0.415320
774.000000	0.416637
775.000000	0.417837
776.000000	0.418994
777.000000	0.420127
778.000000	0.421151
779.000000	0.422092
780.000000	0.423024
781.000000	0.424050
782.000000	0.424836
783.000000	0.425619
784.000000	0.426460
785.000000	0.427063
786.000000	0.427669
787.000000	0.428382
788.000000	0.429002
789.000000	0.429678
790.000000	0.430347
791.000000	0.430913
792.000000	0.431413
793.000000	0.431790
794.000000	0.432049
795.000000	0.432400
796.000000	0.432742
797.000000	0.432989
798.000000	0.433081
799.000000	0.433267
800.000000	0.433521
801.000000	0.433746
802.000000	0.433950
803.000000	0.434042
804.000000	0.434079
805.000000	0.434231
806.000000	0.434336
807.000000	0.434444
808.000000	0.434479
809.000000	0.434379
810.000000	0.434257
811.000000	0.434170
812.000000	0.433988
813.000000	0.433903
814.000000	0.433909
815.000000	0.433848
816.000000	0.433568
817.000000	0.433311
818.000000	0.433198
819.000000	0.433019
820.000000	0.432859
821.000000	0.432661
822.000000	0.432358
823.000000	0.432197
824.000000	0.432019
825.000000	0.431718
826.000000	0.431430
827.000000	0.431111
828.000000	0.430841
829.000000	0.430820
830.000000	0.430706
831.000000	0.430459
832.000000	0.429986
833.000000	0.429606
834.000000	0.429248
835.000000	0.428873
836.000000	0.428562
837.000000	0.428145
838.000000	0.427668
839.000000	0.427283
840.000000	0.426895
841.000000	0.426556
842.000000	0.426246
843.000000	0.425842
844.000000	0.425436
845.000000	0.425028
846.000000	0.424615
847.000000	0.424149
848.000000	0.423672
849.000000	0.423275
850.000000	0.422829
851.000000	0.422378
852.000000	0.421987
853.000000	0.421573
854.000000	0.421192
855.000000	0.420854
856.000000	0.420319
857.000000	0.419716
858.000000	0.419276
859.000000	0.418906
860.000000	0.418309
861.000000	0.417766
862.000000	0.417324
863.000000	0.416844
864.000000	0.416438
865.000000	0.416020
866.000000	0.415561
867.000000	0.415038
868.000000	0.414577
869.000000	0.414086
870.000000	0.413562
871.000000	0.413132
872.000000	0.412682
873.000000	0.412120
874.000000	0.411749
875.000000	0.411257
876.000000	0.410669
877.000000	0.410064
878.000000	0.409546
879.000000	0.409211
880.000000	0.408862
881.000000	0.408429
882.000000	0.407855
883.000000	0.407256
884.000000	0.406715
885.000000	0.406185
886.000000	0.405639
887.000000	0.405120
888.000000	0.404696
889.000000	0.404215
890.000000	0.403624
891.000000	0.403211
892.000000	0.402934
893.000000	0.402582
894.000000	0.402189
895.000000	0.401674
896.000000	0.401166
897.000000	0.400715
898.000000	0.400311
899.000000	0.399798
900.000000	0.399278
901.000000	0.398780
902.000000	0.398380
903.000000	0.398085
904.000000	0.397767
905.000000	0.397215
906.000000	0.396884
907.000000	0.396525
908.000000	0.396115
909.000000	0.395665
910.000000	0.395325
911.000000	0.395102
912.000000	0.394906
913.000000	0.394344
914.000000	0.393794
915.000000	0.393360
916.000000	0.392735
917.000000	0.392367
918.000000	0.392140
919.000000	0.391861
920.000000	0.391525
921.000000	0.391112
922.000000	0.390693
923.000000	0.390338
924.000000	0.390013
925.000000	0.389697
926.000000	0.389384
927.000000	0.388930
928.000000	0.388610
929.000000	0.388317
930.000000	0.387877
931.000000	0.387535
932.000000	0.387184
933.000000	0.386859
934.000000	0.386623
935.000000	0.386183
936.000000	0.385843
937.000000	0.385680
938.000000	0.385197
939.000000	0.384906
940.000000	0.384730
941.000000	0.384446
942.000000	0.383927
943.000000	0.383548
944.000000	0.383337
945.000000	0.383142
946.000000	0.382711
947.000000	0.382309
948.000000	0.382175
949.000000	0.381985
950.000000	0.381777
951.000000	0.381496
952.000000	0.381161
953.000000	0.380962
954.000000	0.380773
955.000000	0.380405
956.000000	0.380047
957.000000	0.379751
958.000000	0.379471
959.000000	0.379282
960.000000	0.379201
961.000000	0.378989
962.000000	0.378625
963.000000	0.378427
964.000000	0.378066
965.000000	0.377877
966.000000	0.377905
967.000000	0.377608
968.000000	0.377244
969.000000	0.377007
970.000000	0.377152
971.000000	0.377276
972.000000	0.377331
973.000000	0.377246
974.000000	0.377130
975.000000	0.376867
976.000000	0.376560
977.000000	0.376290
978.000000	0.375930
979.000000	0.375995
980.000000	0.376019
981.000000	0.375810
982.000000	0.375642
983.000000	0.375590
984.000000	0.375633
985.000000	0.375486
986.000000	0.375301
987.000000	0.375274
988.000000	0.375347
989.000000	0.375437
990.000000	0.375245
991.000000	0.375076
992.000000	0.375339
993.000000	0.375516
994.000000	0.375370
995.000000	0.375347
996.000000	0.375768
997.000000	0.375999
998.000000	0.375823
999.000000	0.375631
1000.000000	0.376239
1001.000000	0.376413
1002.000000	0.375742
1003.000000	0.375537
1004.000000	0.375580
1005.000000	0.375647
1006.000000	0.375469
1007.000000	0.375533
1008.000000	0.375757
1009.000000	0.375691
1010.000000	0.375467
1011.000000	0.375489
1012.000000	0.376027
1013.000000	0.375922
1014.000000	0.375977
1015.000000	0.376586
1016.000000	0.376651
1017.000000	0.376456
1018.000000	0.376841
1019.000000	0.377043
1020.000000	0.377262
1021.000000	0.377057
1022.000000	0.376891
1023.000000	0.377098
1024.000000	0.376957
1025.000000	0.377497
1026.000000	0.378130
1027.000000	0.378425
1028.000000	0.378918
1029.000000	0.379175
1030.000000	0.378778
1031.000000	0.378168
1032.000000	0.378406
1033.000000	0.379004
1034.000000	0.379110
1035.000000	0.379595
1036.000000	0.380018
1037.000000	0.379603
1038.000000	0.379621
1039.000000	0.380227
1040.000000	0.381304
1041.000000	0.380938
1042.000000	0.380639
1043.000000	0.380954
1044.000000	0.381229
1045.000000	0.381966
1046.000000	0.382594
1047.000000	0.382990
1048.000000	0.382883
1049.000000	0.383036
1050.000000	0.383282
1051.000000	0.383641
1052.000000	0.384028
1053.000000	0.384119
1054.000000	0.384352
1055.000000	0.384631
1056.000000	0.384633
1057.000000	0.385069
1058.000000	0.385753
1059.000000	0.386202
1060.000000	0.386479
1061.000000	0.386717
1062.000000	0.387106
1063.000000	0.387541
1064.000000	0.387767
1065.000000	0.387840
1066.000000	0.388217
1067.000000	0.388706
1068.000000	0.388759
1069.000000	0.388666
1070.000000	0.388851
1071.000000	0.388756
1072.000000	0.388781
1073.000000	0.389036
1074.000000	0.389814
1075.000000	0.390258
1076.000000	0.390575
1077.000000	0.391076
1078.000000	0.391533
1079.000000	0.391813
1080.000000	0.391826
1081.000000	0.392068
1082.000000	0.392434
1083.000000	0.392781
1084.000000	0.393303
1085.000000	0.393669
1086.000000	0.393998
1087.000000	0.394282
1088.000000	0.394140
1089.000000	0.394371
1090.000000	0.394900
1091.000000	0.395087
1092.000000	0.395407
1093.000000	0.396051
1094.000000	0.396132
1095.000000	0.395516
1096.000000	0.395850
1097.000000	0.396417
1098.000000	0.396909
1099.000000	0.397904
1100.000000	0.398516
1101.000000	0.398662
1102.000000	0.399051
1103.000000	0.399741
1104.000000	0.400042
1105.000000	0.399951
1106.000000	0.400164
1107.000000	0.400174
1108.000000	0.400321
1109.000000	0.400901
1110.000000	0.401353
1111.000000	0.401700
1112.000000	0.401994
1113.000000	0.402216
1114.000000	0.402348
1115.000000	0.402507
1116.000000	0.402526
1117.000000	0.402769
1118.000000	0.403146
1119.000000	0.403361
1120.000000	0.403569
1121.000000	0.403847
1122.000000	0.404227
1123.000000	0.404732
1124.000000	0.405021
1125.000000	0.405455
1126.000000	0.405847
1127.000000	0.406158
1128.000000	0.406466
1129.000000	0.406987
1130.000000	0.407198
1131.000000	0.407154
1132.000000	0.407316
1133.000000	0.407529
1134.000000	0.407760
1135.000000	0.408068
1136.000000	0.408234
1137.000000	0.408330
1138.000000	0.408352
1139.000000	0.408335
1140.000000	0.408499
1141.000000	0.408648
1142.000000	0.408784
1143.000000	0.408895
1144.000000	0.409177
1145.000000	0.409406
1146.000000	0.409329
1147.000000	0.409393
1148.000000	0.409334
1149.000000	0.409479
1150.000000	0.409693
1151.000000	0.409916
1152.000000	0.410227
1153.000000	0.410464
1154.000000	0.410557
1155.000000	0.410729
1156.000000	0.410917
1157.000000	0.411156
1158.000000	0.411356
1159.000000	0.411595
1160.000000	0.411849
1161.000000	0.412165
1162.000000	0.412601
1163.000000	0.413234
1164.000000	0.413624
1165.000000	0.413824
1166.000000	0.414100
1167.000000	0.414179
1168.000000	0.414272
1169.000000	0.414445
1170.000000	0.414642
1171.000000	0.414782
1172.000000	0.415025
1173.000000	0.415333
1174.000000	0.415614
1175.000000	0.415829
1176.000000	0.416071
1177.000000	0.416544
1178.000000	0.416858
1179.000000	0.417042
1180.000000	0.417233
1181.000000	0.417566
1182.000000	0.417672
1183.000000	0.417885
1184.000000	0.418305
1185.000000	0.418629
1186.000000	0.418967
1187.000000	0.419220
1188.000000	0.419445
1189.000000	0.419644
1190.000000	0.419806
1191.000000	0.420046
1192.000000	0.420518
1193.000000	0.420936
1194.000000	0.421178
1195.000000	0.421467
1196.000000	0.421610
1197.000000	0.421821
1198.000000	0.422118
1199.000000	0.422418
1200.000000	0.422667
1201.000000	0.423056
1202.000000	0.423500
1203.000000	0.423857
1204.000000	0.423942
1205.000000	0.424146
1206.000000	0.424324
1207.000000	0.424475
1208.000000	0.424625
1209.000000	0.424970
1210.000000	0.425215
1211.000000	0.425320
1212.000000	0.425575
1213.000000	0.425979
1214.000000	0.426372
1215.000000	0.426848
1216.000000	0.427190
1217.000000	0.427457
1218.000000	0.427701
1219.000000	0.427900
1220.000000	0.428051
1221.000000	0.428335
1222.000000	0.428707
1223.000000	0.429055
1224.000000	0.429370
1225.000000	0.429685
1226.000000	0.429879
1227.000000	0.429927
1228.000000	0.430330
1229.000000	0.430624
1230.000000	0.430945
1231.000000	0.431084
1232.000000	0.431320
1233.000000	0.431613
1234.000000	0.431738
1235.000000	0.432001
1236.000000	0.432290
1237.000000	0.432649
1238.000000	0.433028
1239.000000	0.433341
1240.000000	0.433692
1241.000000	0.433961
1242.000000	0.434273
1243.000000	0.434505
1244.000000	0.434680
1245.000000	0.435068
1246.000000	0.435360
1247.000000	0.435679
1248.000000	0.436269
1249.000000	0.436778
1250.000000	0.437106
1251.000000	0.437490
1252.000000	0.437751
1253.000000	0.437885
1254.000000	0.438046
1255.000000	0.438085
1256.000000	0.438300
1257.000000	0.438620
1258.000000	0.438955
1259.000000	0.439441
1260.000000	0.439796
1261.000000	0.439800
1262.000000	0.440033
1263.000000	0.440395
1264.000000	0.440646
1265.000000	0.441056
1266.000000	0.441666
1267.000000	0.442080
1268.000000	0.442371
1269.000000	0.442526
1270.000000	0.442772
1271.000000	0.442990
1272.000000	0.443281
1273.000000	0.443777
1274.000000	0.444065
1275.000000	0.444254
1276.000000	0.444366
1277.000000	0.444639
1278.000000	0.444645
1279.000000	0.444935
1280.000000	0.445409
1281.000000	0.445699
1282.000000	0.446136
1283.000000	0.446523
1284.000000	0.446662
1285.000000	0.446953
1286.000000	0.447261
1287.000000	0.447549
1288.000000	0.447909
1289.000000	0.448149
1290.000000	0.448267
1291.000000	0.448429
1292.000000	0.448597
1293.000000	0.448768
1294.000000	0.449054
1295.000000	0.449363
1296.000000	0.449615
1297.000000	0.449881
1298.000000	0.450215
1299.000000	0.450467
1300.000000	0.450660
1301.000000	0.450867
1302.000000	0.450977
1303.000000	0.451155
1304.000000	0.451232
1305.000000	0.451395
1306.000000	0.451470
1307.000000	0.451489
1308.000000	0.451573
1309.000000	0.451646
1310.000000	0.451757
1311.000000	0.451984
1312.000000	0.452061
1313.000000	0.452143
1314.000000	0.452178
1315.000000	0.452045
1316.000000	0.452134
1317.000000	0.452239
1318.000000	0.452369
1319.000000	0.452521
1320.000000	0.452631
1321.000000	0.452709
1322.000000	0.452694
1323.000000	0.452756
1324.000000	0.452853
1325.000000	0.452726
1326.000000	0.452578
1327.000000	0.452739
1328.000000	0.452998
1329.000000	0.453013
1330.000000	0.453131
1331.000000	0.453220
1332.000000	0.453006
1333.000000	0.453094
1334.000000	0.453609
1335.000000	0.453809
1336.000000	0.453965
1337.000000	0.454105
1338.000000	0.454069
1339.000000	0.453990
1340.000000	0.453894
1341.000000	0.453763
1342.000000	0.453595
1343.000000	0.453551
1344.000000	0.453759
1345.000000	0.453876
1346.000000	0.453908
1347.000000	0.453721
1348.000000	0.453608
1349.000000	0.453370
1350.000000	0.453399
1351.000000	0.453699
1352.000000	0.453701
1353.000000	0.453686
1354.000000	0.453606
1355.000000	0.453347
1356.000000	0.453427
1357.000000	0.453468
1358.000000	0.453473
1359.000000	0.453434
1360.000000	0.453263
1361.000000	0.452917
1362.000000	0.452745
1363.000000	0.452615
1364.000000	0.452380
1365.000000	0.452057
1366.000000	0.451881
1367.000000	0.451756
1368.000000	0.451339
1369.000000	0.451213
1370.000000	0.450940
1371.000000	0.450258
1372.000000	0.449662
1373.000000	0.449122
1374.000000	0.448593
1375.000000	0.448006
1376.000000	0.447429
1377.000000	0.446862
1378.000000	0.446099
1379.000000	0.444985
1380.000000	0.443900
1381.000000	0.442647
1382.000000	0.441059
1383.000000	0.439778
1384.000000	0.438257
1385.000000	0.436328
1386.000000	0.434597
1387.000000	0.432521
1388.000000	0.430032
1389.000000	0.427715
1390.000000	0.425264
1391.000000	0.422314
1392.000000	0.419296
1393.000000	0.416128
1394.000000	0.412673
1395.000000	0.409268
1396.000000	0.405944
1397.000000	0.402345
1398.000000	0.398349
1399.000000	0.394773
1400.000000	0.391203
1401.000000	0.387680
1402.000000	0.384410
1403.000000	0.381131
1404.000000	0.377894
1405.000000	0.374923
1406.000000	0.372305
1407.000000	0.370203
1408.000000	0.368226
1409.000000	0.366394
1410.000000	0.365004
1411.000000	0.363643
1412.000000	0.362377
1413.000000	0.361505
1414.000000	0.360588
1415.000000	0.359858
1416.000000	0.359480
1417.000000	0.359047
1418.000000	0.358628
1419.000000	0.358290
1420.000000	0.357840
1421.000000	0.357627
1422.000000	0.357506
1423.000000	0.357492
1424.000000	0.357324
1425.000000	0.357053
1426.000000	0.356903
1427.000000	0.356767
1428.000000	0.356741
1429.000000	0.356803
1430.000000	0.356832
1431.000000	0.356922
1432.000000	0.356992
1433.000000	0.357134
1434.000000	0.357275
1435.000000	0.357422
1436.000000	0.357683
1437.000000	0.357982
1438.000000	0.358411
1439.000000	0.358946
1440.000000	0.359673
1441.000000	0.360523
1442.000000	0.361562
1443.000000	0.362666
1444.000000	0.364127
1445.000000	0.365631
1446.000000	0.367314
1447.000000	0.369115
1448.000000	0.370686
1449.000000	0.372276
1450.000000	0.373843
1451.000000	0.375278
1452.000000	0.376615
1453.000000	0.377831
1454.000000	0.378931
1455.000000	0.379950
1456.000000	0.381067
1457.000000	0.382166
1458.000000	0.383107
1459.000000	0.383940
1460.000000	0.384730
1461.000000	0.385461
1462.000000	0.386126
1463.000000	0.386824
1464.000000	0.387587
1465.000000	0.388478
1466.000000	0.389344
1467.000000	0.390298
1468.000000	0.391305
1469.000000	0.392155
1470.000000	0.393044
1471.000000	0.394019
1472.000000	0.394806
1473.000000	0.395798
1474.000000	0.396802
1475.000000	0.397682
1476.000000	0.398684
1477.000000	0.399701
1478.000000	0.400643
1479.000000	0.401617
1480.000000	0.402669
1481.000000	0.403598
1482.000000	0.404491
1483.000000	0.405403
1484.000000	0.406285
1485.000000	0.407163
1486.000000	0.408021
1487.000000	0.408872
1488.000000	0.409750
1489.000000	0.410597
1490.000000	0.411203
1491.000000	0.412006
1492.000000	0.412841
1493.000000	0.413647
1494.000000	0.414459
1495.000000	0.415235
1496.000000	0.415992
1497.000000	0.416708
1498.000000	0.417396
1499.000000	0.418147
1500.000000	0.418788
1501.000000	0.419429
1502.000000	0.420148
1503.000000	0.420826
1504.000000	0.421513
1505.000000	0.422014
1506.000000	0.422434
1507.000000	0.423039
1508.000000	0.423783
1509.000000	0.424455
1510.000000	0.425005
1511.000000	0.425491
1512.000000	0.425903
1513.000000	0.426419
1514.000000	0.427079
1515.000000	0.427624
1516.000000	0.428070
1517.000000	0.428470
1518.000000	0.428912
1519.000000	0.429331
1520.000000	0.429732
1521.000000	0.430085
1522.000000	0.430444
1523.000000	0.430793
1524.000000	0.431175
1525.000000	0.431683
1526.000000	0.432157
1527.000000	0.432570
1528.000000	0.432997
1529.000000	0.433385
1530.000000	0.433525
1531.000000	0.433831
1532.000000	0.434252
1533.000000	0.434429
1534.000000	0.434902
1535.000000	0.435497
1536.000000	0.435729
1537.000000	0.436161
1538.000000	0.436663
1539.000000	0.436918
1540.000000	0.437232
1541.000000	0.437700
1542.000000	0.438095
1543.000000	0.438408
1544.000000	0.438835
1545.000000	0.439333
1546.000000	0.439676
1547.000000	0.440021
1548.000000	0.440467
1549.000000	0.440764
1550.000000	0.440992
1551.000000	0.441274
1552.000000	0.441481
1553.000000	0.441615
1554.000000	0.441803
1555.000000	0.442088
1556.000000	0.442251
1557.000000	0.442428
1558.000000	0.442722
1559.000000	0.443012
1560.000000	0.443161
1561.000000	0.443383
1562.000000	0.443590
1563.000000	0.443747
1564.000000	0.443937
1565.000000	0.444206
1566.000000	0.444352
1567.000000	0.444528
1568.000000	0.444669
1569.000000	0.444927
1570.000000	0.445100
1571.000000	0.445109
1572.000000	0.445232
1573.000000	0.445510
1574.000000	0.445580
1575.000000	0.445567
1576.000000	0.445696
1577.000000	0.445709
1578.000000	0.445807
1579.000000	0.446141
1580.000000	0.446369
1581.000000	0.446659
1582.000000	0.446849
1583.000000	0.447026
1584.000000	0.447125
1585.000000	0.447282
1586.000000	0.447409
1587.000000	0.447410
1588.000000	0.447533
1589.000000	0.447713
1590.000000	0.447812
1591.000000	0.447950
1592.000000	0.448192
1593.000000	0.448501
1594.000000	0.448698
1595.000000	0.449070
1596.000000	0.449284
1597.000000	0.449329
1598.000000	0.449409
1599.000000	0.449516
1600.000000	0.449599
1601.000000	0.449749
1602.000000	0.449899
1603.000000	0.450140
1604.000000	0.450268
1605.000000	0.450378
1606.000000	0.450483
1607.000000	0.450635
1608.000000	0.450682
1609.000000	0.450716
1610.000000	0.450800
1611.000000	0.450861
1612.000000	0.450976
1613.000000	0.451381
1614.000000	0.451544
1615.000000	0.451669
1616.000000	0.451821
1617.000000	0.451813
1618.000000	0.451912
1619.000000	0.452043
1620.000000	0.452160
1621.000000	0.452394
1622.000000	0.452540
1623.000000	0.452488
1624.000000	0.452631
1625.000000	0.452663
1626.000000	0.452721
1627.000000	0.452920
1628.000000	0.453130
1629.000000	0.453313
1630.000000	0.453486
1631.000000	0.453617
1632.000000	0.453740
1633.000000	0.453762
1634.000000	0.453919
1635.000000	0.454300
1636.000000	0.454487
1637.000000	0.454672
1638.000000	0.454791
1639.000000	0.454865
1640.000000	0.454932
1641.000000	0.455093
1642.000000	0.455175
1643.000000	0.455293
1644.000000	0.455274
1645.000000	0.455061
1646.000000	0.455060
1647.000000	0.455135
1648.000000	0.455174
1649.000000	0.455546
1650.000000	0.455638
1651.000000	0.455549
1652.000000	0.455683
1653.000000	0.455687
1654.000000	0.455931
1655.000000	0.456350
1656.000000	0.456511
1657.000000	0.456832
1658.000000	0.456960
1659.000000	0.457064
1660.000000	0.457126
1661.000000	0.456898
1662.000000	0.456956
1663.000000	0.457045
1664.000000	0.457165
1665.000000	0.457474
1666.000000	0.457694
1667.000000	0.457703
1668.000000	0.457802
1669.000000	0.457895
1670.000000	0.457945
1671.000000	0.458129
1672.000000	0.458373
1673.000000	0.458629
1674.000000	0.458906
1675.000000	0.459111
1676.000000	0.459314
1677.000000	0.459322
1678.000000	0.459201
1679.000000	0.459228
1680.000000	0.459180
1681.000000	0.459148
1682.000000	0.459320
1683.000000	0.459430
1684.000000	0.459421
1685.000000	0.459606
1686.000000	0.459634
1687.000000	0.459507
1688.000000	0.459535
1689.000000	0.459444
1690.000000	0.459423
1691.000000	0.459665
1692.000000	0.459495
1693.000000	0.459385
1694.000000	0.459332
1695.000000	0.459316
1696.000000	0.459551
1697.000000	0.459541
1698.000000	0.459359
1699.000000	0.459362
1700.000000	0.459426
1701.000000	0.459558
1702.000000	0.459595
1703.000000	0.459529
1704.000000	0.459437
1705.000000	0.459417
1706.000000	0.459533
1707.000000	0.459537
1708.000000	0.459373
1709.000000	0.459318
1710.000000	0.459476
1711.000000	0.459509
1712.000000	0.459655
1713.000000	0.459671
1714.000000	0.459489
1715.000000	0.459481
1716.000000	0.459601
1717.000000	0.459656
1718.000000	0.459699
1719.000000	0.459701
1720.000000	0.459775
1721.000000	0.459737
1722.000000	0.459663
1723.000000	0.459539
1724.000000	0.459262
1725.000000	0.459209
1726.000000	0.459183
1727.000000	0.459039
1728.000000	0.458805
1729.000000	0.458616
1730.000000	0.458539
1731.000000	0.458434
1732.000000	0.458451
1733.000000	0.458514
1734.000000	0.458318
1735.000000	0.458250
1736.000000	0.458271
1737.000000	0.458250
1738.000000	0.458230
1739.000000	0.458174
1740.000000	0.458155
1741.000000	0.457975
1742.000000	0.457651
1743.000000	0.457545
1744.000000	0.457397
1745.000000	0.457364
1746.000000	0.457470
1747.000000	0.457447
1748.000000	0.457399
1749.000000	0.457476
1750.000000	0.457291
1751.000000	0.457066
1752.000000	0.457042
1753.000000	0.456683
1754.000000	0.456470
1755.000000	0.456428
1756.000000	0.456317
1757.000000	0.456249
1758.000000	0.456087
1759.000000	0.455813
1760.000000	0.455596
1761.000000	0.455230
1762.000000	0.454949
1763.000000	0.454746
1764.000000	0.454641
1765.000000	0.454539
1766.000000	0.454530
1767.000000	0.454607
1768.000000	0.454529
1769.000000	0.454573
1770.000000	0.454553
1771.000000	0.454372
1772.000000	0.454252
1773.000000	0.454005
1774.000000	0.453910
1775.000000	0.454067
1776.000000	0.453934
1777.000000	0.453658
1778.000000	0.453460
1779.000000	0.453069
1780.000000	0.452875
1781.000000	0.452805
1782.000000	0.452731
1783.000000	0.452711
1784.000000	0.452947
1785.000000	0.452908
1786.000000	0.452742
1787.000000	0.452773
1788.000000	0.452713
1789.000000	0.452605
1790.000000	0.452803
1791.000000	0.452725
1792.000000	0.452602
1793.000000	0.452501
1794.000000	0.452191
1795.000000	0.452143
1796.000000	0.452423
1797.000000	0.452374
1798.000000	0.452179
1799.000000	0.452101
1800.000000	0.451892
1801.000000	0.451864
1802.000000	0.451973
1803.000000	0.452334
1804.000000	0.452147
1805.000000	0.451404
1806.000000	0.451374
1807.000000	0.451332
1808.000000	0.451372
1809.000000	0.451977
1810.000000	0.452400
1811.000000	0.452684
1812.000000	0.452806
1813.000000	0.452898
1814.000000	0.453105
1815.000000	0.453132
1816.000000	0.452930
1817.000000	0.452487
1818.000000	0.451865
1819.000000	0.451592
1820.000000	0.451058
1821.000000	0.450476
1822.000000	0.450666
1823.000000	0.451734
1824.000000	0.451730
1825.000000	0.451892
1826.000000	0.451745
1827.000000	0.450856
1828.000000	0.449611
1829.000000	0.448798
1830.000000	0.448261
1831.000000	0.447729
1832.000000	0.446883
1833.000000	0.446815
1834.000000	0.447617
1835.000000	0.447728
1836.000000	0.448207
1837.000000	0.448116
1838.000000	0.447686
1839.000000	0.445812
1840.000000	0.444680
1841.000000	0.444107
1842.000000	0.443848
1843.000000	0.444579
1844.000000	0.444420
1845.000000	0.443880
1846.000000	0.443618
1847.000000	0.443057
1848.000000	0.441990
1849.000000	0.441567
1850.000000	0.441113
1851.000000	0.440632
1852.000000	0.440130
1853.000000	0.439481
1854.000000	0.438246
1855.000000	0.437573
1856.000000	0.437357
1857.000000	0.435992
1858.000000	0.434581
1859.000000	0.433514
1860.000000	0.431190
1861.000000	0.429090
1862.000000	0.427399
1863.000000	0.426304
1864.000000	0.424681
1865.000000	0.423617
1866.000000	0.421472
1867.000000	0.418379
1868.000000	0.415847
1869.000000	0.412525
1870.000000	0.408661
1871.000000	0.405135
1872.000000	0.400796
1873.000000	0.396820
1874.000000	0.392634
1875.000000	0.388615
1876.000000	0.384435
1877.000000	0.380491
1878.000000	0.375808
1879.000000	0.370626
1880.000000	0.364886
1881.000000	0.358715
1882.000000	0.352570
1883.000000	0.346054
1884.000000	0.339320
1885.000000	0.332203
1886.000000	0.324545
1887.000000	0.316229
1888.000000	0.307906
1889.000000	0.298865
1890.000000	0.290477
1891.000000	0.282763
1892.000000	0.274554
1893.000000	0.266441
1894.000000	0.258925
1895.000000	0.251496
1896.000000	0.244138
1897.000000	0.236952
1898.000000	0.230617
1899.000000	0.224672
1900.000000	0.218773
1901.000000	0.213760
1902.000000	0.209329
1903.000000	0.205538
1904.000000	0.202885
1905.000000	0.200752
1906.000000	0.199220
1907.000000	0.198522
1908.000000	0.198559
1909.000000	0.198360
1910.000000	0.198697
1911.000000	0.199806
1912.000000	0.201375
1913.000000	0.203553
1914.000000	0.205582
1915.000000	0.207361
1916.000000	0.208794
1917.000000	0.210402
1918.000000	0.211977
1919.000000	0.213938
1920.000000	0.215641
1921.000000	0.217589
1922.000000	0.219140
1923.000000	0.220990
1924.000000	0.223002
1925.000000	0.224008
1926.000000	0.225158
1927.000000	0.226698
1928.000000	0.228040
1929.000000	0.229255
1930.000000	0.231231
1931.000000	0.232962
1932.000000	0.233547
1933.000000	0.234679
1934.000000	0.235953
1935.000000	0.237309
1936.000000	0.239029
1937.000000	0.240152
1938.000000	0.240458
1939.000000	0.240762
1940.000000	0.240435
1941.000000	0.240656
1942.000000	0.241264
1943.000000	0.241903
1944.000000	0.242764
1945.000000	0.243221
1946.000000	0.243379
1947.000000	0.244117
1948.000000	0.245120
1949.000000	0.245698
1950.000000	0.246412
1951.000000	0.246862
1952.000000	0.247112
1953.000000	0.246760
1954.000000	0.247578
1955.000000	0.248227
1956.000000	0.248493
1957.000000	0.249681
1958.000000	0.250220
1959.000000	0.250609
1960.000000	0.250882
1961.000000	0.250659
1962.000000	0.250710
1963.000000	0.250683
1964.000000	0.250521
1965.000000	0.250850
1966.000000	0.251978
1967.000000	0.252696
1968.000000	0.253358
1969.000000	0.254000
1970.000000	0.254001
1971.000000	0.254193
1972.000000	0.254842
1973.000000	0.255542
1974.000000	0.256852
1975.000000	0.257971
1976.000000	0.259247
1977.000000	0.260080
1978.000000	0.261253
1979.000000	0.262443
1980.000000	0.263188
1981.000000	0.264567
1982.000000	0.265945
1983.000000	0.266971
1984.000000	0.267962
1985.000000	0.269001
1986.000000	0.269847
1987.000000	0.270525
1988.000000	0.271485
1989.000000	0.271599
1990.000000	0.272229
1991.000000	0.273453
1992.000000	0.273999
1993.000000	0.275659
1994.000000	0.277976
1995.000000	0.279189
1996.000000	0.280605
1997.000000	0.281632
1998.000000	0.282046
1999.000000	0.282863
2000.000000	0.283711
2001.000000	0.284454
2002.000000	0.285571
2003.000000	0.286511
2004.000000	0.287596
2005.000000	0.288979
2006.000000	0.290151
2007.000000	0.291758
2008.000000	0.293228
2009.000000	0.294492
2010.000000	0.295903
2011.000000	0.297417
2012.000000	0.298730
2013.000000	0.299870
2014.000000	0.301017
2015.000000	0.302494
2016.000000	0.303935
2017.000000	0.305419
2018.000000	0.307094
2019.000000	0.307755
2020.000000	0.308173
2021.000000	0.309106
2022.000000	0.309656
2023.000000	0.310749
2024.000000	0.312880
2025.000000	0.314471
2026.000000	0.315640
2027.000000	0.317548
2028.000000	0.318700
2029.000000	0.319112
2030.000000	0.319725
2031.000000	0.320223
2032.000000	0.321765
2033.000000	0.323250
2034.000000	0.324411
2035.000000	0.325881
2036.000000	0.326810
2037.000000	0.327337
2038.000000	0.328290
2039.000000	0.329380
2040.000000	0.330521
2041.000000	0.331501
2042.000000	0.331797
2043.000000	0.332898
2044.000000	0.333699
2045.000000	0.334445
2046.000000	0.335674
2047.000000	0.336620
2048.000000	0.337081
2049.000000	0.338053
2050.000000	0.339015
2051.000000	0.339797
2052.000000	0.340379
2053.000000	0.340997
2054.000000	0.342007
2055.000000	0.342597
2056.000000	0.343460
2057.000000	0.344189
2058.000000	0.344475
2059.000000	0.345601
2060.000000	0.346569
2061.000000	0.347490
2062.000000	0.348546
2063.000000	0.350468
2064.000000	0.350852
2065.000000	0.350739
2066.000000	0.350805
2067.000000	0.350408
2068.000000	0.350044
2069.000000	0.351032
2070.000000	0.351482
2071.000000	0.351892
2072.000000	0.352926
2073.000000	0.353202
2074.000000	0.354161
2075.000000	0.355238
2076.000000	0.356640
2077.000000	0.357525
2078.000000	0.358818
2079.000000	0.359184
2080.000000	0.358552
2081.000000	0.358695
2082.000000	0.358555
2083.000000	0.359000
2084.000000	0.359782
2085.000000	0.360739
2086.000000	0.361496
2087.000000	0.362025
2088.000000	0.362656
2089.000000	0.362852
2090.000000	0.363402
2091.000000	0.364088
2092.000000	0.364800
2093.000000	0.365776
2094.000000	0.366558
2095.000000	0.367397
2096.000000	0.368152
2097.000000	0.368628
2098.000000	0.369149
2099.000000	0.369883
2100.000000	0.370811
2101.000000	0.371432
2102.000000	0.372108
2103.000000	0.373079
2104.000000	0.373451
2105.000000	0.373779
2106.000000	0.373837
2107.000000	0.374478
2108.000000	0.375141
2109.000000	0.375795
2110.000000	0.377056
2111.000000	0.377545
2112.000000	0.377463
2113.000000	0.376823
2114.000000	0.376049
2115.000000	0.376079
2116.000000	0.376930
2117.000000	0.377300
2118.000000	0.377487
2119.000000	0.377161
2120.000000	0.377711
2121.000000	0.378221
2122.000000	0.378859
2123.000000	0.380674
2124.000000	0.381431
2125.000000	0.381114
2126.000000	0.381393
2127.000000	0.382014
2128.000000	0.382559
2129.000000	0.383014
2130.000000	0.383495
2131.000000	0.383649
2132.000000	0.383296
2133.000000	0.383678
2134.000000	0.383313
2135.000000	0.383574
2136.000000	0.383960
2137.000000	0.384027
2138.000000	0.383918
2139.000000	0.384225
2140.000000	0.384476
2141.000000	0.384941
2142.000000	0.386088
2143.000000	0.386187
2144.000000	0.385716
2145.000000	0.385808
2146.000000	0.385497
2147.000000	0.386345
2148.000000	0.387867
2149.000000	0.388961
2150.000000	0.389664
2151.000000	0.390276
2152.000000	0.390278
2153.000000	0.390759
2154.000000	0.390692
2155.000000	0.390419
2156.000000	0.390176
2157.000000	0.389328
2158.000000	0.389237
2159.000000	0.389578
2160.000000	0.390160
2161.000000	0.391601
2162.000000	0.392190
2163.000000	0.392518
2164.000000	0.392712
2165.000000	0.391937
2166.000000	0.391905
2167.000000	0.392677
2168.000000	0.392695
2169.000000	0.393188
2170.000000	0.393124
2171.000000	0.392684
2172.000000	0.391824
2173.000000	0.390911
2174.000000	0.389245
2175.000000	0.388301
2176.000000	0.386933
2177.000000	0.386789
2178.000000	0.388142
2179.000000	0.388847
2180.000000	0.390453
2181.000000	0.391322
2182.000000	0.390661
2183.000000	0.390251
2184.000000	0.389553
2185.000000	0.387845
2186.000000	0.387605
2187.000000	0.387129
2188.000000	0.386412
2189.000000	0.386811
2190.000000	0.386549
2191.000000	0.386290
2192.000000	0.386171
2193.000000	0.386490
2194.000000	0.386499
2195.000000	0.386646
2196.000000	0.386093
2197.000000	0.384811
2198.000000	0.384013
2199.000000	0.382943
2200.000000	0.382458
2201.000000	0.382937
2202.000000	0.383119
2203.000000	0.383534
2204.000000	0.382166
2205.000000	0.381955
2206.000000	0.381449
2207.000000	0.382283
2208.000000	0.384050
2209.000000	0.384605
2210.000000	0.385205
2211.000000	0.384893
2212.000000	0.385736
2213.000000	0.386889
2214.000000	0.390441
2215.000000	0.389803
2216.000000	0.386659
2217.000000	0.385417
2218.000000	0.382552
2219.000000	0.381532
2220.000000	0.384636
2221.000000	0.383278
2222.000000	0.378613
2223.000000	0.375513
2224.000000	0.371041
2225.000000	0.367106
2226.000000	0.365731
2227.000000	0.366056
2228.000000	0.365997
2229.000000	0.366645
2230.000000	0.366738
2231.000000	0.365556
2232.000000	0.363947
2233.000000	0.359409
2234.000000	0.354310
2235.000000	0.352295
2236.000000	0.351691
2237.000000	0.353631
2238.000000	0.354717
2239.000000	0.357479
2240.000000	0.358252
2241.000000	0.358181
2242.000000	0.357489
2243.000000	0.355369
2244.000000	0.355193
2245.000000	0.354745
2246.000000	0.355641
2247.000000	0.359406
2248.000000	0.360176
2249.000000	0.360609
2250.000000	0.359186
2251.000000	0.357318
2252.000000	0.357714
2253.000000	0.356046
2254.000000	0.355350
2255.000000	0.355421
2256.000000	0.353986
2257.000000	0.355064
2258.000000	0.356760
2259.000000	0.354698
2260.000000	0.353360
2261.000000	0.353509
2262.000000	0.354395
2263.000000	0.354039
2264.000000	0.355899
2265.000000	0.354145
2266.000000	0.348430
2267.000000	0.345675
2268.000000	0.342611
2269.000000	0.340732
2270.000000	0.341629
2271.000000	0.339903
2272.000000	0.337501
2273.000000	0.334511
2274.000000	0.329302
2275.000000	0.325440
2276.000000	0.322223
2277.000000	0.318295
2278.000000	0.314137
2279.000000	0.310672
2280.000000	0.307424
2281.000000	0.303363
2282.000000	0.300139
2283.000000	0.296030
2284.000000	0.290854
2285.000000	0.287245
2286.000000	0.281551
2287.000000	0.278902
2288.000000	0.280344
2289.000000	0.279513
2290.000000	0.279146
2291.000000	0.277732
2292.000000	0.273820
2293.000000	0.269805
2294.000000	0.267516
2295.000000	0.266571
2296.000000	0.266285
2297.000000	0.266462
2298.000000	0.267944
2299.000000	0.272522
2300.000000	0.274806
2301.000000	0.276473
2302.000000	0.278281
2303.000000	0.278408
2304.000000	0.279067
2305.000000	0.281106
2306.000000	0.282072
2307.000000	0.281850
2308.000000	0.282750
2309.000000	0.284413
2310.000000	0.287246
2311.000000	0.291057
2312.000000	0.293516
2313.000000	0.294939
2314.000000	0.294856
2315.000000	0.296884
2316.000000	0.300059
2317.000000	0.301911
2318.000000	0.305680
2319.000000	0.306985
2320.000000	0.305708
2321.000000	0.304982
2322.000000	0.302579
2323.000000	0.300266
2324.000000	0.301058
2325.000000	0.303728
2326.000000	0.307044
2327.000000	0.310865
2328.000000	0.313319
2329.000000	0.315001
2330.000000	0.315975
2331.000000	0.314764
2332.000000	0.313834
2333.000000	0.311537
2334.000000	0.308166
2335.000000	0.307082
2336.000000	0.307492
2337.000000	0.306136
2338.000000	0.304956
2339.000000	0.303961
2340.000000	0.301340
2341.000000	0.301207
2342.000000	0.303856
2343.000000	0.304351
2344.000000	0.304557
2345.000000	0.303465
2346.000000	0.300972
2347.000000	0.299249
2348.000000	0.296666
2349.000000	0.296481
2350.000000	0.295387
2351.000000	0.294262
2352.000000	0.294152
2353.000000	0.293632
2354.000000	0.296085
2355.000000	0.297233
2356.000000	0.294347
2357.000000	0.292003
2358.000000	0.287379
2359.000000	0.279562
2360.000000	0.276033
2361.000000	0.275350
2362.000000	0.274680
2363.000000	0.278466
2364.000000	0.282509
2365.000000	0.283647
2366.000000	0.282639
2367.000000	0.278663
2368.000000	0.271825
2369.000000	0.265873
2370.000000	0.260868
2371.000000	0.257762
2372.000000	0.258791
2373.000000	0.260496
2374.000000	0.265520
2375.000000	0.271301
2376.000000	0.273913
2377.000000	0.275024
2378.000000	0.272545
2379.000000	0.263712
2380.000000	0.254367
2381.000000	0.250279
2382.000000	0.244814
2383.000000	0.241816
2384.000000	0.243080
2385.000000	0.238508
2386.000000	0.231274
2387.000000	0.226428
2388.000000	0.224224
2389.000000	0.223873
2390.000000	0.224634
2391.000000	0.226288
2392.000000	0.226273
2393.000000	0.224242
2394.000000	0.225883
2395.000000	0.229385
2396.000000	0.226568
2397.000000	0.227880
2398.000000	0.230947
2399.000000	0.228145
2400.000000	0.231165
2401.000000	0.231116
2402.000000	0.227218
2403.000000	0.228651
2404.000000	0.226758
2405.000000	0.226615
2406.000000	0.225808
2407.000000	0.220145
2408.000000	0.218883
2409.000000	0.218426
2410.000000	0.218784
2411.000000	0.220788
2412.000000	0.220198
2413.000000	0.218750
2414.000000	0.220044
2415.000000	0.222246
2416.000000	0.228152
2417.000000	0.234521
2418.000000	0.230040
2419.000000	0.227134
2420.000000	0.229580
2421.000000	0.228711
2422.000000	0.235078
2423.000000	0.243148
2424.000000	0.242289
2425.000000	0.239605
2426.000000	0.240940
2427.000000	0.245249
2428.000000	0.246397
2429.000000	0.249345
2430.000000	0.247700
2431.000000	0.237120
2432.000000	0.225229
2433.000000	0.216163
2434.000000	0.210238
2435.000000	0.201998
2436.000000	0.209735
2437.000000	0.222947
2438.000000	0.229106
2439.000000	0.235751
2440.000000	0.229009
2441.000000	0.225866
2442.000000	0.221638
2443.000000	0.217864
2444.000000	0.217866
2445.000000	0.201091
2446.000000	0.197439
2447.000000	0.206254
2448.000000	0.210229
2449.000000	0.218227
2450.000000	0.211836
2451.000000	0.192204
2452.000000	0.176231
2453.000000	0.163745
2454.000000	0.170497
2455.000000	0.178805
2456.000000	0.172145
2457.000000	0.182951
2458.000000	0.193783
2459.000000	0.192758
2460.000000	0.203051
2461.000000	0.197299
2462.000000	0.180800
2463.000000	0.174693
2464.000000	0.168672
2465.000000	0.179094
2466.000000	0.194372
2467.000000	0.187476
2468.000000	0.190572
2469.000000	0.195695
2470.000000	0.178495
2471.000000	0.169140
2472.000000	0.150894
2473.000000	0.128901
2474.000000	0.129705
2475.000000	0.165148
2476.000000	0.222161
2477.000000	0.238203
2478.000000	0.228055
2479.000000	0.193475
2480.000000	0.142802
2481.000000	0.167525
2482.000000	0.211441
2483.000000	0.235162
2484.000000	0.269664
2485.000000	0.232718
2486.000000	0.201739
2487.000000	0.242365
2488.000000	0.272779
2489.000000	0.281341
2490.000000	0.273441
2491.000000	0.182335
2492.000000	0.147138
2493.000000	0.196538
2494.000000	0.218130
2495.000000	0.246095
2496.000000	0.249453
2497.000000	0.205236
2498.000000	0.204349
2499.000000	0.223300
2500.000000	0.240035
