# Wavelength	NAu-2-70_HEX-20_FV7-10_00001.asd.rts.txt
350.000000	0.080788
351.000000	0.060498
352.000000	0.062940
353.000000	0.069098
354.000000	0.068068
355.000000	0.064755
356.000000	0.067944
357.000000	0.076809
358.000000	0.083748
359.000000	0.078365
360.000000	0.072651
361.000000	0.079762
362.000000	0.081773
363.000000	0.078035
364.000000	0.071793
365.000000	0.072119
366.000000	0.073289
367.000000	0.072896
368.000000	0.071059
369.000000	0.074648
370.000000	0.078509
371.000000	0.075134
372.000000	0.069655
373.000000	0.070164
374.000000	0.077910
375.000000	0.076858
376.000000	0.074477
377.000000	0.074437
378.000000	0.077668
379.000000	0.074962
380.000000	0.070431
381.000000	0.071717
382.000000	0.072107
383.000000	0.073274
384.000000	0.076455
385.000000	0.079404
386.000000	0.079210
387.000000	0.077334
388.000000	0.080184
389.000000	0.080492
390.000000	0.078882
391.000000	0.078436
392.000000	0.078819
393.000000	0.080022
394.000000	0.081402
395.000000	0.080057
396.000000	0.079042
397.000000	0.079189
398.000000	0.078275
399.000000	0.079586
400.000000	0.080663
401.000000	0.077148
402.000000	0.078610
403.000000	0.080857
404.000000	0.079487
405.000000	0.078922
406.000000	0.079688
407.000000	0.081324
408.000000	0.082258
409.000000	0.081473
410.000000	0.080407
411.000000	0.082003
412.000000	0.082632
413.000000	0.082636
414.000000	0.083033
415.000000	0.082970
416.000000	0.083216
417.000000	0.083970
418.000000	0.083931
419.000000	0.084064
420.000000	0.084454
421.000000	0.084460
422.000000	0.084587
423.000000	0.084868
424.000000	0.085255
425.000000	0.086119
426.000000	0.086900
427.000000	0.087126
428.000000	0.086772
429.000000	0.086811
430.000000	0.087430
431.000000	0.087824
432.000000	0.088284
433.000000	0.088598
434.000000	0.088442
435.000000	0.088739
436.000000	0.089407
437.000000	0.090085
438.000000	0.090167
439.000000	0.090369
440.000000	0.090939
441.000000	0.090975
442.000000	0.091202
443.000000	0.091643
444.000000	0.091919
445.000000	0.092116
446.000000	0.092374
447.000000	0.092772
448.000000	0.093248
449.000000	0.093822
450.000000	0.094399
451.000000	0.094450
452.000000	0.094934
453.000000	0.095887
454.000000	0.096368
455.000000	0.096973
456.000000	0.097576
457.000000	0.097770
458.000000	0.098182
459.000000	0.098532
460.000000	0.098610
461.000000	0.099063
462.000000	0.099599
463.000000	0.099923
464.000000	0.099897
465.000000	0.100176
466.000000	0.100693
467.000000	0.100963
468.000000	0.101285
469.000000	0.101628
470.000000	0.101988
471.000000	0.102659
472.000000	0.103072
473.000000	0.103061
474.000000	0.103684
475.000000	0.104142
476.000000	0.104354
477.000000	0.104875
478.000000	0.105312
479.000000	0.105695
480.000000	0.106044
481.000000	0.106011
482.000000	0.106154
483.000000	0.106798
484.000000	0.107187
485.000000	0.107495
486.000000	0.107873
487.000000	0.108147
488.000000	0.108277
489.000000	0.108323
490.000000	0.108410
491.000000	0.108607
492.000000	0.108823
493.000000	0.108893
494.000000	0.108977
495.000000	0.109129
496.000000	0.109325
497.000000	0.109449
498.000000	0.109502
499.000000	0.109557
500.000000	0.109710
501.000000	0.109816
502.000000	0.109935
503.000000	0.110168
504.000000	0.110272
505.000000	0.110390
506.000000	0.110664
507.000000	0.110854
508.000000	0.111192
509.000000	0.111676
510.000000	0.111795
511.000000	0.112102
512.000000	0.112630
513.000000	0.112992
514.000000	0.113311
515.000000	0.113653
516.000000	0.114054
517.000000	0.114531
518.000000	0.114989
519.000000	0.115348
520.000000	0.115770
521.000000	0.116241
522.000000	0.116792
523.000000	0.117540
524.000000	0.118301
525.000000	0.119049
526.000000	0.119865
527.000000	0.120928
528.000000	0.122099
529.000000	0.123239
530.000000	0.124571
531.000000	0.125982
532.000000	0.127376
533.000000	0.128948
534.000000	0.130531
535.000000	0.132071
536.000000	0.133635
537.000000	0.135155
538.000000	0.136634
539.000000	0.138097
540.000000	0.139558
541.000000	0.140927
542.000000	0.142170
543.000000	0.143467
544.000000	0.144724
545.000000	0.145903
546.000000	0.147215
547.000000	0.148549
548.000000	0.149899
549.000000	0.151271
550.000000	0.152737
551.000000	0.154339
552.000000	0.156063
553.000000	0.157799
554.000000	0.159719
555.000000	0.161889
556.000000	0.163939
557.000000	0.166064
558.000000	0.168370
559.000000	0.170628
560.000000	0.172889
561.000000	0.175205
562.000000	0.177538
563.000000	0.179695
564.000000	0.181810
565.000000	0.183953
566.000000	0.185933
567.000000	0.187742
568.000000	0.189405
569.000000	0.191055
570.000000	0.192514
571.000000	0.193765
572.000000	0.194948
573.000000	0.195991
574.000000	0.196916
575.000000	0.197793
576.000000	0.198456
577.000000	0.199021
578.000000	0.199612
579.000000	0.200021
580.000000	0.200258
581.000000	0.200379
582.000000	0.200519
583.000000	0.200559
584.000000	0.200516
585.000000	0.200481
586.000000	0.200302
587.000000	0.200024
588.000000	0.199719
589.000000	0.199284
590.000000	0.198772
591.000000	0.198229
592.000000	0.197666
593.000000	0.197067
594.000000	0.196407
595.000000	0.195643
596.000000	0.194887
597.000000	0.194167
598.000000	0.193403
599.000000	0.192478
600.000000	0.191520
601.000000	0.190610
602.000000	0.189757
603.000000	0.188842
604.000000	0.187848
605.000000	0.186926
606.000000	0.186038
607.000000	0.185174
608.000000	0.184326
609.000000	0.183517
610.000000	0.182651
611.000000	0.181658
612.000000	0.180875
613.000000	0.180160
614.000000	0.179419
615.000000	0.178718
616.000000	0.177990
617.000000	0.177219
618.000000	0.176497
619.000000	0.175818
620.000000	0.175147
621.000000	0.174474
622.000000	0.173852
623.000000	0.173254
624.000000	0.172667
625.000000	0.172197
626.000000	0.171696
627.000000	0.171143
628.000000	0.170724
629.000000	0.170322
630.000000	0.169858
631.000000	0.169426
632.000000	0.169032
633.000000	0.168697
634.000000	0.168413
635.000000	0.168087
636.000000	0.167803
637.000000	0.167597
638.000000	0.167423
639.000000	0.167254
640.000000	0.167113
641.000000	0.166971
642.000000	0.166903
643.000000	0.166907
644.000000	0.166948
645.000000	0.166925
646.000000	0.166949
647.000000	0.167065
648.000000	0.167088
649.000000	0.167235
650.000000	0.167504
651.000000	0.167639
652.000000	0.167834
653.000000	0.168131
654.000000	0.168465
655.000000	0.168843
656.000000	0.169260
657.000000	0.169685
658.000000	0.170144
659.000000	0.170622
660.000000	0.171115
661.000000	0.171684
662.000000	0.172261
663.000000	0.172912
664.000000	0.173717
665.000000	0.174463
666.000000	0.175170
667.000000	0.175901
668.000000	0.176750
669.000000	0.177651
670.000000	0.178585
671.000000	0.179657
672.000000	0.180755
673.000000	0.181833
674.000000	0.182904
675.000000	0.184015
676.000000	0.185189
677.000000	0.186445
678.000000	0.187751
679.000000	0.189064
680.000000	0.190379
681.000000	0.191752
682.000000	0.193243
683.000000	0.194802
684.000000	0.196404
685.000000	0.198020
686.000000	0.199682
687.000000	0.201410
688.000000	0.203162
689.000000	0.204990
690.000000	0.206943
691.000000	0.208878
692.000000	0.210835
693.000000	0.212867
694.000000	0.214927
695.000000	0.217063
696.000000	0.219269
697.000000	0.221512
698.000000	0.223782
699.000000	0.226107
700.000000	0.228506
701.000000	0.230920
702.000000	0.233411
703.000000	0.235969
704.000000	0.238519
705.000000	0.241184
706.000000	0.243926
707.000000	0.246715
708.000000	0.249575
709.000000	0.252449
710.000000	0.255309
711.000000	0.258222
712.000000	0.261137
713.000000	0.264072
714.000000	0.267101
715.000000	0.270143
716.000000	0.273195
717.000000	0.276268
718.000000	0.279415
719.000000	0.282608
720.000000	0.285830
721.000000	0.289071
722.000000	0.292274
723.000000	0.295475
724.000000	0.298695
725.000000	0.301896
726.000000	0.305168
727.000000	0.308477
728.000000	0.311749
729.000000	0.315031
730.000000	0.318311
731.000000	0.321580
732.000000	0.324820
733.000000	0.328077
734.000000	0.331369
735.000000	0.334604
736.000000	0.337861
737.000000	0.341019
738.000000	0.344201
739.000000	0.347409
740.000000	0.350458
741.000000	0.353576
742.000000	0.356660
743.000000	0.359650
744.000000	0.362643
745.000000	0.365510
746.000000	0.368337
747.000000	0.371148
748.000000	0.373857
749.000000	0.376510
750.000000	0.379121
751.000000	0.381738
752.000000	0.384268
753.000000	0.386728
754.000000	0.389203
755.000000	0.391610
756.000000	0.393915
757.000000	0.396060
758.000000	0.398217
759.000000	0.400306
760.000000	0.402236
761.000000	0.404295
762.000000	0.406321
763.000000	0.408230
764.000000	0.410078
765.000000	0.411825
766.000000	0.413532
767.000000	0.415216
768.000000	0.416699
769.000000	0.418097
770.000000	0.419478
771.000000	0.420812
772.000000	0.422148
773.000000	0.423406
774.000000	0.424641
775.000000	0.425829
776.000000	0.426979
777.000000	0.428061
778.000000	0.429035
779.000000	0.429936
780.000000	0.430812
781.000000	0.431704
782.000000	0.432535
783.000000	0.433387
784.000000	0.434119
785.000000	0.434737
786.000000	0.435350
787.000000	0.435994
788.000000	0.436574
789.000000	0.437173
790.000000	0.437728
791.000000	0.438172
792.000000	0.438586
793.000000	0.438924
794.000000	0.439176
795.000000	0.439471
796.000000	0.439761
797.000000	0.440003
798.000000	0.440168
799.000000	0.440317
800.000000	0.440519
801.000000	0.440803
802.000000	0.440959
803.000000	0.441068
804.000000	0.441211
805.000000	0.441230
806.000000	0.441212
807.000000	0.441284
808.000000	0.441360
809.000000	0.441305
810.000000	0.441195
811.000000	0.441096
812.000000	0.441007
813.000000	0.440996
814.000000	0.440999
815.000000	0.440869
816.000000	0.440678
817.000000	0.440522
818.000000	0.440354
819.000000	0.440154
820.000000	0.440028
821.000000	0.439903
822.000000	0.439659
823.000000	0.439418
824.000000	0.439105
825.000000	0.438780
826.000000	0.438530
827.000000	0.438241
828.000000	0.437944
829.000000	0.437809
830.000000	0.437665
831.000000	0.437469
832.000000	0.437018
833.000000	0.436537
834.000000	0.436132
835.000000	0.435873
836.000000	0.435621
837.000000	0.435259
838.000000	0.434866
839.000000	0.434607
840.000000	0.434249
841.000000	0.433925
842.000000	0.433679
843.000000	0.433173
844.000000	0.432727
845.000000	0.432383
846.000000	0.431986
847.000000	0.431629
848.000000	0.431248
849.000000	0.430809
850.000000	0.430346
851.000000	0.429867
852.000000	0.429427
853.000000	0.428998
854.000000	0.428604
855.000000	0.428385
856.000000	0.428184
857.000000	0.427693
858.000000	0.427234
859.000000	0.426850
860.000000	0.426411
861.000000	0.425980
862.000000	0.425587
863.000000	0.425147
864.000000	0.424747
865.000000	0.424401
866.000000	0.424071
867.000000	0.423521
868.000000	0.423054
869.000000	0.422625
870.000000	0.422208
871.000000	0.421791
872.000000	0.421300
873.000000	0.420688
874.000000	0.420271
875.000000	0.419788
876.000000	0.419285
877.000000	0.418813
878.000000	0.418198
879.000000	0.417723
880.000000	0.417354
881.000000	0.417083
882.000000	0.416597
883.000000	0.415983
884.000000	0.415396
885.000000	0.414755
886.000000	0.414211
887.000000	0.413848
888.000000	0.413507
889.000000	0.413011
890.000000	0.412394
891.000000	0.412052
892.000000	0.411747
893.000000	0.411357
894.000000	0.411010
895.000000	0.410692
896.000000	0.410174
897.000000	0.409593
898.000000	0.409178
899.000000	0.408803
900.000000	0.408470
901.000000	0.408090
902.000000	0.407610
903.000000	0.407295
904.000000	0.407002
905.000000	0.406432
906.000000	0.406036
907.000000	0.405640
908.000000	0.405245
909.000000	0.404825
910.000000	0.404299
911.000000	0.403894
912.000000	0.403756
913.000000	0.403420
914.000000	0.402934
915.000000	0.402482
916.000000	0.402121
917.000000	0.401801
918.000000	0.401502
919.000000	0.401192
920.000000	0.400935
921.000000	0.400536
922.000000	0.400044
923.000000	0.399597
924.000000	0.399233
925.000000	0.398816
926.000000	0.398359
927.000000	0.398017
928.000000	0.397612
929.000000	0.397149
930.000000	0.396721
931.000000	0.396499
932.000000	0.396352
933.000000	0.396206
934.000000	0.395923
935.000000	0.395428
936.000000	0.395076
937.000000	0.394946
938.000000	0.394517
939.000000	0.394333
940.000000	0.394271
941.000000	0.394022
942.000000	0.393508
943.000000	0.393154
944.000000	0.393015
945.000000	0.392947
946.000000	0.392478
947.000000	0.391963
948.000000	0.391807
949.000000	0.391638
950.000000	0.391386
951.000000	0.391068
952.000000	0.390921
953.000000	0.390706
954.000000	0.390423
955.000000	0.390044
956.000000	0.389708
957.000000	0.389593
958.000000	0.389365
959.000000	0.388811
960.000000	0.388875
961.000000	0.388859
962.000000	0.388428
963.000000	0.387906
964.000000	0.387692
965.000000	0.387627
966.000000	0.387379
967.000000	0.387218
968.000000	0.387009
969.000000	0.386766
970.000000	0.386698
971.000000	0.386525
972.000000	0.386499
973.000000	0.386521
974.000000	0.386285
975.000000	0.386076
976.000000	0.385843
977.000000	0.385517
978.000000	0.385190
979.000000	0.385167
980.000000	0.385073
981.000000	0.384941
982.000000	0.385098
983.000000	0.384937
984.000000	0.384601
985.000000	0.384828
986.000000	0.385040
987.000000	0.385136
988.000000	0.385015
989.000000	0.384914
990.000000	0.384883
991.000000	0.384907
992.000000	0.384967
993.000000	0.384884
994.000000	0.384808
995.000000	0.384949
996.000000	0.385032
997.000000	0.385213
998.000000	0.385262
999.000000	0.385277
1000.000000	0.385551
1001.000000	0.385069
1002.000000	0.385424
1003.000000	0.385597
1004.000000	0.385690
1005.000000	0.385822
1006.000000	0.385528
1007.000000	0.384737
1008.000000	0.384675
1009.000000	0.384646
1010.000000	0.384656
1011.000000	0.385740
1012.000000	0.386565
1013.000000	0.386294
1014.000000	0.385916
1015.000000	0.385455
1016.000000	0.385349
1017.000000	0.385952
1018.000000	0.387025
1019.000000	0.387557
1020.000000	0.387945
1021.000000	0.387586
1022.000000	0.386770
1023.000000	0.386885
1024.000000	0.386716
1025.000000	0.387283
1026.000000	0.388150
1027.000000	0.387757
1028.000000	0.387514
1029.000000	0.388012
1030.000000	0.387992
1031.000000	0.388119
1032.000000	0.388763
1033.000000	0.388616
1034.000000	0.388527
1035.000000	0.388456
1036.000000	0.388758
1037.000000	0.388997
1038.000000	0.389252
1039.000000	0.390103
1040.000000	0.390672
1041.000000	0.390631
1042.000000	0.390271
1043.000000	0.390679
1044.000000	0.391886
1045.000000	0.392361
1046.000000	0.392483
1047.000000	0.392713
1048.000000	0.392133
1049.000000	0.391992
1050.000000	0.392341
1051.000000	0.392576
1052.000000	0.392564
1053.000000	0.392575
1054.000000	0.392936
1055.000000	0.393269
1056.000000	0.393348
1057.000000	0.393961
1058.000000	0.394515
1059.000000	0.394965
1060.000000	0.395063
1061.000000	0.394678
1062.000000	0.394983
1063.000000	0.395378
1064.000000	0.395617
1065.000000	0.395936
1066.000000	0.396604
1067.000000	0.397336
1068.000000	0.397695
1069.000000	0.398408
1070.000000	0.398756
1071.000000	0.398365
1072.000000	0.398339
1073.000000	0.398584
1074.000000	0.398842
1075.000000	0.399079
1076.000000	0.399136
1077.000000	0.399322
1078.000000	0.399604
1079.000000	0.399787
1080.000000	0.399894
1081.000000	0.400309
1082.000000	0.401105
1083.000000	0.401384
1084.000000	0.401561
1085.000000	0.401956
1086.000000	0.402139
1087.000000	0.402378
1088.000000	0.402730
1089.000000	0.403080
1090.000000	0.403196
1091.000000	0.403421
1092.000000	0.403776
1093.000000	0.404489
1094.000000	0.404817
1095.000000	0.404850
1096.000000	0.405080
1097.000000	0.405176
1098.000000	0.405631
1099.000000	0.406310
1100.000000	0.406809
1101.000000	0.407438
1102.000000	0.407842
1103.000000	0.408030
1104.000000	0.408209
1105.000000	0.408273
1106.000000	0.408407
1107.000000	0.408153
1108.000000	0.408300
1109.000000	0.408848
1110.000000	0.409407
1111.000000	0.409841
1112.000000	0.410538
1113.000000	0.410819
1114.000000	0.410685
1115.000000	0.410920
1116.000000	0.411154
1117.000000	0.411482
1118.000000	0.412064
1119.000000	0.412363
1120.000000	0.412541
1121.000000	0.412756
1122.000000	0.413104
1123.000000	0.413468
1124.000000	0.413334
1125.000000	0.413586
1126.000000	0.414012
1127.000000	0.414158
1128.000000	0.414268
1129.000000	0.414589
1130.000000	0.414734
1131.000000	0.414518
1132.000000	0.414651
1133.000000	0.415051
1134.000000	0.415406
1135.000000	0.415908
1136.000000	0.416065
1137.000000	0.416082
1138.000000	0.416073
1139.000000	0.415762
1140.000000	0.415900
1141.000000	0.416366
1142.000000	0.416596
1143.000000	0.416806
1144.000000	0.417096
1145.000000	0.417106
1146.000000	0.416873
1147.000000	0.416957
1148.000000	0.417102
1149.000000	0.417158
1150.000000	0.417240
1151.000000	0.417433
1152.000000	0.417493
1153.000000	0.417698
1154.000000	0.418151
1155.000000	0.418306
1156.000000	0.418267
1157.000000	0.418400
1158.000000	0.418377
1159.000000	0.418478
1160.000000	0.418755
1161.000000	0.418962
1162.000000	0.419138
1163.000000	0.419643
1164.000000	0.419969
1165.000000	0.420191
1166.000000	0.420479
1167.000000	0.420676
1168.000000	0.420891
1169.000000	0.421170
1170.000000	0.421428
1171.000000	0.421709
1172.000000	0.422041
1173.000000	0.422420
1174.000000	0.422652
1175.000000	0.422789
1176.000000	0.422948
1177.000000	0.423047
1178.000000	0.423253
1179.000000	0.423609
1180.000000	0.423767
1181.000000	0.423873
1182.000000	0.424165
1183.000000	0.424430
1184.000000	0.424798
1185.000000	0.425143
1186.000000	0.425648
1187.000000	0.425842
1188.000000	0.425861
1189.000000	0.425981
1190.000000	0.426029
1191.000000	0.426224
1192.000000	0.426726
1193.000000	0.427103
1194.000000	0.427205
1195.000000	0.427531
1196.000000	0.427925
1197.000000	0.428203
1198.000000	0.428548
1199.000000	0.428879
1200.000000	0.429071
1201.000000	0.429297
1202.000000	0.429626
1203.000000	0.429934
1204.000000	0.430161
1205.000000	0.430311
1206.000000	0.430412
1207.000000	0.430522
1208.000000	0.430737
1209.000000	0.431099
1210.000000	0.431310
1211.000000	0.431565
1212.000000	0.431741
1213.000000	0.431754
1214.000000	0.431976
1215.000000	0.432271
1216.000000	0.432555
1217.000000	0.432958
1218.000000	0.433183
1219.000000	0.433273
1220.000000	0.433599
1221.000000	0.433819
1222.000000	0.433937
1223.000000	0.434337
1224.000000	0.434685
1225.000000	0.434905
1226.000000	0.435192
1227.000000	0.435316
1228.000000	0.435504
1229.000000	0.435713
1230.000000	0.435993
1231.000000	0.436123
1232.000000	0.436342
1233.000000	0.436678
1234.000000	0.436933
1235.000000	0.437237
1236.000000	0.437619
1237.000000	0.437905
1238.000000	0.438017
1239.000000	0.438239
1240.000000	0.438493
1241.000000	0.438645
1242.000000	0.438984
1243.000000	0.439259
1244.000000	0.439397
1245.000000	0.439918
1246.000000	0.440388
1247.000000	0.440842
1248.000000	0.441466
1249.000000	0.441805
1250.000000	0.441935
1251.000000	0.442189
1252.000000	0.442385
1253.000000	0.442498
1254.000000	0.442706
1255.000000	0.442987
1256.000000	0.443193
1257.000000	0.443416
1258.000000	0.443678
1259.000000	0.443833
1260.000000	0.444110
1261.000000	0.444314
1262.000000	0.444606
1263.000000	0.445042
1264.000000	0.445393
1265.000000	0.445738
1266.000000	0.446036
1267.000000	0.446330
1268.000000	0.446613
1269.000000	0.446761
1270.000000	0.447164
1271.000000	0.447478
1272.000000	0.447676
1273.000000	0.448080
1274.000000	0.448383
1275.000000	0.448596
1276.000000	0.448736
1277.000000	0.449038
1278.000000	0.449235
1279.000000	0.449444
1280.000000	0.449649
1281.000000	0.449801
1282.000000	0.449877
1283.000000	0.450193
1284.000000	0.450587
1285.000000	0.450890
1286.000000	0.451227
1287.000000	0.451531
1288.000000	0.451677
1289.000000	0.451897
1290.000000	0.452200
1291.000000	0.452404
1292.000000	0.452631
1293.000000	0.452916
1294.000000	0.453098
1295.000000	0.453274
1296.000000	0.453483
1297.000000	0.453547
1298.000000	0.453653
1299.000000	0.453856
1300.000000	0.454028
1301.000000	0.454212
1302.000000	0.454343
1303.000000	0.454677
1304.000000	0.454775
1305.000000	0.454838
1306.000000	0.454934
1307.000000	0.455083
1308.000000	0.455151
1309.000000	0.455175
1310.000000	0.455306
1311.000000	0.455504
1312.000000	0.455478
1313.000000	0.455589
1314.000000	0.455682
1315.000000	0.455504
1316.000000	0.455393
1317.000000	0.455393
1318.000000	0.455380
1319.000000	0.455374
1320.000000	0.455320
1321.000000	0.455120
1322.000000	0.454931
1323.000000	0.454906
1324.000000	0.455014
1325.000000	0.455015
1326.000000	0.455064
1327.000000	0.455251
1328.000000	0.455550
1329.000000	0.455591
1330.000000	0.455693
1331.000000	0.455617
1332.000000	0.455214
1333.000000	0.455120
1334.000000	0.455273
1335.000000	0.455426
1336.000000	0.455708
1337.000000	0.455800
1338.000000	0.455734
1339.000000	0.455686
1340.000000	0.455667
1341.000000	0.455628
1342.000000	0.455517
1343.000000	0.455609
1344.000000	0.455599
1345.000000	0.455534
1346.000000	0.455779
1347.000000	0.455652
1348.000000	0.455542
1349.000000	0.455383
1350.000000	0.455157
1351.000000	0.455036
1352.000000	0.454995
1353.000000	0.454981
1354.000000	0.454937
1355.000000	0.454869
1356.000000	0.454796
1357.000000	0.454709
1358.000000	0.454639
1359.000000	0.454407
1360.000000	0.454241
1361.000000	0.454142
1362.000000	0.453938
1363.000000	0.453708
1364.000000	0.453554
1365.000000	0.453278
1366.000000	0.453047
1367.000000	0.452929
1368.000000	0.452583
1369.000000	0.452353
1370.000000	0.452086
1371.000000	0.451596
1372.000000	0.451099
1373.000000	0.450499
1374.000000	0.450006
1375.000000	0.449421
1376.000000	0.448750
1377.000000	0.448127
1378.000000	0.447053
1379.000000	0.445830
1380.000000	0.444698
1381.000000	0.443253
1382.000000	0.441932
1383.000000	0.440733
1384.000000	0.439111
1385.000000	0.437340
1386.000000	0.435546
1387.000000	0.433489
1388.000000	0.431207
1389.000000	0.428825
1390.000000	0.426454
1391.000000	0.423675
1392.000000	0.420772
1393.000000	0.417792
1394.000000	0.414662
1395.000000	0.411432
1396.000000	0.408220
1397.000000	0.404840
1398.000000	0.401127
1399.000000	0.397741
1400.000000	0.394315
1401.000000	0.390922
1402.000000	0.387666
1403.000000	0.384623
1404.000000	0.381580
1405.000000	0.378693
1406.000000	0.376103
1407.000000	0.373747
1408.000000	0.371648
1409.000000	0.369871
1410.000000	0.368314
1411.000000	0.366908
1412.000000	0.365531
1413.000000	0.364385
1414.000000	0.363575
1415.000000	0.362840
1416.000000	0.362141
1417.000000	0.361554
1418.000000	0.360852
1419.000000	0.360261
1420.000000	0.359882
1421.000000	0.359622
1422.000000	0.359342
1423.000000	0.359136
1424.000000	0.358751
1425.000000	0.358290
1426.000000	0.357876
1427.000000	0.357605
1428.000000	0.357352
1429.000000	0.357118
1430.000000	0.356975
1431.000000	0.356718
1432.000000	0.356550
1433.000000	0.356510
1434.000000	0.356470
1435.000000	0.356572
1436.000000	0.356611
1437.000000	0.356550
1438.000000	0.356653
1439.000000	0.356771
1440.000000	0.357165
1441.000000	0.357789
1442.000000	0.358562
1443.000000	0.359448
1444.000000	0.360441
1445.000000	0.361552
1446.000000	0.362798
1447.000000	0.364124
1448.000000	0.365365
1449.000000	0.366667
1450.000000	0.367932
1451.000000	0.369081
1452.000000	0.370191
1453.000000	0.371167
1454.000000	0.371966
1455.000000	0.372768
1456.000000	0.373609
1457.000000	0.374368
1458.000000	0.375026
1459.000000	0.375608
1460.000000	0.376247
1461.000000	0.376889
1462.000000	0.377545
1463.000000	0.378148
1464.000000	0.378652
1465.000000	0.379321
1466.000000	0.380090
1467.000000	0.380888
1468.000000	0.381831
1469.000000	0.382758
1470.000000	0.383508
1471.000000	0.384386
1472.000000	0.385170
1473.000000	0.386027
1474.000000	0.386974
1475.000000	0.387838
1476.000000	0.388773
1477.000000	0.389814
1478.000000	0.390789
1479.000000	0.391626
1480.000000	0.392469
1481.000000	0.393261
1482.000000	0.393879
1483.000000	0.394707
1484.000000	0.395708
1485.000000	0.396599
1486.000000	0.397504
1487.000000	0.398396
1488.000000	0.399258
1489.000000	0.400123
1490.000000	0.400858
1491.000000	0.401669
1492.000000	0.402384
1493.000000	0.403186
1494.000000	0.404005
1495.000000	0.404751
1496.000000	0.405514
1497.000000	0.406280
1498.000000	0.407042
1499.000000	0.407794
1500.000000	0.408487
1501.000000	0.409130
1502.000000	0.409673
1503.000000	0.410264
1504.000000	0.410967
1505.000000	0.411625
1506.000000	0.412342
1507.000000	0.413007
1508.000000	0.413628
1509.000000	0.414252
1510.000000	0.414830
1511.000000	0.415339
1512.000000	0.415685
1513.000000	0.416119
1514.000000	0.416581
1515.000000	0.416972
1516.000000	0.417569
1517.000000	0.417940
1518.000000	0.418253
1519.000000	0.418711
1520.000000	0.419087
1521.000000	0.419403
1522.000000	0.419722
1523.000000	0.419968
1524.000000	0.420185
1525.000000	0.420665
1526.000000	0.421232
1527.000000	0.421682
1528.000000	0.422168
1529.000000	0.422565
1530.000000	0.422800
1531.000000	0.423157
1532.000000	0.423461
1533.000000	0.423688
1534.000000	0.423963
1535.000000	0.424180
1536.000000	0.424380
1537.000000	0.424719
1538.000000	0.425057
1539.000000	0.425314
1540.000000	0.425597
1541.000000	0.425893
1542.000000	0.426165
1543.000000	0.426542
1544.000000	0.426955
1545.000000	0.427356
1546.000000	0.427696
1547.000000	0.428032
1548.000000	0.428382
1549.000000	0.428604
1550.000000	0.428743
1551.000000	0.428930
1552.000000	0.429136
1553.000000	0.429267
1554.000000	0.429493
1555.000000	0.429761
1556.000000	0.429917
1557.000000	0.430005
1558.000000	0.430154
1559.000000	0.430189
1560.000000	0.430319
1561.000000	0.430577
1562.000000	0.430758
1563.000000	0.431065
1564.000000	0.431202
1565.000000	0.431144
1566.000000	0.431192
1567.000000	0.431341
1568.000000	0.431446
1569.000000	0.431771
1570.000000	0.431946
1571.000000	0.431959
1572.000000	0.432040
1573.000000	0.432148
1574.000000	0.432197
1575.000000	0.432223
1576.000000	0.432343
1577.000000	0.432481
1578.000000	0.432543
1579.000000	0.432660
1580.000000	0.432826
1581.000000	0.433037
1582.000000	0.433255
1583.000000	0.433610
1584.000000	0.433755
1585.000000	0.433904
1586.000000	0.434089
1587.000000	0.434167
1588.000000	0.434336
1589.000000	0.434653
1590.000000	0.434756
1591.000000	0.434792
1592.000000	0.434880
1593.000000	0.434919
1594.000000	0.434935
1595.000000	0.435041
1596.000000	0.435145
1597.000000	0.435259
1598.000000	0.435330
1599.000000	0.435495
1600.000000	0.435542
1601.000000	0.435545
1602.000000	0.435590
1603.000000	0.435629
1604.000000	0.435698
1605.000000	0.435833
1606.000000	0.436030
1607.000000	0.436462
1608.000000	0.436627
1609.000000	0.436748
1610.000000	0.436864
1611.000000	0.436776
1612.000000	0.436897
1613.000000	0.437414
1614.000000	0.437564
1615.000000	0.437685
1616.000000	0.437905
1617.000000	0.437862
1618.000000	0.437994
1619.000000	0.438299
1620.000000	0.438462
1621.000000	0.438671
1622.000000	0.438879
1623.000000	0.438956
1624.000000	0.439134
1625.000000	0.439098
1626.000000	0.439213
1627.000000	0.439560
1628.000000	0.439755
1629.000000	0.439904
1630.000000	0.440126
1631.000000	0.440173
1632.000000	0.440326
1633.000000	0.440624
1634.000000	0.440844
1635.000000	0.441087
1636.000000	0.441345
1637.000000	0.441704
1638.000000	0.441826
1639.000000	0.441901
1640.000000	0.442022
1641.000000	0.442091
1642.000000	0.442230
1643.000000	0.442572
1644.000000	0.442732
1645.000000	0.442749
1646.000000	0.442817
1647.000000	0.442874
1648.000000	0.442969
1649.000000	0.443298
1650.000000	0.443437
1651.000000	0.443546
1652.000000	0.443712
1653.000000	0.443690
1654.000000	0.443879
1655.000000	0.444126
1656.000000	0.444309
1657.000000	0.444680
1658.000000	0.444850
1659.000000	0.445103
1660.000000	0.445331
1661.000000	0.445304
1662.000000	0.445441
1663.000000	0.445637
1664.000000	0.445751
1665.000000	0.445828
1666.000000	0.446088
1667.000000	0.446307
1668.000000	0.446439
1669.000000	0.446601
1670.000000	0.446620
1671.000000	0.446577
1672.000000	0.446779
1673.000000	0.447022
1674.000000	0.447313
1675.000000	0.447677
1676.000000	0.447822
1677.000000	0.448003
1678.000000	0.448060
1679.000000	0.448065
1680.000000	0.448034
1681.000000	0.448020
1682.000000	0.448143
1683.000000	0.448155
1684.000000	0.448184
1685.000000	0.448279
1686.000000	0.448259
1687.000000	0.448341
1688.000000	0.448464
1689.000000	0.448614
1690.000000	0.448753
1691.000000	0.448905
1692.000000	0.448754
1693.000000	0.448656
1694.000000	0.448650
1695.000000	0.448666
1696.000000	0.448935
1697.000000	0.448980
1698.000000	0.448921
1699.000000	0.448970
1700.000000	0.449024
1701.000000	0.449165
1702.000000	0.449116
1703.000000	0.449112
1704.000000	0.449209
1705.000000	0.449301
1706.000000	0.449627
1707.000000	0.449731
1708.000000	0.449619
1709.000000	0.449538
1710.000000	0.449469
1711.000000	0.449460
1712.000000	0.449603
1713.000000	0.449630
1714.000000	0.449594
1715.000000	0.449687
1716.000000	0.449913
1717.000000	0.449963
1718.000000	0.449934
1719.000000	0.449935
1720.000000	0.449908
1721.000000	0.449884
1722.000000	0.449983
1723.000000	0.449931
1724.000000	0.449699
1725.000000	0.449673
1726.000000	0.449600
1727.000000	0.449547
1728.000000	0.449555
1729.000000	0.449355
1730.000000	0.449170
1731.000000	0.449062
1732.000000	0.448890
1733.000000	0.448991
1734.000000	0.449113
1735.000000	0.449190
1736.000000	0.449336
1737.000000	0.449365
1738.000000	0.449346
1739.000000	0.449298
1740.000000	0.449175
1741.000000	0.449097
1742.000000	0.448998
1743.000000	0.449004
1744.000000	0.449046
1745.000000	0.449055
1746.000000	0.449061
1747.000000	0.449137
1748.000000	0.449096
1749.000000	0.449062
1750.000000	0.448921
1751.000000	0.448860
1752.000000	0.448844
1753.000000	0.448428
1754.000000	0.448317
1755.000000	0.448340
1756.000000	0.448298
1757.000000	0.448536
1758.000000	0.448544
1759.000000	0.448262
1760.000000	0.448099
1761.000000	0.447832
1762.000000	0.447616
1763.000000	0.447488
1764.000000	0.447368
1765.000000	0.447211
1766.000000	0.447103
1767.000000	0.446851
1768.000000	0.446758
1769.000000	0.446951
1770.000000	0.447035
1771.000000	0.447129
1772.000000	0.447207
1773.000000	0.447098
1774.000000	0.447101
1775.000000	0.447381
1776.000000	0.447348
1777.000000	0.447061
1778.000000	0.446933
1779.000000	0.446645
1780.000000	0.446617
1781.000000	0.446820
1782.000000	0.446759
1783.000000	0.446693
1784.000000	0.446843
1785.000000	0.446690
1786.000000	0.446637
1787.000000	0.446851
1788.000000	0.446876
1789.000000	0.446883
1790.000000	0.447000
1791.000000	0.446908
1792.000000	0.446736
1793.000000	0.446593
1794.000000	0.446292
1795.000000	0.446274
1796.000000	0.446510
1797.000000	0.446482
1798.000000	0.446409
1799.000000	0.446451
1800.000000	0.446470
1801.000000	0.446352
1802.000000	0.446615
1803.000000	0.446363
1804.000000	0.446582
1805.000000	0.447672
1806.000000	0.447865
1807.000000	0.447384
1808.000000	0.447306
1809.000000	0.447062
1810.000000	0.447016
1811.000000	0.446841
1812.000000	0.447008
1813.000000	0.446910
1814.000000	0.446292
1815.000000	0.446242
1816.000000	0.446407
1817.000000	0.446417
1818.000000	0.446741
1819.000000	0.447303
1820.000000	0.447374
1821.000000	0.447282
1822.000000	0.447115
1823.000000	0.446377
1824.000000	0.446152
1825.000000	0.446157
1826.000000	0.445983
1827.000000	0.445655
1828.000000	0.445582
1829.000000	0.444771
1830.000000	0.444351
1831.000000	0.443796
1832.000000	0.442567
1833.000000	0.442380
1834.000000	0.443112
1835.000000	0.443072
1836.000000	0.443615
1837.000000	0.443498
1838.000000	0.442653
1839.000000	0.440927
1840.000000	0.439818
1841.000000	0.439225
1842.000000	0.438816
1843.000000	0.438957
1844.000000	0.438845
1845.000000	0.438745
1846.000000	0.438477
1847.000000	0.437835
1848.000000	0.437390
1849.000000	0.437042
1850.000000	0.436372
1851.000000	0.435853
1852.000000	0.435720
1853.000000	0.434833
1854.000000	0.433062
1855.000000	0.431842
1856.000000	0.430470
1857.000000	0.428742
1858.000000	0.427534
1859.000000	0.426654
1860.000000	0.425503
1861.000000	0.424061
1862.000000	0.422337
1863.000000	0.420198
1864.000000	0.418467
1865.000000	0.417172
1866.000000	0.414999
1867.000000	0.412613
1868.000000	0.410151
1869.000000	0.406694
1870.000000	0.402586
1871.000000	0.398703
1872.000000	0.395001
1873.000000	0.391382
1874.000000	0.387836
1875.000000	0.384179
1876.000000	0.380558
1877.000000	0.376425
1878.000000	0.371242
1879.000000	0.365533
1880.000000	0.360042
1881.000000	0.353731
1882.000000	0.347183
1883.000000	0.341332
1884.000000	0.334657
1885.000000	0.326441
1886.000000	0.319055
1887.000000	0.312053
1888.000000	0.304114
1889.000000	0.295706
1890.000000	0.288823
1891.000000	0.281747
1892.000000	0.273994
1893.000000	0.266834
1894.000000	0.259259
1895.000000	0.251435
1896.000000	0.243058
1897.000000	0.235089
1898.000000	0.228012
1899.000000	0.221750
1900.000000	0.215987
1901.000000	0.211814
1902.000000	0.207966
1903.000000	0.204264
1904.000000	0.201881
1905.000000	0.199872
1906.000000	0.197974
1907.000000	0.196338
1908.000000	0.195363
1909.000000	0.194832
1910.000000	0.194601
1911.000000	0.195573
1912.000000	0.196916
1913.000000	0.197990
1914.000000	0.199418
1915.000000	0.200586
1916.000000	0.202101
1917.000000	0.203489
1918.000000	0.205123
1919.000000	0.206855
1920.000000	0.208249
1921.000000	0.209108
1922.000000	0.210603
1923.000000	0.211580
1924.000000	0.212678
1925.000000	0.214141
1926.000000	0.215122
1927.000000	0.216371
1928.000000	0.217299
1929.000000	0.218067
1930.000000	0.218555
1931.000000	0.219310
1932.000000	0.220437
1933.000000	0.221466
1934.000000	0.222465
1935.000000	0.223489
1936.000000	0.223707
1937.000000	0.223877
1938.000000	0.224448
1939.000000	0.224908
1940.000000	0.225308
1941.000000	0.225728
1942.000000	0.226375
1943.000000	0.226582
1944.000000	0.226699
1945.000000	0.227115
1946.000000	0.227067
1947.000000	0.226948
1948.000000	0.226862
1949.000000	0.226555
1950.000000	0.226809
1951.000000	0.226983
1952.000000	0.227406
1953.000000	0.227484
1954.000000	0.228370
1955.000000	0.229166
1956.000000	0.229627
1957.000000	0.230291
1958.000000	0.230586
1959.000000	0.230488
1960.000000	0.230192
1961.000000	0.230720
1962.000000	0.231029
1963.000000	0.231486
1964.000000	0.231357
1965.000000	0.231620
1966.000000	0.231642
1967.000000	0.231499
1968.000000	0.231999
1969.000000	0.232487
1970.000000	0.232729
1971.000000	0.233103
1972.000000	0.233700
1973.000000	0.234241
1974.000000	0.235015
1975.000000	0.235813
1976.000000	0.236664
1977.000000	0.237610
1978.000000	0.238404
1979.000000	0.239540
1980.000000	0.240454
1981.000000	0.240947
1982.000000	0.241892
1983.000000	0.242863
1984.000000	0.243651
1985.000000	0.244441
1986.000000	0.245329
1987.000000	0.246239
1988.000000	0.247047
1989.000000	0.247836
1990.000000	0.248953
1991.000000	0.249998
1992.000000	0.251283
1993.000000	0.252636
1994.000000	0.253893
1995.000000	0.254880
1996.000000	0.255520
1997.000000	0.256620
1998.000000	0.258275
1999.000000	0.259626
2000.000000	0.261133
2001.000000	0.262305
2002.000000	0.263449
2003.000000	0.264057
2004.000000	0.265080
2005.000000	0.266565
2006.000000	0.267624
2007.000000	0.268649
2008.000000	0.269750
2009.000000	0.270481
2010.000000	0.271774
2011.000000	0.273495
2012.000000	0.274938
2013.000000	0.276692
2014.000000	0.277551
2015.000000	0.278246
2016.000000	0.279093
2017.000000	0.279871
2018.000000	0.281110
2019.000000	0.282606
2020.000000	0.283980
2021.000000	0.285227
2022.000000	0.286324
2023.000000	0.287432
2024.000000	0.288297
2025.000000	0.289495
2026.000000	0.290681
2027.000000	0.292077
2028.000000	0.293280
2029.000000	0.294832
2030.000000	0.296120
2031.000000	0.297022
2032.000000	0.298598
2033.000000	0.300075
2034.000000	0.300995
2035.000000	0.301878
2036.000000	0.302630
2037.000000	0.302603
2038.000000	0.303352
2039.000000	0.304763
2040.000000	0.305555
2041.000000	0.306945
2042.000000	0.308694
2043.000000	0.309921
2044.000000	0.311469
2045.000000	0.312502
2046.000000	0.313036
2047.000000	0.313851
2048.000000	0.314301
2049.000000	0.315300
2050.000000	0.316573
2051.000000	0.317417
2052.000000	0.318353
2053.000000	0.318897
2054.000000	0.319252
2055.000000	0.319131
2056.000000	0.320191
2057.000000	0.321017
2058.000000	0.321506
2059.000000	0.322770
2060.000000	0.323611
2061.000000	0.323829
2062.000000	0.324571
2063.000000	0.325902
2064.000000	0.326499
2065.000000	0.326987
2066.000000	0.327546
2067.000000	0.328072
2068.000000	0.328906
2069.000000	0.330416
2070.000000	0.331672
2071.000000	0.332355
2072.000000	0.333423
2073.000000	0.333630
2074.000000	0.333613
2075.000000	0.334435
2076.000000	0.335798
2077.000000	0.336790
2078.000000	0.338486
2079.000000	0.339278
2080.000000	0.339522
2081.000000	0.339957
2082.000000	0.340149
2083.000000	0.340145
2084.000000	0.340599
2085.000000	0.340705
2086.000000	0.341218
2087.000000	0.342336
2088.000000	0.343212
2089.000000	0.344457
2090.000000	0.345366
2091.000000	0.346155
2092.000000	0.346664
2093.000000	0.346825
2094.000000	0.347437
2095.000000	0.348021
2096.000000	0.348816
2097.000000	0.350330
2098.000000	0.350885
2099.000000	0.351048
2100.000000	0.351867
2101.000000	0.352513
2102.000000	0.353312
2103.000000	0.354122
2104.000000	0.354578
2105.000000	0.354985
2106.000000	0.354876
2107.000000	0.355391
2108.000000	0.355902
2109.000000	0.356901
2110.000000	0.358655
2111.000000	0.359573
2112.000000	0.360237
2113.000000	0.360729
2114.000000	0.360964
2115.000000	0.360891
2116.000000	0.361226
2117.000000	0.361818
2118.000000	0.362161
2119.000000	0.362532
2120.000000	0.362890
2121.000000	0.363341
2122.000000	0.363382
2123.000000	0.362998
2124.000000	0.363219
2125.000000	0.363618
2126.000000	0.363840
2127.000000	0.364299
2128.000000	0.364745
2129.000000	0.364669
2130.000000	0.365164
2131.000000	0.365663
2132.000000	0.366697
2133.000000	0.367617
2134.000000	0.367651
2135.000000	0.367653
2136.000000	0.367402
2137.000000	0.367652
2138.000000	0.368260
2139.000000	0.368696
2140.000000	0.369512
2141.000000	0.369863
2142.000000	0.369748
2143.000000	0.369344
2144.000000	0.368633
2145.000000	0.368666
2146.000000	0.368980
2147.000000	0.369430
2148.000000	0.370850
2149.000000	0.371732
2150.000000	0.371696
2151.000000	0.372071
2152.000000	0.372456
2153.000000	0.373767
2154.000000	0.374449
2155.000000	0.375875
2156.000000	0.375975
2157.000000	0.374616
2158.000000	0.374176
2159.000000	0.373692
2160.000000	0.373855
2161.000000	0.374778
2162.000000	0.375350
2163.000000	0.376272
2164.000000	0.376184
2165.000000	0.375060
2166.000000	0.374752
2167.000000	0.374384
2168.000000	0.373385
2169.000000	0.373543
2170.000000	0.374230
2171.000000	0.373957
2172.000000	0.373386
2173.000000	0.372879
2174.000000	0.371113
2175.000000	0.371046
2176.000000	0.372413
2177.000000	0.372590
2178.000000	0.373438
2179.000000	0.373790
2180.000000	0.372976
2181.000000	0.372787
2182.000000	0.372097
2183.000000	0.371420
2184.000000	0.371886
2185.000000	0.370849
2186.000000	0.370245
2187.000000	0.370857
2188.000000	0.370175
2189.000000	0.370074
2190.000000	0.370724
2191.000000	0.370666
2192.000000	0.370808
2193.000000	0.371077
2194.000000	0.370835
2195.000000	0.370544
2196.000000	0.370277
2197.000000	0.368887
2198.000000	0.368862
2199.000000	0.371017
2200.000000	0.370720
2201.000000	0.369483
2202.000000	0.368468
2203.000000	0.366133
2204.000000	0.361520
2205.000000	0.361814
2206.000000	0.362126
2207.000000	0.362113
2208.000000	0.366285
2209.000000	0.366928
2210.000000	0.366852
2211.000000	0.367442
2212.000000	0.367532
2213.000000	0.366978
2214.000000	0.366651
2215.000000	0.365597
2216.000000	0.361883
2217.000000	0.361401
2218.000000	0.363131
2219.000000	0.363144
2220.000000	0.364423
2221.000000	0.364650
2222.000000	0.362325
2223.000000	0.361682
2224.000000	0.362449
2225.000000	0.362583
2226.000000	0.359539
2227.000000	0.358433
2228.000000	0.358297
2229.000000	0.355723
2230.000000	0.355433
2231.000000	0.354194
2232.000000	0.349478
2233.000000	0.346354
2234.000000	0.344180
2235.000000	0.342524
2236.000000	0.342261
2237.000000	0.344240
2238.000000	0.344820
2239.000000	0.345918
2240.000000	0.346881
2241.000000	0.348294
2242.000000	0.347940
2243.000000	0.345661
2244.000000	0.345146
2245.000000	0.343425
2246.000000	0.343923
2247.000000	0.348753
2248.000000	0.350113
2249.000000	0.351242
2250.000000	0.349987
2251.000000	0.347882
2252.000000	0.344401
2253.000000	0.342099
2254.000000	0.342072
2255.000000	0.341714
2256.000000	0.340706
2257.000000	0.339701
2258.000000	0.338476
2259.000000	0.338114
2260.000000	0.339040
2261.000000	0.338663
2262.000000	0.338905
2263.000000	0.337980
2264.000000	0.335406
2265.000000	0.334361
2266.000000	0.332807
2267.000000	0.332556
2268.000000	0.334915
2269.000000	0.333218
2270.000000	0.330447
2271.000000	0.328134
2272.000000	0.323322
2273.000000	0.319868
2274.000000	0.317759
2275.000000	0.315065
2276.000000	0.311135
2277.000000	0.308913
2278.000000	0.306771
2279.000000	0.303377
2280.000000	0.302019
2281.000000	0.298512
2282.000000	0.295274
2283.000000	0.293415
2284.000000	0.288931
2285.000000	0.285757
2286.000000	0.282285
2287.000000	0.278175
2288.000000	0.276351
2289.000000	0.272565
2290.000000	0.270451
2291.000000	0.270069
2292.000000	0.269040
2293.000000	0.269158
2294.000000	0.267995
2295.000000	0.265326
2296.000000	0.264975
2297.000000	0.264747
2298.000000	0.264800
2299.000000	0.267242
2300.000000	0.267698
2301.000000	0.266518
2302.000000	0.266931
2303.000000	0.268203
2304.000000	0.267952
2305.000000	0.266191
2306.000000	0.266607
2307.000000	0.267009
2308.000000	0.268271
2309.000000	0.272139
2310.000000	0.278099
2311.000000	0.282408
2312.000000	0.284695
2313.000000	0.285350
2314.000000	0.286903
2315.000000	0.287143
2316.000000	0.286793
2317.000000	0.288601
2318.000000	0.289038
2319.000000	0.291122
2320.000000	0.294893
2321.000000	0.296232
2322.000000	0.297571
2323.000000	0.298364
2324.000000	0.298340
2325.000000	0.300572
2326.000000	0.300644
2327.000000	0.299207
2328.000000	0.298459
2329.000000	0.295226
2330.000000	0.293276
2331.000000	0.292378
2332.000000	0.291523
2333.000000	0.291583
2334.000000	0.291092
2335.000000	0.290694
2336.000000	0.289110
2337.000000	0.288302
2338.000000	0.288451
2339.000000	0.287457
2340.000000	0.286144
2341.000000	0.284301
2342.000000	0.280840
2343.000000	0.279766
2344.000000	0.279233
2345.000000	0.280061
2346.000000	0.283128
2347.000000	0.283689
2348.000000	0.284274
2349.000000	0.284167
2350.000000	0.281626
2351.000000	0.281750
2352.000000	0.281427
2353.000000	0.280657
2354.000000	0.276782
2355.000000	0.272802
2356.000000	0.269155
2357.000000	0.265250
2358.000000	0.266141
2359.000000	0.266442
2360.000000	0.268016
2361.000000	0.268710
2362.000000	0.267301
2363.000000	0.267967
2364.000000	0.262007
2365.000000	0.256164
2366.000000	0.251508
2367.000000	0.247359
2368.000000	0.246183
2369.000000	0.244365
2370.000000	0.244029
2371.000000	0.245343
2372.000000	0.246896
2373.000000	0.243197
2374.000000	0.239888
2375.000000	0.233178
2376.000000	0.225845
2377.000000	0.229689
2378.000000	0.230486
2379.000000	0.229113
2380.000000	0.231112
2381.000000	0.228233
2382.000000	0.225089
2383.000000	0.223269
2384.000000	0.215112
2385.000000	0.210907
2386.000000	0.211814
2387.000000	0.211928
2388.000000	0.216398
2389.000000	0.217767
2390.000000	0.213334
2391.000000	0.212475
2392.000000	0.213160
2393.000000	0.208028
2394.000000	0.205535
2395.000000	0.202298
2396.000000	0.198526
2397.000000	0.204711
2398.000000	0.214127
2399.000000	0.222734
2400.000000	0.220562
2401.000000	0.214967
2402.000000	0.207567
2403.000000	0.192483
2404.000000	0.189422
2405.000000	0.188994
2406.000000	0.191498
2407.000000	0.198806
2408.000000	0.198775
2409.000000	0.203821
2410.000000	0.202988
2411.000000	0.200940
2412.000000	0.208409
2413.000000	0.207171
2414.000000	0.204437
2415.000000	0.195125
2416.000000	0.183574
2417.000000	0.183047
2418.000000	0.182194
2419.000000	0.186104
2420.000000	0.187138
2421.000000	0.180017
2422.000000	0.169713
2423.000000	0.171201
2424.000000	0.184170
2425.000000	0.192590
2426.000000	0.204225
2427.000000	0.204410
2428.000000	0.198635
2429.000000	0.192998
2430.000000	0.190014
2431.000000	0.204048
2432.000000	0.208134
2433.000000	0.210034
2434.000000	0.213791
2435.000000	0.210359
2436.000000	0.207586
2437.000000	0.199617
2438.000000	0.197675
2439.000000	0.196822
2440.000000	0.194773
2441.000000	0.191188
2442.000000	0.191733
2443.000000	0.188620
2444.000000	0.169552
2445.000000	0.172005
2446.000000	0.175146
2447.000000	0.162133
2448.000000	0.170591
2449.000000	0.183527
2450.000000	0.185976
2451.000000	0.205309
2452.000000	0.217152
2453.000000	0.200998
2454.000000	0.196525
2455.000000	0.186177
2456.000000	0.170697
2457.000000	0.182006
2458.000000	0.183312
2459.000000	0.174803
2460.000000	0.175159
2461.000000	0.168527
2462.000000	0.158019
2463.000000	0.166549
2464.000000	0.164321
2465.000000	0.142690
2466.000000	0.133624
2467.000000	0.118294
2468.000000	0.107949
2469.000000	0.115740
2470.000000	0.120872
2471.000000	0.122982
2472.000000	0.137007
2473.000000	0.154307
2474.000000	0.167365
2475.000000	0.173458
2476.000000	0.149902
2477.000000	0.134849
2478.000000	0.138095
2479.000000	0.130837
2480.000000	0.147129
2481.000000	0.168567
2482.000000	0.135590
2483.000000	0.125038
2484.000000	0.140273
2485.000000	0.139086
2486.000000	0.174524
2487.000000	0.205443
2488.000000	0.206966
2489.000000	0.199355
2490.000000	0.174553
2491.000000	0.126966
2492.000000	0.103029
2493.000000	0.098242
2494.000000	0.081552
2495.000000	0.077820
2496.000000	0.070626
2497.000000	0.023013
2498.000000	0.005599
2499.000000	0.000357
2500.000000	0.028832
