# Wavelength	NAu-2-60_HEX-30_FV7-10_00002.asd.rts.txt
350.000000	0.116312
351.000000	0.108386
352.000000	0.101344
353.000000	0.104251
354.000000	0.115574
355.000000	0.113886
356.000000	0.100575
357.000000	0.090631
358.000000	0.110395
359.000000	0.112934
360.000000	0.106197
361.000000	0.107364
362.000000	0.101977
363.000000	0.098421
364.000000	0.101586
365.000000	0.106387
366.000000	0.107343
367.000000	0.103680
368.000000	0.098390
369.000000	0.102818
370.000000	0.111264
371.000000	0.113028
372.000000	0.104267
373.000000	0.098719
374.000000	0.103971
375.000000	0.108833
376.000000	0.106235
377.000000	0.100603
378.000000	0.108546
379.000000	0.107445
380.000000	0.100750
381.000000	0.099730
382.000000	0.101585
383.000000	0.103020
384.000000	0.102866
385.000000	0.105796
386.000000	0.105774
387.000000	0.102954
388.000000	0.104102
389.000000	0.103585
390.000000	0.102462
391.000000	0.103635
392.000000	0.106059
393.000000	0.107001
394.000000	0.105341
395.000000	0.105272
396.000000	0.105847
397.000000	0.106373
398.000000	0.106665
399.000000	0.106184
400.000000	0.105747
401.000000	0.106581
402.000000	0.106182
403.000000	0.105470
404.000000	0.105473
405.000000	0.104515
406.000000	0.105361
407.000000	0.107932
408.000000	0.106985
409.000000	0.106571
410.000000	0.106928
411.000000	0.106300
412.000000	0.107150
413.000000	0.108304
414.000000	0.108304
415.000000	0.109058
416.000000	0.109687
417.000000	0.109703
418.000000	0.109809
419.000000	0.110075
420.000000	0.110515
421.000000	0.111109
422.000000	0.110881
423.000000	0.110545
424.000000	0.111191
425.000000	0.111430
426.000000	0.111702
427.000000	0.112298
428.000000	0.112258
429.000000	0.112694
430.000000	0.113686
431.000000	0.113921
432.000000	0.114237
433.000000	0.114504
434.000000	0.114300
435.000000	0.114584
436.000000	0.115041
437.000000	0.115264
438.000000	0.115735
439.000000	0.116116
440.000000	0.116340
441.000000	0.116807
442.000000	0.116988
443.000000	0.117027
444.000000	0.117627
445.000000	0.117976
446.000000	0.118271
447.000000	0.118788
448.000000	0.118843
449.000000	0.118990
450.000000	0.119583
451.000000	0.120121
452.000000	0.120348
453.000000	0.120503
454.000000	0.121601
455.000000	0.122185
456.000000	0.122516
457.000000	0.123376
458.000000	0.123538
459.000000	0.123745
460.000000	0.124646
461.000000	0.124954
462.000000	0.125052
463.000000	0.125176
464.000000	0.125477
465.000000	0.125880
466.000000	0.126423
467.000000	0.127264
468.000000	0.127626
469.000000	0.127691
470.000000	0.127931
471.000000	0.128088
472.000000	0.128301
473.000000	0.128667
474.000000	0.129061
475.000000	0.129467
476.000000	0.129872
477.000000	0.130064
478.000000	0.130426
479.000000	0.130920
480.000000	0.131183
481.000000	0.131451
482.000000	0.131792
483.000000	0.132135
484.000000	0.132610
485.000000	0.132940
486.000000	0.133135
487.000000	0.133465
488.000000	0.133603
489.000000	0.133621
490.000000	0.133843
491.000000	0.134003
492.000000	0.134146
493.000000	0.134293
494.000000	0.134296
495.000000	0.134384
496.000000	0.134618
497.000000	0.134572
498.000000	0.134592
499.000000	0.134806
500.000000	0.135013
501.000000	0.135091
502.000000	0.135164
503.000000	0.135427
504.000000	0.135684
505.000000	0.135897
506.000000	0.136075
507.000000	0.136235
508.000000	0.136498
509.000000	0.136877
510.000000	0.137248
511.000000	0.137551
512.000000	0.137832
513.000000	0.138205
514.000000	0.138654
515.000000	0.139110
516.000000	0.139465
517.000000	0.139819
518.000000	0.140213
519.000000	0.140628
520.000000	0.141094
521.000000	0.141552
522.000000	0.142050
523.000000	0.142817
524.000000	0.143553
525.000000	0.144273
526.000000	0.145175
527.000000	0.146124
528.000000	0.147146
529.000000	0.148320
530.000000	0.149603
531.000000	0.150952
532.000000	0.152317
533.000000	0.153830
534.000000	0.155317
535.000000	0.156756
536.000000	0.158293
537.000000	0.159818
538.000000	0.161283
539.000000	0.162655
540.000000	0.163935
541.000000	0.165212
542.000000	0.166548
543.000000	0.167730
544.000000	0.168916
545.000000	0.170136
546.000000	0.171297
547.000000	0.172521
548.000000	0.173858
549.000000	0.175249
550.000000	0.176623
551.000000	0.178088
552.000000	0.179743
553.000000	0.181425
554.000000	0.183203
555.000000	0.185131
556.000000	0.187111
557.000000	0.189098
558.000000	0.191179
559.000000	0.193370
560.000000	0.195571
561.000000	0.197767
562.000000	0.199881
563.000000	0.202032
564.000000	0.204140
565.000000	0.206047
566.000000	0.207953
567.000000	0.209758
568.000000	0.211393
569.000000	0.212931
570.000000	0.214363
571.000000	0.215662
572.000000	0.216800
573.000000	0.217817
574.000000	0.218714
575.000000	0.219518
576.000000	0.220190
577.000000	0.220737
578.000000	0.221218
579.000000	0.221625
580.000000	0.221970
581.000000	0.222222
582.000000	0.222258
583.000000	0.222293
584.000000	0.222337
585.000000	0.222283
586.000000	0.222001
587.000000	0.221648
588.000000	0.221400
589.000000	0.221015
590.000000	0.220535
591.000000	0.220020
592.000000	0.219538
593.000000	0.218949
594.000000	0.218261
595.000000	0.217652
596.000000	0.216927
597.000000	0.216166
598.000000	0.215460
599.000000	0.214649
600.000000	0.213798
601.000000	0.212941
602.000000	0.212156
603.000000	0.211358
604.000000	0.210520
605.000000	0.209698
606.000000	0.208926
607.000000	0.208173
608.000000	0.207356
609.000000	0.206543
610.000000	0.205767
611.000000	0.205038
612.000000	0.204291
613.000000	0.203538
614.000000	0.202815
615.000000	0.202102
616.000000	0.201427
617.000000	0.200757
618.000000	0.200044
619.000000	0.199442
620.000000	0.198873
621.000000	0.198222
622.000000	0.197614
623.000000	0.197051
624.000000	0.196516
625.000000	0.196006
626.000000	0.195491
627.000000	0.194982
628.000000	0.194552
629.000000	0.194202
630.000000	0.193833
631.000000	0.193468
632.000000	0.193178
633.000000	0.192913
634.000000	0.192604
635.000000	0.192279
636.000000	0.191977
637.000000	0.191719
638.000000	0.191532
639.000000	0.191386
640.000000	0.191306
641.000000	0.191251
642.000000	0.191252
643.000000	0.191310
644.000000	0.191404
645.000000	0.191380
646.000000	0.191378
647.000000	0.191477
648.000000	0.191528
649.000000	0.191626
650.000000	0.191814
651.000000	0.192112
652.000000	0.192387
653.000000	0.192654
654.000000	0.192946
655.000000	0.193258
656.000000	0.193620
657.000000	0.194026
658.000000	0.194497
659.000000	0.195027
660.000000	0.195587
661.000000	0.196135
662.000000	0.196674
663.000000	0.197252
664.000000	0.197883
665.000000	0.198643
666.000000	0.199450
667.000000	0.200189
668.000000	0.200966
669.000000	0.201798
670.000000	0.202684
671.000000	0.203596
672.000000	0.204547
673.000000	0.205533
674.000000	0.206548
675.000000	0.207639
676.000000	0.208766
677.000000	0.209888
678.000000	0.211063
679.000000	0.212319
680.000000	0.213666
681.000000	0.215066
682.000000	0.216498
683.000000	0.217904
684.000000	0.219345
685.000000	0.220869
686.000000	0.222466
687.000000	0.224070
688.000000	0.225745
689.000000	0.227447
690.000000	0.229188
691.000000	0.231067
692.000000	0.232948
693.000000	0.234846
694.000000	0.236805
695.000000	0.238826
696.000000	0.240899
697.000000	0.243008
698.000000	0.245184
699.000000	0.247417
700.000000	0.249689
701.000000	0.251948
702.000000	0.254240
703.000000	0.256586
704.000000	0.259022
705.000000	0.261489
706.000000	0.263999
707.000000	0.266662
708.000000	0.269289
709.000000	0.271933
710.000000	0.274662
711.000000	0.277395
712.000000	0.280160
713.000000	0.282969
714.000000	0.285736
715.000000	0.288587
716.000000	0.291505
717.000000	0.294396
718.000000	0.297370
719.000000	0.300395
720.000000	0.303439
721.000000	0.306499
722.000000	0.309500
723.000000	0.312469
724.000000	0.315412
725.000000	0.318416
726.000000	0.321495
727.000000	0.324468
728.000000	0.327483
729.000000	0.330587
730.000000	0.333726
731.000000	0.336877
732.000000	0.339977
733.000000	0.343050
734.000000	0.346103
735.000000	0.349121
736.000000	0.352188
737.000000	0.355135
738.000000	0.358004
739.000000	0.360930
740.000000	0.363788
741.000000	0.366571
742.000000	0.369357
743.000000	0.372117
744.000000	0.374814
745.000000	0.377464
746.000000	0.380090
747.000000	0.382613
748.000000	0.385203
749.000000	0.387750
750.000000	0.390130
751.000000	0.392434
752.000000	0.394640
753.000000	0.396810
754.000000	0.399045
755.000000	0.401263
756.000000	0.403429
757.000000	0.405478
758.000000	0.407537
759.000000	0.409547
760.000000	0.411394
761.000000	0.413233
762.000000	0.414936
763.000000	0.416500
764.000000	0.418103
765.000000	0.419647
766.000000	0.421143
767.000000	0.422597
768.000000	0.423970
769.000000	0.425323
770.000000	0.426682
771.000000	0.428001
772.000000	0.429277
773.000000	0.430453
774.000000	0.431631
775.000000	0.432675
776.000000	0.433631
777.000000	0.434527
778.000000	0.435353
779.000000	0.436226
780.000000	0.437135
781.000000	0.437921
782.000000	0.438524
783.000000	0.439143
784.000000	0.439770
785.000000	0.440441
786.000000	0.441024
787.000000	0.441472
788.000000	0.441937
789.000000	0.442465
790.000000	0.442984
791.000000	0.443417
792.000000	0.443794
793.000000	0.444115
794.000000	0.444396
795.000000	0.444682
796.000000	0.444970
797.000000	0.445222
798.000000	0.445371
799.000000	0.445572
800.000000	0.445747
801.000000	0.445787
802.000000	0.445851
803.000000	0.445957
804.000000	0.446115
805.000000	0.446129
806.000000	0.446156
807.000000	0.446261
808.000000	0.446259
809.000000	0.446294
810.000000	0.446369
811.000000	0.446394
812.000000	0.446134
813.000000	0.445977
814.000000	0.445947
815.000000	0.445779
816.000000	0.445677
817.000000	0.445623
818.000000	0.445446
819.000000	0.445303
820.000000	0.445221
821.000000	0.445115
822.000000	0.444962
823.000000	0.444833
824.000000	0.444613
825.000000	0.444333
826.000000	0.444117
827.000000	0.443907
828.000000	0.443721
829.000000	0.443551
830.000000	0.443365
831.000000	0.443141
832.000000	0.442653
833.000000	0.442310
834.000000	0.442034
835.000000	0.441759
836.000000	0.441511
837.000000	0.441168
838.000000	0.440805
839.000000	0.440585
840.000000	0.440380
841.000000	0.440123
842.000000	0.439760
843.000000	0.439555
844.000000	0.439331
845.000000	0.439007
846.000000	0.438728
847.000000	0.438405
848.000000	0.438069
849.000000	0.437792
850.000000	0.437406
851.000000	0.436902
852.000000	0.436403
853.000000	0.436059
854.000000	0.435671
855.000000	0.435377
856.000000	0.435093
857.000000	0.434549
858.000000	0.434044
859.000000	0.433625
860.000000	0.433215
861.000000	0.432907
862.000000	0.432649
863.000000	0.432238
864.000000	0.431824
865.000000	0.431375
866.000000	0.430917
867.000000	0.430490
868.000000	0.430179
869.000000	0.429828
870.000000	0.429362
871.000000	0.428888
872.000000	0.428438
873.000000	0.427973
874.000000	0.427649
875.000000	0.427281
876.000000	0.426834
877.000000	0.426259
878.000000	0.425650
879.000000	0.425227
880.000000	0.424909
881.000000	0.424741
882.000000	0.424466
883.000000	0.424046
884.000000	0.423488
885.000000	0.423128
886.000000	0.422756
887.000000	0.422276
888.000000	0.421761
889.000000	0.421384
890.000000	0.420945
891.000000	0.420449
892.000000	0.420022
893.000000	0.419585
894.000000	0.419257
895.000000	0.418954
896.000000	0.418574
897.000000	0.418173
898.000000	0.417820
899.000000	0.417237
900.000000	0.416826
901.000000	0.416607
902.000000	0.416205
903.000000	0.415812
904.000000	0.415451
905.000000	0.414984
906.000000	0.414616
907.000000	0.414275
908.000000	0.413969
909.000000	0.413568
910.000000	0.413167
911.000000	0.412856
912.000000	0.412672
913.000000	0.412380
914.000000	0.411985
915.000000	0.411645
916.000000	0.411390
917.000000	0.410936
918.000000	0.410421
919.000000	0.409989
920.000000	0.409714
921.000000	0.409509
922.000000	0.409284
923.000000	0.408931
924.000000	0.408548
925.000000	0.408126
926.000000	0.407743
927.000000	0.407490
928.000000	0.407253
929.000000	0.406978
930.000000	0.406636
931.000000	0.406143
932.000000	0.405709
933.000000	0.405407
934.000000	0.405006
935.000000	0.404713
936.000000	0.404561
937.000000	0.404352
938.000000	0.403905
939.000000	0.403674
940.000000	0.403589
941.000000	0.403453
942.000000	0.402997
943.000000	0.402676
944.000000	0.402559
945.000000	0.402432
946.000000	0.402137
947.000000	0.401891
948.000000	0.401832
949.000000	0.401582
950.000000	0.401352
951.000000	0.401092
952.000000	0.400664
953.000000	0.400391
954.000000	0.400218
955.000000	0.399925
956.000000	0.399438
957.000000	0.399037
958.000000	0.398793
959.000000	0.398772
960.000000	0.398456
961.000000	0.398188
962.000000	0.398074
963.000000	0.397947
964.000000	0.397728
965.000000	0.397506
966.000000	0.397227
967.000000	0.396960
968.000000	0.396985
969.000000	0.397015
970.000000	0.396744
971.000000	0.396581
972.000000	0.396599
973.000000	0.396599
974.000000	0.396360
975.000000	0.396238
976.000000	0.396129
977.000000	0.395887
978.000000	0.395540
979.000000	0.395548
980.000000	0.395577
981.000000	0.395595
982.000000	0.395513
983.000000	0.395119
984.000000	0.394746
985.000000	0.395020
986.000000	0.395180
987.000000	0.395156
988.000000	0.394947
989.000000	0.394949
990.000000	0.395159
991.000000	0.395413
992.000000	0.395562
993.000000	0.395581
994.000000	0.395360
995.000000	0.395288
996.000000	0.395509
997.000000	0.395584
998.000000	0.395413
999.000000	0.395231
1000.000000	0.395334
1001.000000	0.396139
1002.000000	0.395410
1003.000000	0.394429
1004.000000	0.394277
1005.000000	0.395532
1006.000000	0.395600
1007.000000	0.395507
1008.000000	0.395381
1009.000000	0.394871
1010.000000	0.394548
1011.000000	0.394670
1012.000000	0.395061
1013.000000	0.394790
1014.000000	0.394638
1015.000000	0.394870
1016.000000	0.394597
1017.000000	0.395112
1018.000000	0.396433
1019.000000	0.396750
1020.000000	0.396614
1021.000000	0.396406
1022.000000	0.395714
1023.000000	0.395749
1024.000000	0.395840
1025.000000	0.396602
1026.000000	0.397035
1027.000000	0.397155
1028.000000	0.397710
1029.000000	0.398141
1030.000000	0.398551
1031.000000	0.398595
1032.000000	0.397784
1033.000000	0.397297
1034.000000	0.397185
1035.000000	0.397189
1036.000000	0.397554
1037.000000	0.398709
1038.000000	0.399118
1039.000000	0.399437
1040.000000	0.400004
1041.000000	0.400163
1042.000000	0.399916
1043.000000	0.400425
1044.000000	0.400894
1045.000000	0.400899
1046.000000	0.401132
1047.000000	0.401414
1048.000000	0.401571
1049.000000	0.401409
1050.000000	0.401049
1051.000000	0.401262
1052.000000	0.401468
1053.000000	0.401541
1054.000000	0.402467
1055.000000	0.402823
1056.000000	0.402589
1057.000000	0.402434
1058.000000	0.402805
1059.000000	0.402969
1060.000000	0.403313
1061.000000	0.403992
1062.000000	0.404371
1063.000000	0.404660
1064.000000	0.405105
1065.000000	0.405722
1066.000000	0.405900
1067.000000	0.405765
1068.000000	0.405947
1069.000000	0.405798
1070.000000	0.405940
1071.000000	0.406822
1072.000000	0.407178
1073.000000	0.407328
1074.000000	0.407488
1075.000000	0.407658
1076.000000	0.407909
1077.000000	0.408593
1078.000000	0.408926
1079.000000	0.409108
1080.000000	0.409067
1081.000000	0.409274
1082.000000	0.409612
1083.000000	0.409832
1084.000000	0.410293
1085.000000	0.410475
1086.000000	0.410076
1087.000000	0.410173
1088.000000	0.410332
1089.000000	0.410622
1090.000000	0.411168
1091.000000	0.411648
1092.000000	0.412134
1093.000000	0.412733
1094.000000	0.412971
1095.000000	0.412752
1096.000000	0.413123
1097.000000	0.413612
1098.000000	0.413975
1099.000000	0.414595
1100.000000	0.415072
1101.000000	0.415231
1102.000000	0.415443
1103.000000	0.415792
1104.000000	0.416003
1105.000000	0.415813
1106.000000	0.415993
1107.000000	0.416188
1108.000000	0.416528
1109.000000	0.417390
1110.000000	0.418035
1111.000000	0.418363
1112.000000	0.418593
1113.000000	0.418764
1114.000000	0.418587
1115.000000	0.418635
1116.000000	0.418783
1117.000000	0.418919
1118.000000	0.418901
1119.000000	0.419078
1120.000000	0.419387
1121.000000	0.419745
1122.000000	0.420572
1123.000000	0.421161
1124.000000	0.421139
1125.000000	0.421521
1126.000000	0.421995
1127.000000	0.422170
1128.000000	0.422300
1129.000000	0.422681
1130.000000	0.422807
1131.000000	0.422484
1132.000000	0.422576
1133.000000	0.422998
1134.000000	0.423248
1135.000000	0.423457
1136.000000	0.423607
1137.000000	0.423750
1138.000000	0.423748
1139.000000	0.423790
1140.000000	0.423843
1141.000000	0.423614
1142.000000	0.423606
1143.000000	0.423655
1144.000000	0.423785
1145.000000	0.423710
1146.000000	0.423762
1147.000000	0.423825
1148.000000	0.423745
1149.000000	0.423781
1150.000000	0.423939
1151.000000	0.424104
1152.000000	0.424222
1153.000000	0.424317
1154.000000	0.424392
1155.000000	0.424479
1156.000000	0.424442
1157.000000	0.424595
1158.000000	0.424785
1159.000000	0.425037
1160.000000	0.425509
1161.000000	0.425751
1162.000000	0.425931
1163.000000	0.426361
1164.000000	0.426534
1165.000000	0.426645
1166.000000	0.426829
1167.000000	0.427045
1168.000000	0.427092
1169.000000	0.426997
1170.000000	0.427174
1171.000000	0.427469
1172.000000	0.427742
1173.000000	0.428198
1174.000000	0.428441
1175.000000	0.428402
1176.000000	0.428518
1177.000000	0.428783
1178.000000	0.429010
1179.000000	0.429365
1180.000000	0.429502
1181.000000	0.429755
1182.000000	0.429640
1183.000000	0.429600
1184.000000	0.429751
1185.000000	0.429923
1186.000000	0.430232
1187.000000	0.430397
1188.000000	0.430581
1189.000000	0.430657
1190.000000	0.430628
1191.000000	0.430695
1192.000000	0.430877
1193.000000	0.431219
1194.000000	0.431535
1195.000000	0.431838
1196.000000	0.432136
1197.000000	0.432386
1198.000000	0.432593
1199.000000	0.432848
1200.000000	0.433115
1201.000000	0.433437
1202.000000	0.433582
1203.000000	0.433681
1204.000000	0.433695
1205.000000	0.433634
1206.000000	0.433762
1207.000000	0.434162
1208.000000	0.434388
1209.000000	0.434803
1210.000000	0.435009
1211.000000	0.434982
1212.000000	0.435136
1213.000000	0.435381
1214.000000	0.435611
1215.000000	0.435947
1216.000000	0.436179
1217.000000	0.436269
1218.000000	0.436383
1219.000000	0.436511
1220.000000	0.436644
1221.000000	0.436872
1222.000000	0.437060
1223.000000	0.437443
1224.000000	0.437855
1225.000000	0.438127
1226.000000	0.438587
1227.000000	0.438895
1228.000000	0.439155
1229.000000	0.439310
1230.000000	0.439270
1231.000000	0.439388
1232.000000	0.439678
1233.000000	0.439987
1234.000000	0.440457
1235.000000	0.440751
1236.000000	0.440711
1237.000000	0.440950
1238.000000	0.441262
1239.000000	0.441443
1240.000000	0.441568
1241.000000	0.441920
1242.000000	0.442029
1243.000000	0.442128
1244.000000	0.442504
1245.000000	0.442697
1246.000000	0.442916
1247.000000	0.443435
1248.000000	0.443595
1249.000000	0.443737
1250.000000	0.444015
1251.000000	0.444077
1252.000000	0.444331
1253.000000	0.444877
1254.000000	0.445216
1255.000000	0.445587
1256.000000	0.445767
1257.000000	0.445672
1258.000000	0.445932
1259.000000	0.446136
1260.000000	0.446462
1261.000000	0.447081
1262.000000	0.447439
1263.000000	0.447656
1264.000000	0.447881
1265.000000	0.448208
1266.000000	0.448347
1267.000000	0.448584
1268.000000	0.448798
1269.000000	0.448793
1270.000000	0.448929
1271.000000	0.449073
1272.000000	0.449308
1273.000000	0.449662
1274.000000	0.450062
1275.000000	0.450301
1276.000000	0.450455
1277.000000	0.450778
1278.000000	0.450958
1279.000000	0.451156
1280.000000	0.451434
1281.000000	0.451576
1282.000000	0.451641
1283.000000	0.451831
1284.000000	0.451899
1285.000000	0.452143
1286.000000	0.452497
1287.000000	0.452717
1288.000000	0.453071
1289.000000	0.453264
1290.000000	0.453217
1291.000000	0.453322
1292.000000	0.453534
1293.000000	0.453784
1294.000000	0.454035
1295.000000	0.454280
1296.000000	0.454459
1297.000000	0.454538
1298.000000	0.454679
1299.000000	0.454808
1300.000000	0.454974
1301.000000	0.455169
1302.000000	0.455240
1303.000000	0.455438
1304.000000	0.455487
1305.000000	0.455552
1306.000000	0.455592
1307.000000	0.455683
1308.000000	0.455736
1309.000000	0.455672
1310.000000	0.455756
1311.000000	0.455991
1312.000000	0.455954
1313.000000	0.456098
1314.000000	0.456169
1315.000000	0.455820
1316.000000	0.455810
1317.000000	0.455905
1318.000000	0.455844
1319.000000	0.455764
1320.000000	0.455660
1321.000000	0.455410
1322.000000	0.455164
1323.000000	0.455136
1324.000000	0.455113
1325.000000	0.455081
1326.000000	0.455083
1327.000000	0.454973
1328.000000	0.455093
1329.000000	0.455085
1330.000000	0.455035
1331.000000	0.454992
1332.000000	0.455083
1333.000000	0.455007
1334.000000	0.454920
1335.000000	0.454971
1336.000000	0.454959
1337.000000	0.454940
1338.000000	0.454912
1339.000000	0.454916
1340.000000	0.454880
1341.000000	0.454824
1342.000000	0.454762
1343.000000	0.454549
1344.000000	0.454228
1345.000000	0.454022
1346.000000	0.454083
1347.000000	0.453929
1348.000000	0.453700
1349.000000	0.453524
1350.000000	0.453377
1351.000000	0.453127
1352.000000	0.452948
1353.000000	0.452810
1354.000000	0.452477
1355.000000	0.452184
1356.000000	0.452131
1357.000000	0.451890
1358.000000	0.451677
1359.000000	0.451571
1360.000000	0.451333
1361.000000	0.451057
1362.000000	0.450759
1363.000000	0.450320
1364.000000	0.450044
1365.000000	0.449871
1366.000000	0.449603
1367.000000	0.449364
1368.000000	0.448944
1369.000000	0.448688
1370.000000	0.448255
1371.000000	0.447764
1372.000000	0.447243
1373.000000	0.446631
1374.000000	0.446096
1375.000000	0.445597
1376.000000	0.445228
1377.000000	0.444605
1378.000000	0.443649
1379.000000	0.442586
1380.000000	0.441545
1381.000000	0.440289
1382.000000	0.438890
1383.000000	0.437736
1384.000000	0.436285
1385.000000	0.434597
1386.000000	0.432970
1387.000000	0.431048
1388.000000	0.428777
1389.000000	0.426518
1390.000000	0.424356
1391.000000	0.421801
1392.000000	0.419174
1393.000000	0.416402
1394.000000	0.413496
1395.000000	0.410496
1396.000000	0.407386
1397.000000	0.404131
1398.000000	0.400680
1399.000000	0.397313
1400.000000	0.393754
1401.000000	0.390448
1402.000000	0.387294
1403.000000	0.384203
1404.000000	0.381284
1405.000000	0.378474
1406.000000	0.375850
1407.000000	0.373361
1408.000000	0.371057
1409.000000	0.369155
1410.000000	0.367367
1411.000000	0.365770
1412.000000	0.364273
1413.000000	0.362693
1414.000000	0.361269
1415.000000	0.359990
1416.000000	0.359017
1417.000000	0.358292
1418.000000	0.357466
1419.000000	0.356761
1420.000000	0.355784
1421.000000	0.354854
1422.000000	0.354256
1423.000000	0.353576
1424.000000	0.352824
1425.000000	0.352243
1426.000000	0.351539
1427.000000	0.350916
1428.000000	0.350398
1429.000000	0.349741
1430.000000	0.349127
1431.000000	0.348548
1432.000000	0.347944
1433.000000	0.347378
1434.000000	0.346892
1435.000000	0.346441
1436.000000	0.346159
1437.000000	0.346053
1438.000000	0.345833
1439.000000	0.345644
1440.000000	0.345660
1441.000000	0.345610
1442.000000	0.345939
1443.000000	0.346554
1444.000000	0.347173
1445.000000	0.347892
1446.000000	0.348745
1447.000000	0.349547
1448.000000	0.350315
1449.000000	0.351167
1450.000000	0.352061
1451.000000	0.352952
1452.000000	0.353801
1453.000000	0.354479
1454.000000	0.354993
1455.000000	0.355551
1456.000000	0.356124
1457.000000	0.356619
1458.000000	0.357046
1459.000000	0.357436
1460.000000	0.357842
1461.000000	0.358196
1462.000000	0.358635
1463.000000	0.359007
1464.000000	0.359316
1465.000000	0.359877
1466.000000	0.360361
1467.000000	0.360886
1468.000000	0.361487
1469.000000	0.362017
1470.000000	0.362546
1471.000000	0.363128
1472.000000	0.363808
1473.000000	0.364686
1474.000000	0.365495
1475.000000	0.366220
1476.000000	0.366944
1477.000000	0.367642
1478.000000	0.368405
1479.000000	0.369282
1480.000000	0.370221
1481.000000	0.371071
1482.000000	0.371900
1483.000000	0.372786
1484.000000	0.373639
1485.000000	0.374514
1486.000000	0.375463
1487.000000	0.376350
1488.000000	0.377277
1489.000000	0.378156
1490.000000	0.378756
1491.000000	0.379545
1492.000000	0.380376
1493.000000	0.381170
1494.000000	0.382056
1495.000000	0.382750
1496.000000	0.383164
1497.000000	0.383789
1498.000000	0.384432
1499.000000	0.385162
1500.000000	0.386059
1501.000000	0.386923
1502.000000	0.387626
1503.000000	0.388265
1504.000000	0.388857
1505.000000	0.389469
1506.000000	0.390114
1507.000000	0.390712
1508.000000	0.391395
1509.000000	0.391984
1510.000000	0.392457
1511.000000	0.392993
1512.000000	0.393454
1513.000000	0.393943
1514.000000	0.394476
1515.000000	0.394961
1516.000000	0.395494
1517.000000	0.395887
1518.000000	0.396280
1519.000000	0.396632
1520.000000	0.396933
1521.000000	0.397213
1522.000000	0.397477
1523.000000	0.397857
1524.000000	0.398202
1525.000000	0.398451
1526.000000	0.398726
1527.000000	0.399117
1528.000000	0.399487
1529.000000	0.399766
1530.000000	0.400101
1531.000000	0.400414
1532.000000	0.400581
1533.000000	0.400892
1534.000000	0.401219
1535.000000	0.401466
1536.000000	0.401814
1537.000000	0.402258
1538.000000	0.402653
1539.000000	0.402960
1540.000000	0.403206
1541.000000	0.403455
1542.000000	0.403752
1543.000000	0.404093
1544.000000	0.404388
1545.000000	0.404647
1546.000000	0.404904
1547.000000	0.405057
1548.000000	0.405226
1549.000000	0.405560
1550.000000	0.405732
1551.000000	0.405871
1552.000000	0.406170
1553.000000	0.406318
1554.000000	0.406479
1555.000000	0.406710
1556.000000	0.406885
1557.000000	0.407020
1558.000000	0.407172
1559.000000	0.407269
1560.000000	0.407361
1561.000000	0.407502
1562.000000	0.407568
1563.000000	0.407620
1564.000000	0.407701
1565.000000	0.407740
1566.000000	0.407718
1567.000000	0.407850
1568.000000	0.407904
1569.000000	0.407935
1570.000000	0.408098
1571.000000	0.408303
1572.000000	0.408428
1573.000000	0.408630
1574.000000	0.408783
1575.000000	0.408887
1576.000000	0.409028
1577.000000	0.409180
1578.000000	0.409265
1579.000000	0.409395
1580.000000	0.409479
1581.000000	0.409642
1582.000000	0.409744
1583.000000	0.409701
1584.000000	0.409704
1585.000000	0.409866
1586.000000	0.409974
1587.000000	0.410080
1588.000000	0.410138
1589.000000	0.410128
1590.000000	0.410193
1591.000000	0.410292
1592.000000	0.410489
1593.000000	0.410868
1594.000000	0.411035
1595.000000	0.411210
1596.000000	0.411351
1597.000000	0.411452
1598.000000	0.411486
1599.000000	0.411544
1600.000000	0.411490
1601.000000	0.411338
1602.000000	0.411311
1603.000000	0.411367
1604.000000	0.411370
1605.000000	0.411442
1606.000000	0.411510
1607.000000	0.411581
1608.000000	0.411694
1609.000000	0.411958
1610.000000	0.412099
1611.000000	0.412234
1612.000000	0.412376
1613.000000	0.412603
1614.000000	0.412740
1615.000000	0.412915
1616.000000	0.413137
1617.000000	0.413263
1618.000000	0.413444
1619.000000	0.413643
1620.000000	0.413847
1621.000000	0.414131
1622.000000	0.414422
1623.000000	0.414688
1624.000000	0.414973
1625.000000	0.415074
1626.000000	0.415202
1627.000000	0.415365
1628.000000	0.415598
1629.000000	0.415812
1630.000000	0.416098
1631.000000	0.416440
1632.000000	0.416606
1633.000000	0.416690
1634.000000	0.416927
1635.000000	0.417221
1636.000000	0.417389
1637.000000	0.417628
1638.000000	0.417808
1639.000000	0.417907
1640.000000	0.418092
1641.000000	0.418502
1642.000000	0.418730
1643.000000	0.418856
1644.000000	0.419016
1645.000000	0.419189
1646.000000	0.419255
1647.000000	0.419267
1648.000000	0.419389
1649.000000	0.419612
1650.000000	0.419878
1651.000000	0.420327
1652.000000	0.420697
1653.000000	0.420974
1654.000000	0.421296
1655.000000	0.421511
1656.000000	0.421752
1657.000000	0.422149
1658.000000	0.422408
1659.000000	0.422795
1660.000000	0.423128
1661.000000	0.423238
1662.000000	0.423446
1663.000000	0.423645
1664.000000	0.423860
1665.000000	0.424069
1666.000000	0.424421
1667.000000	0.424769
1668.000000	0.425007
1669.000000	0.425217
1670.000000	0.425345
1671.000000	0.425492
1672.000000	0.425758
1673.000000	0.426044
1674.000000	0.426312
1675.000000	0.426551
1676.000000	0.426824
1677.000000	0.427049
1678.000000	0.427183
1679.000000	0.427278
1680.000000	0.427285
1681.000000	0.427379
1682.000000	0.427633
1683.000000	0.427937
1684.000000	0.428183
1685.000000	0.428400
1686.000000	0.428504
1687.000000	0.428573
1688.000000	0.428547
1689.000000	0.428592
1690.000000	0.428693
1691.000000	0.428881
1692.000000	0.429054
1693.000000	0.429037
1694.000000	0.428817
1695.000000	0.428797
1696.000000	0.428810
1697.000000	0.428855
1698.000000	0.429210
1699.000000	0.429382
1700.000000	0.429431
1701.000000	0.429668
1702.000000	0.429659
1703.000000	0.429669
1704.000000	0.429950
1705.000000	0.430085
1706.000000	0.430131
1707.000000	0.430235
1708.000000	0.430214
1709.000000	0.430276
1710.000000	0.430676
1711.000000	0.430847
1712.000000	0.430954
1713.000000	0.431084
1714.000000	0.431081
1715.000000	0.431219
1716.000000	0.431643
1717.000000	0.431780
1718.000000	0.431688
1719.000000	0.431706
1720.000000	0.431675
1721.000000	0.431726
1722.000000	0.432004
1723.000000	0.432054
1724.000000	0.431939
1725.000000	0.432025
1726.000000	0.431981
1727.000000	0.432038
1728.000000	0.432257
1729.000000	0.432184
1730.000000	0.432085
1731.000000	0.432114
1732.000000	0.432083
1733.000000	0.432271
1734.000000	0.432531
1735.000000	0.432621
1736.000000	0.432660
1737.000000	0.432648
1738.000000	0.432516
1739.000000	0.432517
1740.000000	0.432558
1741.000000	0.432508
1742.000000	0.432432
1743.000000	0.432565
1744.000000	0.432724
1745.000000	0.432769
1746.000000	0.432912
1747.000000	0.432982
1748.000000	0.432830
1749.000000	0.432510
1750.000000	0.432327
1751.000000	0.432158
1752.000000	0.432203
1753.000000	0.432490
1754.000000	0.432548
1755.000000	0.432368
1756.000000	0.432275
1757.000000	0.432070
1758.000000	0.432009
1759.000000	0.432144
1760.000000	0.432117
1761.000000	0.431883
1762.000000	0.431868
1763.000000	0.431942
1764.000000	0.432002
1765.000000	0.432167
1766.000000	0.432329
1767.000000	0.432379
1768.000000	0.432328
1769.000000	0.432478
1770.000000	0.432491
1771.000000	0.432124
1772.000000	0.432108
1773.000000	0.432141
1774.000000	0.432251
1775.000000	0.432703
1776.000000	0.432886
1777.000000	0.432967
1778.000000	0.432985
1779.000000	0.432858
1780.000000	0.432779
1781.000000	0.432567
1782.000000	0.432527
1783.000000	0.432622
1784.000000	0.432639
1785.000000	0.432672
1786.000000	0.432719
1787.000000	0.432927
1788.000000	0.433132
1789.000000	0.433380
1790.000000	0.433752
1791.000000	0.433773
1792.000000	0.433705
1793.000000	0.433700
1794.000000	0.433390
1795.000000	0.433380
1796.000000	0.433772
1797.000000	0.433850
1798.000000	0.433744
1799.000000	0.433796
1800.000000	0.433863
1801.000000	0.433130
1802.000000	0.433779
1803.000000	0.434494
1804.000000	0.434655
1805.000000	0.434770
1806.000000	0.434687
1807.000000	0.433596
1808.000000	0.433404
1809.000000	0.433667
1810.000000	0.433710
1811.000000	0.434068
1812.000000	0.435115
1813.000000	0.435406
1814.000000	0.435821
1815.000000	0.435560
1816.000000	0.434387
1817.000000	0.433646
1818.000000	0.432366
1819.000000	0.432058
1820.000000	0.432359
1821.000000	0.432351
1822.000000	0.432587
1823.000000	0.433031
1824.000000	0.433229
1825.000000	0.433643
1826.000000	0.433619
1827.000000	0.432991
1828.000000	0.432790
1829.000000	0.432196
1830.000000	0.431403
1831.000000	0.430944
1832.000000	0.430582
1833.000000	0.430468
1834.000000	0.430517
1835.000000	0.430595
1836.000000	0.431151
1837.000000	0.431181
1838.000000	0.430861
1839.000000	0.430474
1840.000000	0.429508
1841.000000	0.428529
1842.000000	0.427813
1843.000000	0.426693
1844.000000	0.426233
1845.000000	0.426589
1846.000000	0.426219
1847.000000	0.425100
1848.000000	0.424964
1849.000000	0.425011
1850.000000	0.424074
1851.000000	0.423397
1852.000000	0.423122
1853.000000	0.422166
1854.000000	0.420379
1855.000000	0.418947
1856.000000	0.417157
1857.000000	0.415812
1858.000000	0.414738
1859.000000	0.412307
1860.000000	0.410203
1861.000000	0.408381
1862.000000	0.406729
1863.000000	0.405687
1864.000000	0.404032
1865.000000	0.402474
1866.000000	0.400353
1867.000000	0.397561
1868.000000	0.394705
1869.000000	0.391715
1870.000000	0.388572
1871.000000	0.384888
1872.000000	0.380543
1873.000000	0.376849
1874.000000	0.373541
1875.000000	0.369720
1876.000000	0.365771
1877.000000	0.361425
1878.000000	0.356532
1879.000000	0.351095
1880.000000	0.345388
1881.000000	0.339334
1882.000000	0.333262
1883.000000	0.326351
1884.000000	0.319914
1885.000000	0.313775
1886.000000	0.307189
1887.000000	0.300227
1888.000000	0.293402
1889.000000	0.286701
1890.000000	0.279379
1891.000000	0.271782
1892.000000	0.263689
1893.000000	0.255318
1894.000000	0.246551
1895.000000	0.238470
1896.000000	0.230701
1897.000000	0.223914
1898.000000	0.217285
1899.000000	0.211872
1900.000000	0.207048
1901.000000	0.202422
1902.000000	0.198974
1903.000000	0.195380
1904.000000	0.192114
1905.000000	0.189588
1906.000000	0.186921
1907.000000	0.183995
1908.000000	0.181855
1909.000000	0.180633
1910.000000	0.180057
1911.000000	0.180329
1912.000000	0.180952
1913.000000	0.181146
1914.000000	0.181045
1915.000000	0.181154
1916.000000	0.181475
1917.000000	0.181810
1918.000000	0.182565
1919.000000	0.183270
1920.000000	0.183757
1921.000000	0.184068
1922.000000	0.184224
1923.000000	0.184660
1924.000000	0.185143
1925.000000	0.185725
1926.000000	0.186732
1927.000000	0.187824
1928.000000	0.188363
1929.000000	0.188652
1930.000000	0.188630
1931.000000	0.188772
1932.000000	0.189023
1933.000000	0.190008
1934.000000	0.191053
1935.000000	0.191347
1936.000000	0.191660
1937.000000	0.191705
1938.000000	0.191823
1939.000000	0.192174
1940.000000	0.192871
1941.000000	0.193545
1942.000000	0.194390
1943.000000	0.194905
1944.000000	0.195345
1945.000000	0.195321
1946.000000	0.194549
1947.000000	0.194202
1948.000000	0.193818
1949.000000	0.193781
1950.000000	0.194055
1951.000000	0.194091
1952.000000	0.194101
1953.000000	0.194209
1954.000000	0.193802
1955.000000	0.193759
1956.000000	0.193776
1957.000000	0.193303
1958.000000	0.193091
1959.000000	0.192840
1960.000000	0.192396
1961.000000	0.192085
1962.000000	0.191918
1963.000000	0.192024
1964.000000	0.191910
1965.000000	0.191911
1966.000000	0.192174
1967.000000	0.192599
1968.000000	0.193072
1969.000000	0.193964
1970.000000	0.195387
1971.000000	0.196166
1972.000000	0.197151
1973.000000	0.197709
1974.000000	0.197757
1975.000000	0.197888
1976.000000	0.197966
1977.000000	0.197840
1978.000000	0.197783
1979.000000	0.198054
1980.000000	0.199228
1981.000000	0.200499
1982.000000	0.201790
1983.000000	0.203380
1984.000000	0.204074
1985.000000	0.203560
1986.000000	0.203955
1987.000000	0.204500
1988.000000	0.204826
1989.000000	0.205697
1990.000000	0.207201
1991.000000	0.207865
1992.000000	0.208751
1993.000000	0.210346
1994.000000	0.212050
1995.000000	0.214040
1996.000000	0.215748
1997.000000	0.216888
1998.000000	0.217054
1999.000000	0.217807
2000.000000	0.218526
2001.000000	0.219251
2002.000000	0.219980
2003.000000	0.220449
2004.000000	0.220486
2005.000000	0.221081
2006.000000	0.222451
2007.000000	0.224410
2008.000000	0.226351
2009.000000	0.228954
2010.000000	0.230876
2011.000000	0.232593
2012.000000	0.234195
2013.000000	0.235455
2014.000000	0.236937
2015.000000	0.238040
2016.000000	0.238662
2017.000000	0.239721
2018.000000	0.240807
2019.000000	0.242178
2020.000000	0.244165
2021.000000	0.245679
2022.000000	0.247001
2023.000000	0.248284
2024.000000	0.249382
2025.000000	0.250558
2026.000000	0.251708
2027.000000	0.252645
2028.000000	0.253437
2029.000000	0.254215
2030.000000	0.254932
2031.000000	0.256377
2032.000000	0.258049
2033.000000	0.260024
2034.000000	0.261612
2035.000000	0.263129
2036.000000	0.264324
2037.000000	0.265577
2038.000000	0.266424
2039.000000	0.266746
2040.000000	0.267683
2041.000000	0.268570
2042.000000	0.269385
2043.000000	0.270375
2044.000000	0.271644
2045.000000	0.272781
2046.000000	0.273814
2047.000000	0.275168
2048.000000	0.277034
2049.000000	0.278396
2050.000000	0.279225
2051.000000	0.280373
2052.000000	0.281485
2053.000000	0.282308
2054.000000	0.283256
2055.000000	0.284462
2056.000000	0.285293
2057.000000	0.285529
2058.000000	0.286403
2059.000000	0.287371
2060.000000	0.288480
2061.000000	0.290015
2062.000000	0.291150
2063.000000	0.292630
2064.000000	0.293143
2065.000000	0.292814
2066.000000	0.293103
2067.000000	0.293598
2068.000000	0.293934
2069.000000	0.294531
2070.000000	0.295714
2071.000000	0.295868
2072.000000	0.296200
2073.000000	0.297448
2074.000000	0.298096
2075.000000	0.299061
2076.000000	0.300414
2077.000000	0.301704
2078.000000	0.303075
2079.000000	0.304227
2080.000000	0.305795
2081.000000	0.306802
2082.000000	0.307393
2083.000000	0.307542
2084.000000	0.308000
2085.000000	0.308453
2086.000000	0.309485
2087.000000	0.310779
2088.000000	0.311556
2089.000000	0.312581
2090.000000	0.313365
2091.000000	0.313739
2092.000000	0.314292
2093.000000	0.314884
2094.000000	0.315505
2095.000000	0.316192
2096.000000	0.316911
2097.000000	0.317575
2098.000000	0.318504
2099.000000	0.319187
2100.000000	0.319690
2101.000000	0.320444
2102.000000	0.320891
2103.000000	0.321415
2104.000000	0.322501
2105.000000	0.323383
2106.000000	0.324337
2107.000000	0.325326
2108.000000	0.326375
2109.000000	0.327188
2110.000000	0.327872
2111.000000	0.328602
2112.000000	0.329102
2113.000000	0.329301
2114.000000	0.330122
2115.000000	0.330321
2116.000000	0.330339
2117.000000	0.330879
2118.000000	0.331914
2119.000000	0.332775
2120.000000	0.333429
2121.000000	0.334544
2122.000000	0.334881
2123.000000	0.334039
2124.000000	0.334285
2125.000000	0.334923
2126.000000	0.335264
2127.000000	0.335981
2128.000000	0.336666
2129.000000	0.337149
2130.000000	0.337426
2131.000000	0.337767
2132.000000	0.338391
2133.000000	0.338423
2134.000000	0.338808
2135.000000	0.340041
2136.000000	0.340870
2137.000000	0.341379
2138.000000	0.342022
2139.000000	0.342361
2140.000000	0.341559
2141.000000	0.342073
2142.000000	0.343775
2143.000000	0.344186
2144.000000	0.345032
2145.000000	0.345092
2146.000000	0.344105
2147.000000	0.343363
2148.000000	0.342421
2149.000000	0.342422
2150.000000	0.342836
2151.000000	0.343442
2152.000000	0.344445
2153.000000	0.344827
2154.000000	0.345261
2155.000000	0.345683
2156.000000	0.345495
2157.000000	0.344857
2158.000000	0.344830
2159.000000	0.344575
2160.000000	0.344883
2161.000000	0.345802
2162.000000	0.346432
2163.000000	0.346883
2164.000000	0.347259
2165.000000	0.347398
2166.000000	0.348531
2167.000000	0.348277
2168.000000	0.348900
2169.000000	0.349601
2170.000000	0.348917
2171.000000	0.348559
2172.000000	0.348108
2173.000000	0.347576
2174.000000	0.346503
2175.000000	0.346369
2176.000000	0.347036
2177.000000	0.347311
2178.000000	0.347887
2179.000000	0.348106
2180.000000	0.347592
2181.000000	0.347838
2182.000000	0.347617
2183.000000	0.348029
2184.000000	0.347838
2185.000000	0.348153
2186.000000	0.348510
2187.000000	0.348295
2188.000000	0.349087
2189.000000	0.349349
2190.000000	0.349252
2191.000000	0.350235
2192.000000	0.350057
2193.000000	0.349545
2194.000000	0.348439
2195.000000	0.345734
2196.000000	0.344786
2197.000000	0.344004
2198.000000	0.343529
2199.000000	0.344254
2200.000000	0.345122
2201.000000	0.346814
2202.000000	0.347878
2203.000000	0.349804
2204.000000	0.350568
2205.000000	0.347457
2206.000000	0.344379
2207.000000	0.342065
2208.000000	0.340262
2209.000000	0.340175
2210.000000	0.342274
2211.000000	0.345327
2212.000000	0.346412
2213.000000	0.345980
2214.000000	0.344446
2215.000000	0.343316
2216.000000	0.339179
2217.000000	0.339294
2218.000000	0.342678
2219.000000	0.343524
2220.000000	0.344656
2221.000000	0.344896
2222.000000	0.344759
2223.000000	0.344029
2224.000000	0.341935
2225.000000	0.341826
2226.000000	0.340967
2227.000000	0.337578
2228.000000	0.338772
2229.000000	0.340428
2230.000000	0.338976
2231.000000	0.339059
2232.000000	0.339119
2233.000000	0.337106
2234.000000	0.336712
2235.000000	0.337499
2236.000000	0.336449
2237.000000	0.332806
2238.000000	0.331836
2239.000000	0.331898
2240.000000	0.331261
2241.000000	0.331725
2242.000000	0.330881
2243.000000	0.328726
2244.000000	0.327448
2245.000000	0.325039
2246.000000	0.324848
2247.000000	0.326583
2248.000000	0.327022
2249.000000	0.327987
2250.000000	0.329686
2251.000000	0.328918
2252.000000	0.328033
2253.000000	0.328369
2254.000000	0.328165
2255.000000	0.326478
2256.000000	0.325665
2257.000000	0.326513
2258.000000	0.326016
2259.000000	0.327227
2260.000000	0.329867
2261.000000	0.329707
2262.000000	0.327392
2263.000000	0.326307
2264.000000	0.323641
2265.000000	0.323154
2266.000000	0.325620
2267.000000	0.323757
2268.000000	0.320522
2269.000000	0.318058
2270.000000	0.312364
2271.000000	0.310063
2272.000000	0.311333
2273.000000	0.310456
2274.000000	0.309129
2275.000000	0.306624
2276.000000	0.303331
2277.000000	0.299903
2278.000000	0.292761
2279.000000	0.290176
2280.000000	0.288940
2281.000000	0.284807
2282.000000	0.284563
2283.000000	0.283496
2284.000000	0.278872
2285.000000	0.275750
2286.000000	0.272851
2287.000000	0.271204
2288.000000	0.269908
2289.000000	0.268626
2290.000000	0.267183
2291.000000	0.264016
2292.000000	0.261362
2293.000000	0.257967
2294.000000	0.256439
2295.000000	0.256056
2296.000000	0.255383
2297.000000	0.256670
2298.000000	0.256593
2299.000000	0.255081
2300.000000	0.253789
2301.000000	0.250804
2302.000000	0.251038
2303.000000	0.252169
2304.000000	0.254967
2305.000000	0.262735
2306.000000	0.266328
2307.000000	0.268254
2308.000000	0.271154
2309.000000	0.272708
2310.000000	0.271613
2311.000000	0.272307
2312.000000	0.272151
2313.000000	0.269093
2314.000000	0.267949
2315.000000	0.267885
2316.000000	0.268737
2317.000000	0.269508
2318.000000	0.271108
2319.000000	0.272597
2320.000000	0.272556
2321.000000	0.274879
2322.000000	0.277167
2323.000000	0.279670
2324.000000	0.280337
2325.000000	0.280213
2326.000000	0.280806
2327.000000	0.277724
2328.000000	0.275642
2329.000000	0.274213
2330.000000	0.271205
2331.000000	0.270119
2332.000000	0.271763
2333.000000	0.273575
2334.000000	0.272993
2335.000000	0.272379
2336.000000	0.270850
2337.000000	0.268627
2338.000000	0.263733
2339.000000	0.263284
2340.000000	0.264621
2341.000000	0.264810
2342.000000	0.268468
2343.000000	0.268758
2344.000000	0.266974
2345.000000	0.265261
2346.000000	0.260749
2347.000000	0.258976
2348.000000	0.258872
2349.000000	0.255993
2350.000000	0.254704
2351.000000	0.252414
2352.000000	0.248712
2353.000000	0.249400
2354.000000	0.247946
2355.000000	0.248407
2356.000000	0.249795
2357.000000	0.247039
2358.000000	0.247952
2359.000000	0.247933
2360.000000	0.242683
2361.000000	0.238174
2362.000000	0.232714
2363.000000	0.227256
2364.000000	0.225241
2365.000000	0.223567
2366.000000	0.222362
2367.000000	0.222802
2368.000000	0.222936
2369.000000	0.223000
2370.000000	0.219292
2371.000000	0.216195
2372.000000	0.217759
2373.000000	0.219055
2374.000000	0.221649
2375.000000	0.223216
2376.000000	0.222303
2377.000000	0.223528
2378.000000	0.226698
2379.000000	0.227937
2380.000000	0.225303
2381.000000	0.220037
2382.000000	0.213723
2383.000000	0.210107
2384.000000	0.212360
2385.000000	0.214660
2386.000000	0.214848
2387.000000	0.214112
2388.000000	0.208214
2389.000000	0.202662
2390.000000	0.197716
2391.000000	0.194400
2392.000000	0.196767
2393.000000	0.198366
2394.000000	0.200668
2395.000000	0.203482
2396.000000	0.205999
2397.000000	0.204166
2398.000000	0.196268
2399.000000	0.187801
2400.000000	0.182541
2401.000000	0.182718
2402.000000	0.184657
2403.000000	0.187899
2404.000000	0.187743
2405.000000	0.184206
2406.000000	0.185720
2407.000000	0.189805
2408.000000	0.191885
2409.000000	0.192712
2410.000000	0.191329
2411.000000	0.186200
2412.000000	0.181833
2413.000000	0.185126
2414.000000	0.188288
2415.000000	0.196769
2416.000000	0.208554
2417.000000	0.206366
2418.000000	0.201596
2419.000000	0.195721
2420.000000	0.189128
2421.000000	0.192369
2422.000000	0.194346
2423.000000	0.189379
2424.000000	0.188767
2425.000000	0.188968
2426.000000	0.190180
2427.000000	0.199865
2428.000000	0.206423
2429.000000	0.207465
2430.000000	0.209076
2431.000000	0.205073
2432.000000	0.199257
2433.000000	0.198387
2434.000000	0.191659
2435.000000	0.187061
2436.000000	0.192107
2437.000000	0.183903
2438.000000	0.175816
2439.000000	0.173925
2440.000000	0.164357
2441.000000	0.174542
2442.000000	0.194384
2443.000000	0.203828
2444.000000	0.207929
2445.000000	0.202310
2446.000000	0.200120
2447.000000	0.189681
2448.000000	0.189175
2449.000000	0.212370
2450.000000	0.219548
2451.000000	0.236162
2452.000000	0.253843
2453.000000	0.236247
2454.000000	0.218178
2455.000000	0.207867
2456.000000	0.182828
2457.000000	0.176455
2458.000000	0.186806
2459.000000	0.176596
2460.000000	0.181299
2461.000000	0.188875
2462.000000	0.172205
2463.000000	0.182331
2464.000000	0.194509
2465.000000	0.184137
2466.000000	0.198422
2467.000000	0.197338
2468.000000	0.186865
2469.000000	0.199340
2470.000000	0.184171
2471.000000	0.165266
2472.000000	0.150218
2473.000000	0.123756
2474.000000	0.116370
2475.000000	0.113016
2476.000000	0.110595
2477.000000	0.127329
2478.000000	0.128675
2479.000000	0.137215
2480.000000	0.148592
2481.000000	0.122734
2482.000000	0.114976
2483.000000	0.102407
2484.000000	0.090190
2485.000000	0.139165
2486.000000	0.173604
2487.000000	0.208667
2488.000000	0.250107
2489.000000	0.234115
2490.000000	0.219646
2491.000000	0.187651
2492.000000	0.158433
2493.000000	0.115384
2494.000000	0.094480
2495.000000	0.096830
2496.000000	0.082844
2497.000000	0.048121
2498.000000	0.047399
2499.000000	0.063640
2500.000000	0.085672
