# Wavelength	NAu-2-10_HEX-20_FV7-70_00001.asd.rts.txt
350.000000	0.202738
351.000000	0.192096
352.000000	0.175468
353.000000	0.170685
354.000000	0.180478
355.000000	0.174873
356.000000	0.173810
357.000000	0.180571
358.000000	0.184477
359.000000	0.173523
360.000000	0.167602
361.000000	0.185303
362.000000	0.184825
363.000000	0.183226
364.000000	0.190307
365.000000	0.187668
366.000000	0.185517
367.000000	0.186184
368.000000	0.186153
369.000000	0.188890
370.000000	0.190836
371.000000	0.187715
372.000000	0.186212
373.000000	0.187248
374.000000	0.190344
375.000000	0.192225
376.000000	0.191638
377.000000	0.188619
378.000000	0.184200
379.000000	0.186943
380.000000	0.191132
381.000000	0.188866
382.000000	0.191485
383.000000	0.196109
384.000000	0.198610
385.000000	0.194586
386.000000	0.191947
387.000000	0.192737
388.000000	0.192674
389.000000	0.193126
390.000000	0.193901
391.000000	0.194175
392.000000	0.193734
393.000000	0.193838
394.000000	0.195132
395.000000	0.195945
396.000000	0.196202
397.000000	0.196133
398.000000	0.196469
399.000000	0.196456
400.000000	0.196693
401.000000	0.198090
402.000000	0.198625
403.000000	0.198473
404.000000	0.198375
405.000000	0.199041
406.000000	0.199659
407.000000	0.199965
408.000000	0.200577
409.000000	0.200802
410.000000	0.200764
411.000000	0.201003
412.000000	0.200925
413.000000	0.201081
414.000000	0.201990
415.000000	0.202398
416.000000	0.202743
417.000000	0.203252
418.000000	0.203392
419.000000	0.203459
420.000000	0.203672
421.000000	0.204239
422.000000	0.204474
423.000000	0.204418
424.000000	0.204466
425.000000	0.205192
426.000000	0.205684
427.000000	0.205484
428.000000	0.206203
429.000000	0.206519
430.000000	0.206289
431.000000	0.207011
432.000000	0.206880
433.000000	0.206472
434.000000	0.207417
435.000000	0.207820
436.000000	0.207814
437.000000	0.207841
438.000000	0.207893
439.000000	0.208129
440.000000	0.208546
441.000000	0.208479
442.000000	0.208767
443.000000	0.209320
444.000000	0.209539
445.000000	0.210128
446.000000	0.210627
447.000000	0.210372
448.000000	0.211077
449.000000	0.211596
450.000000	0.211280
451.000000	0.211583
452.000000	0.211943
453.000000	0.212203
454.000000	0.212865
455.000000	0.213061
456.000000	0.213056
457.000000	0.213385
458.000000	0.213519
459.000000	0.213652
460.000000	0.214050
461.000000	0.214547
462.000000	0.215022
463.000000	0.215278
464.000000	0.215371
465.000000	0.215400
466.000000	0.215565
467.000000	0.216264
468.000000	0.216661
469.000000	0.216779
470.000000	0.216993
471.000000	0.217183
472.000000	0.217317
473.000000	0.217440
474.000000	0.217733
475.000000	0.217839
476.000000	0.217864
477.000000	0.218118
478.000000	0.218559
479.000000	0.219028
480.000000	0.219036
481.000000	0.219011
482.000000	0.219340
483.000000	0.219959
484.000000	0.220109
485.000000	0.220095
486.000000	0.220298
487.000000	0.220742
488.000000	0.221045
489.000000	0.221199
490.000000	0.221422
491.000000	0.221750
492.000000	0.222118
493.000000	0.222335
494.000000	0.222608
495.000000	0.222910
496.000000	0.223162
497.000000	0.223367
498.000000	0.223458
499.000000	0.223597
500.000000	0.224129
501.000000	0.224330
502.000000	0.224368
503.000000	0.224709
504.000000	0.224918
505.000000	0.225024
506.000000	0.225172
507.000000	0.225601
508.000000	0.225978
509.000000	0.226169
510.000000	0.226637
511.000000	0.226972
512.000000	0.227155
513.000000	0.227410
514.000000	0.227792
515.000000	0.228212
516.000000	0.228489
517.000000	0.228768
518.000000	0.229145
519.000000	0.229562
520.000000	0.229817
521.000000	0.230018
522.000000	0.230265
523.000000	0.230660
524.000000	0.230981
525.000000	0.231291
526.000000	0.231846
527.000000	0.232338
528.000000	0.232697
529.000000	0.232990
530.000000	0.233379
531.000000	0.233824
532.000000	0.234224
533.000000	0.234686
534.000000	0.235207
535.000000	0.235729
536.000000	0.236164
537.000000	0.236680
538.000000	0.237193
539.000000	0.237537
540.000000	0.238059
541.000000	0.238601
542.000000	0.239029
543.000000	0.239503
544.000000	0.239947
545.000000	0.240282
546.000000	0.240643
547.000000	0.241066
548.000000	0.241560
549.000000	0.242028
550.000000	0.242568
551.000000	0.243131
552.000000	0.243598
553.000000	0.244062
554.000000	0.244578
555.000000	0.245163
556.000000	0.245729
557.000000	0.246294
558.000000	0.246946
559.000000	0.247525
560.000000	0.248084
561.000000	0.248703
562.000000	0.249340
563.000000	0.249911
564.000000	0.250469
565.000000	0.250986
566.000000	0.251456
567.000000	0.251904
568.000000	0.252340
569.000000	0.252831
570.000000	0.253288
571.000000	0.253689
572.000000	0.254089
573.000000	0.254469
574.000000	0.254819
575.000000	0.255183
576.000000	0.255583
577.000000	0.255896
578.000000	0.256126
579.000000	0.256528
580.000000	0.256910
581.000000	0.257183
582.000000	0.257429
583.000000	0.257643
584.000000	0.257887
585.000000	0.258256
586.000000	0.258447
587.000000	0.258605
588.000000	0.258917
589.000000	0.259067
590.000000	0.259230
591.000000	0.259486
592.000000	0.259550
593.000000	0.259660
594.000000	0.259851
595.000000	0.259958
596.000000	0.260100
597.000000	0.260281
598.000000	0.260380
599.000000	0.260466
600.000000	0.260574
601.000000	0.260652
602.000000	0.260710
603.000000	0.260758
604.000000	0.260791
605.000000	0.260726
606.000000	0.260710
607.000000	0.260743
608.000000	0.260732
609.000000	0.260754
610.000000	0.260807
611.000000	0.260870
612.000000	0.260901
613.000000	0.260932
614.000000	0.261013
615.000000	0.261110
616.000000	0.261151
617.000000	0.261146
618.000000	0.261300
619.000000	0.261381
620.000000	0.261339
621.000000	0.261259
622.000000	0.261291
623.000000	0.261371
624.000000	0.261411
625.000000	0.261395
626.000000	0.261421
627.000000	0.261530
628.000000	0.261693
629.000000	0.261842
630.000000	0.261879
631.000000	0.261943
632.000000	0.262037
633.000000	0.262140
634.000000	0.262207
635.000000	0.262218
636.000000	0.262224
637.000000	0.262261
638.000000	0.262385
639.000000	0.262529
640.000000	0.262670
641.000000	0.262673
642.000000	0.262849
643.000000	0.263098
644.000000	0.263213
645.000000	0.263318
646.000000	0.263440
647.000000	0.263562
648.000000	0.263670
649.000000	0.263813
650.000000	0.263986
651.000000	0.264176
652.000000	0.264325
653.000000	0.264486
654.000000	0.264691
655.000000	0.264875
656.000000	0.265054
657.000000	0.265203
658.000000	0.265331
659.000000	0.265509
660.000000	0.265750
661.000000	0.266003
662.000000	0.266262
663.000000	0.266563
664.000000	0.266875
665.000000	0.267158
666.000000	0.267417
667.000000	0.267654
668.000000	0.267988
669.000000	0.268314
670.000000	0.268593
671.000000	0.268928
672.000000	0.269246
673.000000	0.269510
674.000000	0.269727
675.000000	0.269958
676.000000	0.270269
677.000000	0.270697
678.000000	0.270981
679.000000	0.271212
680.000000	0.271491
681.000000	0.271802
682.000000	0.272171
683.000000	0.272518
684.000000	0.272861
685.000000	0.273204
686.000000	0.273607
687.000000	0.274075
688.000000	0.274406
689.000000	0.274716
690.000000	0.275141
691.000000	0.275635
692.000000	0.276010
693.000000	0.276306
694.000000	0.276664
695.000000	0.277073
696.000000	0.277536
697.000000	0.278044
698.000000	0.278467
699.000000	0.278866
700.000000	0.279303
701.000000	0.279694
702.000000	0.280085
703.000000	0.280502
704.000000	0.280998
705.000000	0.281480
706.000000	0.281912
707.000000	0.282369
708.000000	0.282805
709.000000	0.283279
710.000000	0.283837
711.000000	0.284318
712.000000	0.284758
713.000000	0.285193
714.000000	0.285602
715.000000	0.286012
716.000000	0.286441
717.000000	0.286874
718.000000	0.287346
719.000000	0.287807
720.000000	0.288241
721.000000	0.288761
722.000000	0.289191
723.000000	0.289555
724.000000	0.289990
725.000000	0.290356
726.000000	0.290737
727.000000	0.291144
728.000000	0.291509
729.000000	0.291891
730.000000	0.292285
731.000000	0.292644
732.000000	0.292988
733.000000	0.293362
734.000000	0.293747
735.000000	0.294078
736.000000	0.294442
737.000000	0.294741
738.000000	0.294935
739.000000	0.295220
740.000000	0.295564
741.000000	0.295916
742.000000	0.296257
743.000000	0.296562
744.000000	0.296874
745.000000	0.297103
746.000000	0.297336
747.000000	0.297611
748.000000	0.297891
749.000000	0.298175
750.000000	0.298450
751.000000	0.298811
752.000000	0.299116
753.000000	0.299338
754.000000	0.299524
755.000000	0.299758
756.000000	0.299982
757.000000	0.300088
758.000000	0.300271
759.000000	0.300511
760.000000	0.300709
761.000000	0.300895
762.000000	0.301129
763.000000	0.301347
764.000000	0.301486
765.000000	0.301602
766.000000	0.301724
767.000000	0.301850
768.000000	0.301913
769.000000	0.301967
770.000000	0.302068
771.000000	0.302269
772.000000	0.302464
773.000000	0.302584
774.000000	0.302709
775.000000	0.302798
776.000000	0.302889
777.000000	0.302996
778.000000	0.303103
779.000000	0.303182
780.000000	0.303256
781.000000	0.303382
782.000000	0.303492
783.000000	0.303656
784.000000	0.303784
785.000000	0.303857
786.000000	0.303947
787.000000	0.304052
788.000000	0.304028
789.000000	0.304034
790.000000	0.304062
791.000000	0.304075
792.000000	0.304137
793.000000	0.304238
794.000000	0.304344
795.000000	0.304339
796.000000	0.304303
797.000000	0.304307
798.000000	0.304432
799.000000	0.304524
800.000000	0.304577
801.000000	0.304621
802.000000	0.304589
803.000000	0.304588
804.000000	0.304673
805.000000	0.304632
806.000000	0.304609
807.000000	0.304679
808.000000	0.304730
809.000000	0.304655
810.000000	0.304585
811.000000	0.304617
812.000000	0.304700
813.000000	0.304667
814.000000	0.304546
815.000000	0.304554
816.000000	0.304569
817.000000	0.304646
818.000000	0.304756
819.000000	0.304821
820.000000	0.304856
821.000000	0.304837
822.000000	0.304830
823.000000	0.304734
824.000000	0.304571
825.000000	0.304519
826.000000	0.304520
827.000000	0.304475
828.000000	0.304370
829.000000	0.304211
830.000000	0.304088
831.000000	0.304061
832.000000	0.304008
833.000000	0.304065
834.000000	0.304122
835.000000	0.304112
836.000000	0.304067
837.000000	0.304000
838.000000	0.303985
839.000000	0.304089
840.000000	0.303938
841.000000	0.303724
842.000000	0.303637
843.000000	0.303535
844.000000	0.303463
845.000000	0.303434
846.000000	0.303498
847.000000	0.303435
848.000000	0.303317
849.000000	0.303292
850.000000	0.303182
851.000000	0.303067
852.000000	0.303006
853.000000	0.302903
854.000000	0.302720
855.000000	0.302621
856.000000	0.302614
857.000000	0.302542
858.000000	0.302467
859.000000	0.302386
860.000000	0.302418
861.000000	0.302392
862.000000	0.302304
863.000000	0.302143
864.000000	0.302055
865.000000	0.301965
866.000000	0.301878
867.000000	0.301913
868.000000	0.301835
869.000000	0.301614
870.000000	0.301420
871.000000	0.301217
872.000000	0.301034
873.000000	0.300830
874.000000	0.300627
875.000000	0.300401
876.000000	0.300263
877.000000	0.300271
878.000000	0.300184
879.000000	0.300065
880.000000	0.299859
881.000000	0.299705
882.000000	0.299533
883.000000	0.299336
884.000000	0.299082
885.000000	0.298906
886.000000	0.298638
887.000000	0.298296
888.000000	0.298220
889.000000	0.298106
890.000000	0.297804
891.000000	0.297487
892.000000	0.297386
893.000000	0.297377
894.000000	0.297397
895.000000	0.297150
896.000000	0.296822
897.000000	0.296555
898.000000	0.296431
899.000000	0.296197
900.000000	0.296054
901.000000	0.295982
902.000000	0.295748
903.000000	0.295611
904.000000	0.295530
905.000000	0.295319
906.000000	0.295178
907.000000	0.294976
908.000000	0.294757
909.000000	0.294591
910.000000	0.294362
911.000000	0.294149
912.000000	0.294023
913.000000	0.293789
914.000000	0.293535
915.000000	0.293333
916.000000	0.293068
917.000000	0.292645
918.000000	0.292342
919.000000	0.292281
920.000000	0.292120
921.000000	0.291833
922.000000	0.291511
923.000000	0.291277
924.000000	0.290998
925.000000	0.290755
926.000000	0.290595
927.000000	0.290357
928.000000	0.290191
929.000000	0.289922
930.000000	0.289405
931.000000	0.289179
932.000000	0.289127
933.000000	0.289044
934.000000	0.288590
935.000000	0.288221
936.000000	0.287949
937.000000	0.287633
938.000000	0.287449
939.000000	0.287343
940.000000	0.287164
941.000000	0.286891
942.000000	0.286726
943.000000	0.286583
944.000000	0.286324
945.000000	0.286216
946.000000	0.285926
947.000000	0.285632
948.000000	0.285518
949.000000	0.285288
950.000000	0.285043
951.000000	0.284732
952.000000	0.284288
953.000000	0.284030
954.000000	0.283882
955.000000	0.283667
956.000000	0.283462
957.000000	0.283210
958.000000	0.282886
959.000000	0.282621
960.000000	0.282562
961.000000	0.282502
962.000000	0.282306
963.000000	0.282021
964.000000	0.281820
965.000000	0.281579
966.000000	0.281153
967.000000	0.281076
968.000000	0.280871
969.000000	0.280439
970.000000	0.280040
971.000000	0.279953
972.000000	0.280019
973.000000	0.279932
974.000000	0.279467
975.000000	0.279217
976.000000	0.279081
977.000000	0.278841
978.000000	0.278411
979.000000	0.278332
980.000000	0.278188
981.000000	0.277726
982.000000	0.277598
983.000000	0.277268
984.000000	0.276847
985.000000	0.277017
986.000000	0.277207
987.000000	0.277095
988.000000	0.276550
989.000000	0.276090
990.000000	0.275973
991.000000	0.275962
992.000000	0.275799
993.000000	0.275908
994.000000	0.276084
995.000000	0.276174
996.000000	0.275769
997.000000	0.275226
998.000000	0.274792
999.000000	0.274685
1000.000000	0.274859
1001.000000	0.275591
1002.000000	0.274488
1003.000000	0.274258
1004.000000	0.273900
1005.000000	0.272666
1006.000000	0.272316
1007.000000	0.272895
1008.000000	0.272966
1009.000000	0.272947
1010.000000	0.273112
1011.000000	0.273155
1012.000000	0.273194
1013.000000	0.272664
1014.000000	0.272805
1015.000000	0.273028
1016.000000	0.272791
1017.000000	0.272927
1018.000000	0.272650
1019.000000	0.272656
1020.000000	0.273147
1021.000000	0.272880
1022.000000	0.272547
1023.000000	0.272513
1024.000000	0.272085
1025.000000	0.271718
1026.000000	0.271779
1027.000000	0.271368
1028.000000	0.271714
1029.000000	0.272142
1030.000000	0.271787
1031.000000	0.271933
1032.000000	0.272042
1033.000000	0.271705
1034.000000	0.271893
1035.000000	0.273002
1036.000000	0.273379
1037.000000	0.273701
1038.000000	0.273594
1039.000000	0.273164
1040.000000	0.272654
1041.000000	0.272385
1042.000000	0.272307
1043.000000	0.272676
1044.000000	0.273007
1045.000000	0.273233
1046.000000	0.273585
1047.000000	0.273777
1048.000000	0.274059
1049.000000	0.273971
1050.000000	0.273317
1051.000000	0.273245
1052.000000	0.273177
1053.000000	0.273210
1054.000000	0.274089
1055.000000	0.274372
1056.000000	0.274249
1057.000000	0.274205
1058.000000	0.274588
1059.000000	0.274584
1060.000000	0.274978
1061.000000	0.275737
1062.000000	0.275848
1063.000000	0.275658
1064.000000	0.275631
1065.000000	0.275309
1066.000000	0.275361
1067.000000	0.275432
1068.000000	0.275832
1069.000000	0.276781
1070.000000	0.277141
1071.000000	0.277614
1072.000000	0.277860
1073.000000	0.277732
1074.000000	0.277428
1075.000000	0.277536
1076.000000	0.278075
1077.000000	0.278610
1078.000000	0.278769
1079.000000	0.278867
1080.000000	0.278730
1081.000000	0.278665
1082.000000	0.278527
1083.000000	0.278668
1084.000000	0.278953
1085.000000	0.279234
1086.000000	0.279625
1087.000000	0.280060
1088.000000	0.280571
1089.000000	0.280857
1090.000000	0.281186
1091.000000	0.281271
1092.000000	0.280986
1093.000000	0.281074
1094.000000	0.281268
1095.000000	0.281513
1096.000000	0.281887
1097.000000	0.282587
1098.000000	0.282948
1099.000000	0.283194
1100.000000	0.283413
1101.000000	0.283506
1102.000000	0.283541
1103.000000	0.283464
1104.000000	0.283451
1105.000000	0.283175
1106.000000	0.283209
1107.000000	0.283491
1108.000000	0.283665
1109.000000	0.283952
1110.000000	0.284299
1111.000000	0.284575
1112.000000	0.284683
1113.000000	0.285093
1114.000000	0.285822
1115.000000	0.286094
1116.000000	0.286305
1117.000000	0.286470
1118.000000	0.286342
1119.000000	0.286260
1120.000000	0.286184
1121.000000	0.286196
1122.000000	0.286124
1123.000000	0.286398
1124.000000	0.286745
1125.000000	0.287129
1126.000000	0.287773
1127.000000	0.288063
1128.000000	0.288210
1129.000000	0.288312
1130.000000	0.288327
1131.000000	0.288048
1132.000000	0.287975
1133.000000	0.287914
1134.000000	0.288084
1135.000000	0.288361
1136.000000	0.288584
1137.000000	0.289047
1138.000000	0.289230
1139.000000	0.289301
1140.000000	0.289431
1141.000000	0.289422
1142.000000	0.289491
1143.000000	0.289529
1144.000000	0.289673
1145.000000	0.289779
1146.000000	0.289707
1147.000000	0.289797
1148.000000	0.289821
1149.000000	0.289944
1150.000000	0.290214
1151.000000	0.290367
1152.000000	0.290460
1153.000000	0.290553
1154.000000	0.290531
1155.000000	0.290582
1156.000000	0.290649
1157.000000	0.290764
1158.000000	0.291005
1159.000000	0.291034
1160.000000	0.290901
1161.000000	0.290856
1162.000000	0.290687
1163.000000	0.290789
1164.000000	0.290880
1165.000000	0.291055
1166.000000	0.291207
1167.000000	0.291360
1168.000000	0.291347
1169.000000	0.291300
1170.000000	0.291303
1171.000000	0.291209
1172.000000	0.291284
1173.000000	0.291500
1174.000000	0.291592
1175.000000	0.291696
1176.000000	0.291656
1177.000000	0.291536
1178.000000	0.291491
1179.000000	0.291403
1180.000000	0.291271
1181.000000	0.291185
1182.000000	0.291155
1183.000000	0.291229
1184.000000	0.291446
1185.000000	0.291520
1186.000000	0.291714
1187.000000	0.291716
1188.000000	0.291499
1189.000000	0.291404
1190.000000	0.291328
1191.000000	0.291345
1192.000000	0.291513
1193.000000	0.291689
1194.000000	0.291884
1195.000000	0.291977
1196.000000	0.291940
1197.000000	0.291949
1198.000000	0.291910
1199.000000	0.291960
1200.000000	0.292133
1201.000000	0.292123
1202.000000	0.292204
1203.000000	0.292251
1204.000000	0.292043
1205.000000	0.292001
1206.000000	0.291906
1207.000000	0.291792
1208.000000	0.291754
1209.000000	0.291856
1210.000000	0.291902
1211.000000	0.292010
1212.000000	0.292048
1213.000000	0.292119
1214.000000	0.292107
1215.000000	0.291928
1216.000000	0.291901
1217.000000	0.291872
1218.000000	0.291841
1219.000000	0.291879
1220.000000	0.292029
1221.000000	0.292079
1222.000000	0.292158
1223.000000	0.292306
1224.000000	0.292261
1225.000000	0.292073
1226.000000	0.292062
1227.000000	0.292009
1228.000000	0.291981
1229.000000	0.292006
1230.000000	0.292107
1231.000000	0.292080
1232.000000	0.292201
1233.000000	0.292287
1234.000000	0.292299
1235.000000	0.292250
1236.000000	0.292022
1237.000000	0.291945
1238.000000	0.291754
1239.000000	0.291701
1240.000000	0.291770
1241.000000	0.291971
1242.000000	0.292026
1243.000000	0.292157
1244.000000	0.292106
1245.000000	0.291972
1246.000000	0.291961
1247.000000	0.292024
1248.000000	0.292186
1249.000000	0.292334
1250.000000	0.292298
1251.000000	0.292164
1252.000000	0.292110
1253.000000	0.292079
1254.000000	0.292019
1255.000000	0.292015
1256.000000	0.291972
1257.000000	0.291812
1258.000000	0.291827
1259.000000	0.291853
1260.000000	0.291941
1261.000000	0.292189
1262.000000	0.292259
1263.000000	0.292260
1264.000000	0.292243
1265.000000	0.292204
1266.000000	0.292254
1267.000000	0.292389
1268.000000	0.292327
1269.000000	0.292224
1270.000000	0.292159
1271.000000	0.292059
1272.000000	0.292143
1273.000000	0.292221
1274.000000	0.292158
1275.000000	0.292159
1276.000000	0.292190
1277.000000	0.292270
1278.000000	0.292348
1279.000000	0.292342
1280.000000	0.292190
1281.000000	0.292125
1282.000000	0.292099
1283.000000	0.292141
1284.000000	0.292263
1285.000000	0.292321
1286.000000	0.292338
1287.000000	0.292280
1288.000000	0.292298
1289.000000	0.292261
1290.000000	0.292231
1291.000000	0.292343
1292.000000	0.292482
1293.000000	0.292487
1294.000000	0.292430
1295.000000	0.292339
1296.000000	0.292135
1297.000000	0.291988
1298.000000	0.291907
1299.000000	0.291866
1300.000000	0.292001
1301.000000	0.292155
1302.000000	0.292140
1303.000000	0.292197
1304.000000	0.292126
1305.000000	0.291916
1306.000000	0.291801
1307.000000	0.291731
1308.000000	0.291724
1309.000000	0.291827
1310.000000	0.291824
1311.000000	0.291832
1312.000000	0.291808
1313.000000	0.291714
1314.000000	0.291469
1315.000000	0.291351
1316.000000	0.291404
1317.000000	0.291479
1318.000000	0.291641
1319.000000	0.291778
1320.000000	0.291857
1321.000000	0.291903
1322.000000	0.291869
1323.000000	0.291750
1324.000000	0.291817
1325.000000	0.291890
1326.000000	0.291806
1327.000000	0.291760
1328.000000	0.291655
1329.000000	0.291501
1330.000000	0.291185
1331.000000	0.291140
1332.000000	0.291324
1333.000000	0.291313
1334.000000	0.291437
1335.000000	0.291399
1336.000000	0.291083
1337.000000	0.290995
1338.000000	0.290897
1339.000000	0.290847
1340.000000	0.290930
1341.000000	0.291061
1342.000000	0.291102
1343.000000	0.291094
1344.000000	0.291085
1345.000000	0.291039
1346.000000	0.290976
1347.000000	0.290818
1348.000000	0.290926
1349.000000	0.290994
1350.000000	0.290921
1351.000000	0.291033
1352.000000	0.291135
1353.000000	0.291096
1354.000000	0.291231
1355.000000	0.291281
1356.000000	0.291157
1357.000000	0.291160
1358.000000	0.291096
1359.000000	0.290942
1360.000000	0.290810
1361.000000	0.290595
1362.000000	0.290475
1363.000000	0.290441
1364.000000	0.290382
1365.000000	0.290340
1366.000000	0.290284
1367.000000	0.290168
1368.000000	0.290072
1369.000000	0.290194
1370.000000	0.290257
1371.000000	0.290201
1372.000000	0.290162
1373.000000	0.290031
1374.000000	0.290013
1375.000000	0.290061
1376.000000	0.290093
1377.000000	0.290173
1378.000000	0.289992
1379.000000	0.289759
1380.000000	0.289775
1381.000000	0.289714
1382.000000	0.289668
1383.000000	0.289739
1384.000000	0.289477
1385.000000	0.289194
1386.000000	0.289188
1387.000000	0.289019
1388.000000	0.288830
1389.000000	0.288658
1390.000000	0.288316
1391.000000	0.287939
1392.000000	0.287691
1393.000000	0.287445
1394.000000	0.287233
1395.000000	0.287066
1396.000000	0.287034
1397.000000	0.286754
1398.000000	0.286303
1399.000000	0.286010
1400.000000	0.285666
1401.000000	0.285302
1402.000000	0.285075
1403.000000	0.284733
1404.000000	0.284341
1405.000000	0.283979
1406.000000	0.283697
1407.000000	0.283424
1408.000000	0.283141
1409.000000	0.283024
1410.000000	0.282966
1411.000000	0.282937
1412.000000	0.282770
1413.000000	0.282479
1414.000000	0.282218
1415.000000	0.281958
1416.000000	0.281803
1417.000000	0.281726
1418.000000	0.281601
1419.000000	0.281519
1420.000000	0.281328
1421.000000	0.281160
1422.000000	0.280943
1423.000000	0.280774
1424.000000	0.280570
1425.000000	0.280394
1426.000000	0.280296
1427.000000	0.280158
1428.000000	0.280038
1429.000000	0.279874
1430.000000	0.279639
1431.000000	0.279457
1432.000000	0.279218
1433.000000	0.278964
1434.000000	0.278749
1435.000000	0.278569
1436.000000	0.278423
1437.000000	0.278309
1438.000000	0.278190
1439.000000	0.278138
1440.000000	0.278102
1441.000000	0.278132
1442.000000	0.278153
1443.000000	0.278147
1444.000000	0.278075
1445.000000	0.278047
1446.000000	0.278083
1447.000000	0.278184
1448.000000	0.278367
1449.000000	0.278500
1450.000000	0.278528
1451.000000	0.278547
1452.000000	0.278504
1453.000000	0.278498
1454.000000	0.278631
1455.000000	0.278634
1456.000000	0.278584
1457.000000	0.278664
1458.000000	0.278515
1459.000000	0.278243
1460.000000	0.278203
1461.000000	0.278159
1462.000000	0.278089
1463.000000	0.278109
1464.000000	0.278038
1465.000000	0.277841
1466.000000	0.277660
1467.000000	0.277657
1468.000000	0.277747
1469.000000	0.277817
1470.000000	0.277757
1471.000000	0.277674
1472.000000	0.277582
1473.000000	0.277579
1474.000000	0.277717
1475.000000	0.277892
1476.000000	0.277956
1477.000000	0.278054
1478.000000	0.278216
1479.000000	0.278223
1480.000000	0.278388
1481.000000	0.278587
1482.000000	0.278906
1483.000000	0.279053
1484.000000	0.279195
1485.000000	0.279283
1486.000000	0.279253
1487.000000	0.279297
1488.000000	0.279370
1489.000000	0.279488
1490.000000	0.279524
1491.000000	0.279558
1492.000000	0.279593
1493.000000	0.279694
1494.000000	0.279674
1495.000000	0.279749
1496.000000	0.280034
1497.000000	0.280081
1498.000000	0.279988
1499.000000	0.280075
1500.000000	0.280191
1501.000000	0.280268
1502.000000	0.280522
1503.000000	0.280689
1504.000000	0.280614
1505.000000	0.280613
1506.000000	0.280695
1507.000000	0.280692
1508.000000	0.280757
1509.000000	0.280835
1510.000000	0.280760
1511.000000	0.280860
1512.000000	0.280984
1513.000000	0.280907
1514.000000	0.280976
1515.000000	0.281050
1516.000000	0.281077
1517.000000	0.281217
1518.000000	0.281248
1519.000000	0.281021
1520.000000	0.280888
1521.000000	0.280810
1522.000000	0.280811
1523.000000	0.280972
1524.000000	0.281123
1525.000000	0.281239
1526.000000	0.281253
1527.000000	0.281283
1528.000000	0.281329
1529.000000	0.281232
1530.000000	0.281142
1531.000000	0.281212
1532.000000	0.281311
1533.000000	0.281523
1534.000000	0.281767
1535.000000	0.281861
1536.000000	0.281785
1537.000000	0.281732
1538.000000	0.281686
1539.000000	0.281620
1540.000000	0.281726
1541.000000	0.281854
1542.000000	0.281904
1543.000000	0.281936
1544.000000	0.281866
1545.000000	0.281783
1546.000000	0.281792
1547.000000	0.281876
1548.000000	0.282065
1549.000000	0.282230
1550.000000	0.282199
1551.000000	0.282192
1552.000000	0.282139
1553.000000	0.281984
1554.000000	0.282009
1555.000000	0.282083
1556.000000	0.282165
1557.000000	0.282221
1558.000000	0.282263
1559.000000	0.282247
1560.000000	0.282233
1561.000000	0.282177
1562.000000	0.282196
1563.000000	0.282305
1564.000000	0.282301
1565.000000	0.282337
1566.000000	0.282271
1567.000000	0.282139
1568.000000	0.282056
1569.000000	0.282062
1570.000000	0.281991
1571.000000	0.281817
1572.000000	0.281835
1573.000000	0.281950
1574.000000	0.281903
1575.000000	0.281966
1576.000000	0.281898
1577.000000	0.281592
1578.000000	0.281469
1579.000000	0.281440
1580.000000	0.281419
1581.000000	0.281532
1582.000000	0.281546
1583.000000	0.281530
1584.000000	0.281537
1585.000000	0.281560
1586.000000	0.281622
1587.000000	0.281790
1588.000000	0.281844
1589.000000	0.281842
1590.000000	0.281871
1591.000000	0.281865
1592.000000	0.281916
1593.000000	0.282091
1594.000000	0.282122
1595.000000	0.282160
1596.000000	0.282181
1597.000000	0.282118
1598.000000	0.282121
1599.000000	0.282222
1600.000000	0.282144
1601.000000	0.282061
1602.000000	0.281968
1603.000000	0.281789
1604.000000	0.281690
1605.000000	0.281681
1606.000000	0.281565
1607.000000	0.281424
1608.000000	0.281362
1609.000000	0.281338
1610.000000	0.281331
1611.000000	0.281450
1612.000000	0.281450
1613.000000	0.281425
1614.000000	0.281481
1615.000000	0.281641
1616.000000	0.281715
1617.000000	0.281813
1618.000000	0.281796
1619.000000	0.281561
1620.000000	0.281543
1621.000000	0.281603
1622.000000	0.281688
1623.000000	0.281872
1624.000000	0.281960
1625.000000	0.281929
1626.000000	0.281882
1627.000000	0.281744
1628.000000	0.281765
1629.000000	0.281784
1630.000000	0.281907
1631.000000	0.282198
1632.000000	0.282299
1633.000000	0.282371
1634.000000	0.282424
1635.000000	0.282405
1636.000000	0.282413
1637.000000	0.282449
1638.000000	0.282435
1639.000000	0.282449
1640.000000	0.282427
1641.000000	0.282447
1642.000000	0.282426
1643.000000	0.282365
1644.000000	0.282333
1645.000000	0.282290
1646.000000	0.282281
1647.000000	0.282372
1648.000000	0.282329
1649.000000	0.282305
1650.000000	0.282305
1651.000000	0.282237
1652.000000	0.282333
1653.000000	0.282526
1654.000000	0.282650
1655.000000	0.282811
1656.000000	0.282751
1657.000000	0.282581
1658.000000	0.282563
1659.000000	0.282592
1660.000000	0.282639
1661.000000	0.282741
1662.000000	0.282764
1663.000000	0.282675
1664.000000	0.282687
1665.000000	0.282749
1666.000000	0.282841
1667.000000	0.282898
1668.000000	0.282917
1669.000000	0.282934
1670.000000	0.282809
1671.000000	0.282677
1672.000000	0.282654
1673.000000	0.282519
1674.000000	0.282734
1675.000000	0.282903
1676.000000	0.282912
1677.000000	0.282988
1678.000000	0.282930
1679.000000	0.282880
1680.000000	0.282920
1681.000000	0.282986
1682.000000	0.283229
1683.000000	0.283448
1684.000000	0.283464
1685.000000	0.283536
1686.000000	0.283403
1687.000000	0.283287
1688.000000	0.283420
1689.000000	0.283503
1690.000000	0.283590
1691.000000	0.283656
1692.000000	0.283637
1693.000000	0.283690
1694.000000	0.283618
1695.000000	0.283530
1696.000000	0.283422
1697.000000	0.283337
1698.000000	0.283408
1699.000000	0.283474
1700.000000	0.283572
1701.000000	0.283667
1702.000000	0.283600
1703.000000	0.283522
1704.000000	0.283436
1705.000000	0.283407
1706.000000	0.283518
1707.000000	0.283518
1708.000000	0.283504
1709.000000	0.283359
1710.000000	0.283064
1711.000000	0.282955
1712.000000	0.282858
1713.000000	0.282863
1714.000000	0.283138
1715.000000	0.283251
1716.000000	0.283390
1717.000000	0.283418
1718.000000	0.283293
1719.000000	0.283205
1720.000000	0.283071
1721.000000	0.283039
1722.000000	0.283065
1723.000000	0.283092
1724.000000	0.283269
1725.000000	0.283294
1726.000000	0.283080
1727.000000	0.283110
1728.000000	0.283131
1729.000000	0.283127
1730.000000	0.283416
1731.000000	0.283517
1732.000000	0.283519
1733.000000	0.283539
1734.000000	0.283385
1735.000000	0.283375
1736.000000	0.283331
1737.000000	0.283339
1738.000000	0.283496
1739.000000	0.283529
1740.000000	0.283464
1741.000000	0.283476
1742.000000	0.283499
1743.000000	0.283598
1744.000000	0.283728
1745.000000	0.283843
1746.000000	0.284008
1747.000000	0.284040
1748.000000	0.284016
1749.000000	0.283877
1750.000000	0.283766
1751.000000	0.283763
1752.000000	0.283834
1753.000000	0.283836
1754.000000	0.283847
1755.000000	0.283834
1756.000000	0.283826
1757.000000	0.283841
1758.000000	0.283836
1759.000000	0.283773
1760.000000	0.283783
1761.000000	0.283818
1762.000000	0.283781
1763.000000	0.283762
1764.000000	0.283753
1765.000000	0.283633
1766.000000	0.283593
1767.000000	0.283573
1768.000000	0.283515
1769.000000	0.283521
1770.000000	0.283543
1771.000000	0.283566
1772.000000	0.283533
1773.000000	0.283413
1774.000000	0.283358
1775.000000	0.283325
1776.000000	0.283334
1777.000000	0.283383
1778.000000	0.283380
1779.000000	0.283405
1780.000000	0.283311
1781.000000	0.283070
1782.000000	0.282987
1783.000000	0.282952
1784.000000	0.282868
1785.000000	0.282746
1786.000000	0.282532
1787.000000	0.282514
1788.000000	0.282474
1789.000000	0.282390
1790.000000	0.282510
1791.000000	0.282490
1792.000000	0.282673
1793.000000	0.282722
1794.000000	0.282459
1795.000000	0.282444
1796.000000	0.282559
1797.000000	0.282639
1798.000000	0.282863
1799.000000	0.282982
1800.000000	0.283006
1801.000000	0.282719
1802.000000	0.282977
1803.000000	0.283155
1804.000000	0.282850
1805.000000	0.282005
1806.000000	0.281588
1807.000000	0.280392
1808.000000	0.280273
1809.000000	0.280978
1810.000000	0.281893
1811.000000	0.282411
1812.000000	0.283624
1813.000000	0.283638
1814.000000	0.282745
1815.000000	0.282345
1816.000000	0.281230
1817.000000	0.280751
1818.000000	0.280505
1819.000000	0.280995
1820.000000	0.281345
1821.000000	0.281665
1822.000000	0.282204
1823.000000	0.283102
1824.000000	0.283332
1825.000000	0.283406
1826.000000	0.283516
1827.000000	0.283254
1828.000000	0.282624
1829.000000	0.282488
1830.000000	0.282775
1831.000000	0.282742
1832.000000	0.282371
1833.000000	0.282449
1834.000000	0.283030
1835.000000	0.283119
1836.000000	0.283264
1837.000000	0.283189
1838.000000	0.282994
1839.000000	0.281816
1840.000000	0.280590
1841.000000	0.279811
1842.000000	0.279561
1843.000000	0.279649
1844.000000	0.279776
1845.000000	0.280669
1846.000000	0.281005
1847.000000	0.281033
1848.000000	0.280758
1849.000000	0.280438
1850.000000	0.279996
1851.000000	0.280118
1852.000000	0.280652
1853.000000	0.280595
1854.000000	0.280642
1855.000000	0.280438
1856.000000	0.279586
1857.000000	0.278841
1858.000000	0.278594
1859.000000	0.278167
1860.000000	0.278432
1861.000000	0.278753
1862.000000	0.278864
1863.000000	0.279426
1864.000000	0.279370
1865.000000	0.278672
1866.000000	0.278412
1867.000000	0.278044
1868.000000	0.277832
1869.000000	0.277628
1870.000000	0.277287
1871.000000	0.276735
1872.000000	0.276070
1873.000000	0.275630
1874.000000	0.275343
1875.000000	0.274999
1876.000000	0.274663
1877.000000	0.273713
1878.000000	0.272889
1879.000000	0.272268
1880.000000	0.271119
1881.000000	0.270318
1882.000000	0.269543
1883.000000	0.267820
1884.000000	0.266796
1885.000000	0.265914
1886.000000	0.265000
1887.000000	0.264114
1888.000000	0.263731
1889.000000	0.262581
1890.000000	0.261643
1891.000000	0.261069
1892.000000	0.259764
1893.000000	0.258608
1894.000000	0.257372
1895.000000	0.256067
1896.000000	0.254629
1897.000000	0.253292
1898.000000	0.252036
1899.000000	0.251217
1900.000000	0.250271
1901.000000	0.249417
1902.000000	0.248473
1903.000000	0.247501
1904.000000	0.246421
1905.000000	0.245286
1906.000000	0.244213
1907.000000	0.243412
1908.000000	0.242238
1909.000000	0.241011
1910.000000	0.240466
1911.000000	0.240300
1912.000000	0.239992
1913.000000	0.239620
1914.000000	0.238950
1915.000000	0.238105
1916.000000	0.237773
1917.000000	0.237187
1918.000000	0.236894
1919.000000	0.236452
1920.000000	0.235825
1921.000000	0.234956
1922.000000	0.234385
1923.000000	0.234257
1924.000000	0.234575
1925.000000	0.235041
1926.000000	0.235455
1927.000000	0.236220
1928.000000	0.236620
1929.000000	0.236796
1930.000000	0.236772
1931.000000	0.236847
1932.000000	0.236642
1933.000000	0.236536
1934.000000	0.236550
1935.000000	0.236791
1936.000000	0.236746
1937.000000	0.236323
1938.000000	0.236228
1939.000000	0.236203
1940.000000	0.236013
1941.000000	0.236397
1942.000000	0.237270
1943.000000	0.237664
1944.000000	0.237721
1945.000000	0.237527
1946.000000	0.237393
1947.000000	0.236810
1948.000000	0.236812
1949.000000	0.237439
1950.000000	0.237491
1951.000000	0.237498
1952.000000	0.237809
1953.000000	0.237619
1954.000000	0.237097
1955.000000	0.236939
1956.000000	0.236731
1957.000000	0.236621
1958.000000	0.236236
1959.000000	0.236018
1960.000000	0.236076
1961.000000	0.235717
1962.000000	0.235510
1963.000000	0.235535
1964.000000	0.235568
1965.000000	0.235103
1966.000000	0.235005
1967.000000	0.234917
1968.000000	0.234661
1969.000000	0.234883
1970.000000	0.234789
1971.000000	0.234916
1972.000000	0.235310
1973.000000	0.235208
1974.000000	0.234909
1975.000000	0.234893
1976.000000	0.234781
1977.000000	0.234559
1978.000000	0.234816
1979.000000	0.234757
1980.000000	0.235042
1981.000000	0.235322
1982.000000	0.235359
1983.000000	0.235233
1984.000000	0.234982
1985.000000	0.234344
1986.000000	0.234124
1987.000000	0.233901
1988.000000	0.234171
1989.000000	0.234524
1990.000000	0.234606
1991.000000	0.235158
1992.000000	0.235875
1993.000000	0.236435
1994.000000	0.237172
1995.000000	0.237102
1996.000000	0.236419
1997.000000	0.236320
1998.000000	0.236241
1999.000000	0.236429
2000.000000	0.236876
2001.000000	0.237744
2002.000000	0.238632
2003.000000	0.239579
2004.000000	0.240352
2005.000000	0.241171
2006.000000	0.242148
2007.000000	0.242804
2008.000000	0.243052
2009.000000	0.242830
2010.000000	0.243169
2011.000000	0.243228
2012.000000	0.243189
2013.000000	0.243589
2014.000000	0.243640
2015.000000	0.242652
2016.000000	0.242166
2017.000000	0.242115
2018.000000	0.242589
2019.000000	0.243248
2020.000000	0.243707
2021.000000	0.244136
2022.000000	0.244236
2023.000000	0.244516
2024.000000	0.245193
2025.000000	0.245510
2026.000000	0.245462
2027.000000	0.245485
2028.000000	0.245737
2029.000000	0.246012
2030.000000	0.246686
2031.000000	0.247764
2032.000000	0.248613
2033.000000	0.248975
2034.000000	0.249248
2035.000000	0.249366
2036.000000	0.249205
2037.000000	0.248870
2038.000000	0.248755
2039.000000	0.248395
2040.000000	0.248395
2041.000000	0.249018
2042.000000	0.249538
2043.000000	0.250448
2044.000000	0.251514
2045.000000	0.252231
2046.000000	0.252447
2047.000000	0.252606
2048.000000	0.252312
2049.000000	0.252421
2050.000000	0.251994
2051.000000	0.252141
2052.000000	0.252767
2053.000000	0.252871
2054.000000	0.253087
2055.000000	0.253670
2056.000000	0.253393
2057.000000	0.253625
2058.000000	0.254138
2059.000000	0.253989
2060.000000	0.254039
2061.000000	0.254184
2062.000000	0.253974
2063.000000	0.253575
2064.000000	0.253377
2065.000000	0.252973
2066.000000	0.253210
2067.000000	0.254101
2068.000000	0.254977
2069.000000	0.256598
2070.000000	0.257354
2071.000000	0.257227
2072.000000	0.256959
2073.000000	0.256256
2074.000000	0.256012
2075.000000	0.255935
2076.000000	0.256357
2077.000000	0.256498
2078.000000	0.256548
2079.000000	0.256597
2080.000000	0.256688
2081.000000	0.256922
2082.000000	0.257193
2083.000000	0.257604
2084.000000	0.258194
2085.000000	0.258333
2086.000000	0.258125
2087.000000	0.257965
2088.000000	0.257264
2089.000000	0.256644
2090.000000	0.256635
2091.000000	0.257064
2092.000000	0.257260
2093.000000	0.258013
2094.000000	0.258532
2095.000000	0.258818
2096.000000	0.259169
2097.000000	0.259704
2098.000000	0.259865
2099.000000	0.259903
2100.000000	0.259789
2101.000000	0.260035
2102.000000	0.259943
2103.000000	0.260234
2104.000000	0.261091
2105.000000	0.261304
2106.000000	0.261328
2107.000000	0.261706
2108.000000	0.261764
2109.000000	0.261994
2110.000000	0.262662
2111.000000	0.262843
2112.000000	0.262541
2113.000000	0.262291
2114.000000	0.262140
2115.000000	0.262168
2116.000000	0.261768
2117.000000	0.260998
2118.000000	0.260902
2119.000000	0.260684
2120.000000	0.260909
2121.000000	0.262225
2122.000000	0.262475
2123.000000	0.262134
2124.000000	0.262246
2125.000000	0.262283
2126.000000	0.262233
2127.000000	0.262422
2128.000000	0.262541
2129.000000	0.262278
2130.000000	0.262053
2131.000000	0.262523
2132.000000	0.262835
2133.000000	0.262962
2134.000000	0.262993
2135.000000	0.262559
2136.000000	0.262261
2137.000000	0.261815
2138.000000	0.261180
2139.000000	0.260987
2140.000000	0.260977
2141.000000	0.260684
2142.000000	0.260455
2143.000000	0.260246
2144.000000	0.259566
2145.000000	0.259726
2146.000000	0.260485
2147.000000	0.262060
2148.000000	0.262973
2149.000000	0.264065
2150.000000	0.265401
2151.000000	0.265707
2152.000000	0.265969
2153.000000	0.266290
2154.000000	0.266076
2155.000000	0.265217
2156.000000	0.264580
2157.000000	0.263410
2158.000000	0.262795
2159.000000	0.262192
2160.000000	0.262181
2161.000000	0.263525
2162.000000	0.263920
2163.000000	0.263750
2164.000000	0.263761
2165.000000	0.263717
2166.000000	0.262549
2167.000000	0.262795
2168.000000	0.263147
2169.000000	0.262535
2170.000000	0.263017
2171.000000	0.262967
2172.000000	0.262782
2173.000000	0.262406
2174.000000	0.261642
2175.000000	0.261303
2176.000000	0.260505
2177.000000	0.260649
2178.000000	0.262151
2179.000000	0.263001
2180.000000	0.264341
2181.000000	0.265103
2182.000000	0.265401
2183.000000	0.264066
2184.000000	0.263295
2185.000000	0.262688
2186.000000	0.261326
2187.000000	0.261640
2188.000000	0.261925
2189.000000	0.260911
2190.000000	0.260215
2191.000000	0.259746
2192.000000	0.259437
2193.000000	0.258378
2194.000000	0.259102
2195.000000	0.261785
2196.000000	0.263285
2197.000000	0.266145
2198.000000	0.267081
2199.000000	0.266602
2200.000000	0.265800
2201.000000	0.263331
2202.000000	0.261141
2203.000000	0.258090
2204.000000	0.254786
2205.000000	0.253002
2206.000000	0.251907
2207.000000	0.253035
2208.000000	0.256960
2209.000000	0.257653
2210.000000	0.259046
2211.000000	0.259137
2212.000000	0.256922
2213.000000	0.256905
2214.000000	0.258441
2215.000000	0.258656
2216.000000	0.258807
2217.000000	0.259155
2218.000000	0.258683
2219.000000	0.258709
2220.000000	0.259727
2221.000000	0.259947
2222.000000	0.260134
2223.000000	0.259943
2224.000000	0.258961
2225.000000	0.258511
2226.000000	0.258667
2227.000000	0.257604
2228.000000	0.258211
2229.000000	0.259306
2230.000000	0.258842
2231.000000	0.259008
2232.000000	0.258629
2233.000000	0.256264
2234.000000	0.255762
2235.000000	0.257729
2236.000000	0.258654
2237.000000	0.261224
2238.000000	0.261901
2239.000000	0.260293
2240.000000	0.260578
2241.000000	0.260857
2242.000000	0.261800
2243.000000	0.264889
2244.000000	0.266189
2245.000000	0.267406
2246.000000	0.267480
2247.000000	0.265480
2248.000000	0.264865
2249.000000	0.265303
2250.000000	0.262433
2251.000000	0.262309
2252.000000	0.263341
2253.000000	0.261991
2254.000000	0.263818
2255.000000	0.265669
2256.000000	0.267369
2257.000000	0.267651
2258.000000	0.266226
2259.000000	0.265428
2260.000000	0.262119
2261.000000	0.259930
2262.000000	0.257890
2263.000000	0.257364
2264.000000	0.257627
2265.000000	0.257463
2266.000000	0.259534
2267.000000	0.259350
2268.000000	0.255888
2269.000000	0.255511
2270.000000	0.256567
2271.000000	0.256318
2272.000000	0.257108
2273.000000	0.257545
2274.000000	0.256334
2275.000000	0.256323
2276.000000	0.257306
2277.000000	0.258301
2278.000000	0.258235
2279.000000	0.257449
2280.000000	0.258609
2281.000000	0.257438
2282.000000	0.256566
2283.000000	0.256921
2284.000000	0.255117
2285.000000	0.254888
2286.000000	0.256083
2287.000000	0.256702
2288.000000	0.256838
2289.000000	0.257122
2290.000000	0.255555
2291.000000	0.255287
2292.000000	0.255974
2293.000000	0.253116
2294.000000	0.252271
2295.000000	0.252056
2296.000000	0.250860
2297.000000	0.249784
2298.000000	0.250349
2299.000000	0.250965
2300.000000	0.251347
2301.000000	0.252852
2302.000000	0.252989
2303.000000	0.252466
2304.000000	0.251791
2305.000000	0.250950
2306.000000	0.250466
2307.000000	0.249203
2308.000000	0.247981
2309.000000	0.249460
2310.000000	0.249669
2311.000000	0.252156
2312.000000	0.252716
2313.000000	0.251874
2314.000000	0.251891
2315.000000	0.250254
2316.000000	0.251820
2317.000000	0.252457
2318.000000	0.252051
2319.000000	0.254565
2320.000000	0.254613
2321.000000	0.254561
2322.000000	0.254550
2323.000000	0.253202
2324.000000	0.254263
2325.000000	0.255411
2326.000000	0.256336
2327.000000	0.255687
2328.000000	0.252857
2329.000000	0.250351
2330.000000	0.249470
2331.000000	0.247789
2332.000000	0.246094
2333.000000	0.247955
2334.000000	0.249135
2335.000000	0.250280
2336.000000	0.253416
2337.000000	0.253480
2338.000000	0.251033
2339.000000	0.249589
2340.000000	0.247388
2341.000000	0.244896
2342.000000	0.241423
2343.000000	0.239926
2344.000000	0.238747
2345.000000	0.239391
2346.000000	0.243149
2347.000000	0.244077
2348.000000	0.244754
2349.000000	0.244325
2350.000000	0.241624
2351.000000	0.241317
2352.000000	0.239551
2353.000000	0.237882
2354.000000	0.237083
2355.000000	0.233618
2356.000000	0.233355
2357.000000	0.235861
2358.000000	0.239753
2359.000000	0.243347
2360.000000	0.243084
2361.000000	0.242546
2362.000000	0.242491
2363.000000	0.244688
2364.000000	0.247313
2365.000000	0.247101
2366.000000	0.245045
2367.000000	0.243900
2368.000000	0.246966
2369.000000	0.249627
2370.000000	0.248865
2371.000000	0.244720
2372.000000	0.238743
2373.000000	0.234051
2374.000000	0.234601
2375.000000	0.240023
2376.000000	0.241628
2377.000000	0.240091
2378.000000	0.238404
2379.000000	0.236937
2380.000000	0.236693
2381.000000	0.237223
2382.000000	0.237249
2383.000000	0.233735
2384.000000	0.229296
2385.000000	0.228730
2386.000000	0.232327
2387.000000	0.234707
2388.000000	0.233567
2389.000000	0.229765
2390.000000	0.225008
2391.000000	0.218491
2392.000000	0.215960
2393.000000	0.222138
2394.000000	0.223921
2395.000000	0.227100
2396.000000	0.231900
2397.000000	0.229498
2398.000000	0.232024
2399.000000	0.238481
2400.000000	0.241392
2401.000000	0.242826
2402.000000	0.244065
2403.000000	0.240951
2404.000000	0.234997
2405.000000	0.227882
2406.000000	0.223179
2407.000000	0.223226
2408.000000	0.225108
2409.000000	0.228587
2410.000000	0.228153
2411.000000	0.225668
2412.000000	0.223910
2413.000000	0.224973
2414.000000	0.233397
2415.000000	0.239352
2416.000000	0.241414
2417.000000	0.243401
2418.000000	0.242341
2419.000000	0.234541
2420.000000	0.229591
2421.000000	0.228064
2422.000000	0.215998
2423.000000	0.219486
2424.000000	0.227682
2425.000000	0.221736
2426.000000	0.230176
2427.000000	0.237062
2428.000000	0.228129
2429.000000	0.227998
2430.000000	0.232032
2431.000000	0.228750
2432.000000	0.237718
2433.000000	0.249304
2434.000000	0.248932
2435.000000	0.248834
2436.000000	0.246284
2437.000000	0.233892
2438.000000	0.225983
2439.000000	0.225065
2440.000000	0.216643
2441.000000	0.215463
2442.000000	0.221575
2443.000000	0.225573
2444.000000	0.231661
2445.000000	0.234106
2446.000000	0.229833
2447.000000	0.217903
2448.000000	0.206110
2449.000000	0.195582
2450.000000	0.198101
2451.000000	0.206964
2452.000000	0.214451
2453.000000	0.235317
2454.000000	0.249158
2455.000000	0.254227
2456.000000	0.248384
2457.000000	0.235694
2458.000000	0.221298
2459.000000	0.207974
2460.000000	0.210925
2461.000000	0.224022
2462.000000	0.232953
2463.000000	0.228067
2464.000000	0.221782
2465.000000	0.207700
2466.000000	0.198690
2467.000000	0.189591
2468.000000	0.179084
2469.000000	0.182760
2470.000000	0.179274
2471.000000	0.186973
2472.000000	0.193565
2473.000000	0.181587
2474.000000	0.174347
2475.000000	0.191858
2476.000000	0.200846
2477.000000	0.192499
2478.000000	0.185907
2479.000000	0.151068
2480.000000	0.149896
2481.000000	0.187030
2482.000000	0.208671
2483.000000	0.263692
2484.000000	0.290547
2485.000000	0.255860
2486.000000	0.246390
2487.000000	0.172648
2488.000000	0.106952
2489.000000	0.122142
2490.000000	0.136027
2491.000000	0.166304
2492.000000	0.193934
2493.000000	0.245972
2494.000000	0.256415
2495.000000	0.250425
2496.000000	0.253925
2497.000000	0.213948
2498.000000	0.184135
2499.000000	0.175246
2500.000000	0.152124
