# Wavelength	NAu-2-20_HEX-30_FV7-50_00002.asd.rts.txt
350.000000	0.154550
351.000000	0.159098
352.000000	0.161253
353.000000	0.160384
354.000000	0.159228
355.000000	0.161442
356.000000	0.158334
357.000000	0.152700
358.000000	0.153325
359.000000	0.152115
360.000000	0.152488
361.000000	0.158206
362.000000	0.158877
363.000000	0.156602
364.000000	0.155021
365.000000	0.160866
366.000000	0.166044
367.000000	0.165489
368.000000	0.155593
369.000000	0.158040
370.000000	0.164102
371.000000	0.158900
372.000000	0.156167
373.000000	0.158177
374.000000	0.163431
375.000000	0.163081
376.000000	0.159946
377.000000	0.157827
378.000000	0.162491
379.000000	0.161781
380.000000	0.158985
381.000000	0.161673
382.000000	0.162767
383.000000	0.161059
384.000000	0.158513
385.000000	0.163423
386.000000	0.167897
387.000000	0.168755
388.000000	0.166739
389.000000	0.164395
390.000000	0.163935
391.000000	0.166605
392.000000	0.167403
393.000000	0.166267
394.000000	0.164674
395.000000	0.166649
396.000000	0.167799
397.000000	0.166815
398.000000	0.166376
399.000000	0.166022
400.000000	0.165883
401.000000	0.166145
402.000000	0.167175
403.000000	0.167982
404.000000	0.167908
405.000000	0.167833
406.000000	0.168373
407.000000	0.169496
408.000000	0.170102
409.000000	0.170474
410.000000	0.170689
411.000000	0.170735
412.000000	0.171266
413.000000	0.171634
414.000000	0.171290
415.000000	0.172091
416.000000	0.172269
417.000000	0.171266
418.000000	0.171640
419.000000	0.172439
420.000000	0.173032
421.000000	0.172895
422.000000	0.173049
423.000000	0.173360
424.000000	0.173469
425.000000	0.173995
426.000000	0.174564
427.000000	0.174862
428.000000	0.175167
429.000000	0.175497
430.000000	0.175838
431.000000	0.176143
432.000000	0.176115
433.000000	0.176064
434.000000	0.176624
435.000000	0.176896
436.000000	0.176916
437.000000	0.176931
438.000000	0.177353
439.000000	0.177782
440.000000	0.177986
441.000000	0.177783
442.000000	0.177863
443.000000	0.178162
444.000000	0.178202
445.000000	0.178063
446.000000	0.178264
447.000000	0.179126
448.000000	0.179660
449.000000	0.179925
450.000000	0.180136
451.000000	0.180539
452.000000	0.181109
453.000000	0.181631
454.000000	0.181790
455.000000	0.182226
456.000000	0.182717
457.000000	0.182619
458.000000	0.182875
459.000000	0.183157
460.000000	0.183182
461.000000	0.183657
462.000000	0.183828
463.000000	0.183511
464.000000	0.184020
465.000000	0.184536
466.000000	0.184857
467.000000	0.185209
468.000000	0.185446
469.000000	0.185637
470.000000	0.185992
471.000000	0.186357
472.000000	0.186509
473.000000	0.186485
474.000000	0.186944
475.000000	0.187288
476.000000	0.187452
477.000000	0.187660
478.000000	0.188068
479.000000	0.188543
480.000000	0.188588
481.000000	0.188555
482.000000	0.188646
483.000000	0.188856
484.000000	0.189442
485.000000	0.189842
486.000000	0.189967
487.000000	0.190146
488.000000	0.190313
489.000000	0.190465
490.000000	0.190605
491.000000	0.190944
492.000000	0.191339
493.000000	0.191487
494.000000	0.191637
495.000000	0.191840
496.000000	0.192066
497.000000	0.192260
498.000000	0.192460
499.000000	0.192706
500.000000	0.192900
501.000000	0.193016
502.000000	0.193142
503.000000	0.193356
504.000000	0.193535
505.000000	0.193714
506.000000	0.193947
507.000000	0.194224
508.000000	0.194444
509.000000	0.194590
510.000000	0.194925
511.000000	0.195371
512.000000	0.195816
513.000000	0.196050
514.000000	0.196359
515.000000	0.196715
516.000000	0.196963
517.000000	0.197274
518.000000	0.197634
519.000000	0.197965
520.000000	0.198345
521.000000	0.198748
522.000000	0.199136
523.000000	0.199435
524.000000	0.199766
525.000000	0.200205
526.000000	0.200832
527.000000	0.201330
528.000000	0.201760
529.000000	0.202295
530.000000	0.202861
531.000000	0.203531
532.000000	0.204268
533.000000	0.205031
534.000000	0.205769
535.000000	0.206458
536.000000	0.207137
537.000000	0.207805
538.000000	0.208461
539.000000	0.209093
540.000000	0.209729
541.000000	0.210309
542.000000	0.210823
543.000000	0.211331
544.000000	0.211913
545.000000	0.212528
546.000000	0.213104
547.000000	0.213625
548.000000	0.214185
549.000000	0.214891
550.000000	0.215597
551.000000	0.216314
552.000000	0.217051
553.000000	0.217813
554.000000	0.218563
555.000000	0.219304
556.000000	0.220166
557.000000	0.221065
558.000000	0.222022
559.000000	0.222886
560.000000	0.223707
561.000000	0.224579
562.000000	0.225493
563.000000	0.226340
564.000000	0.227153
565.000000	0.227908
566.000000	0.228698
567.000000	0.229480
568.000000	0.230200
569.000000	0.230860
570.000000	0.231475
571.000000	0.232041
572.000000	0.232556
573.000000	0.233075
574.000000	0.233599
575.000000	0.234130
576.000000	0.234446
577.000000	0.234707
578.000000	0.235098
579.000000	0.235437
580.000000	0.235749
581.000000	0.236032
582.000000	0.236228
583.000000	0.236375
584.000000	0.236530
585.000000	0.236767
586.000000	0.236988
587.000000	0.237139
588.000000	0.237205
589.000000	0.237345
590.000000	0.237421
591.000000	0.237366
592.000000	0.237327
593.000000	0.237369
594.000000	0.237455
595.000000	0.237445
596.000000	0.237404
597.000000	0.237375
598.000000	0.237309
599.000000	0.237131
600.000000	0.236966
601.000000	0.236858
602.000000	0.236753
603.000000	0.236617
604.000000	0.236449
605.000000	0.236274
606.000000	0.236069
607.000000	0.235863
608.000000	0.235712
609.000000	0.235584
610.000000	0.235432
611.000000	0.235234
612.000000	0.235119
613.000000	0.235023
614.000000	0.234918
615.000000	0.234810
616.000000	0.234660
617.000000	0.234489
618.000000	0.234473
619.000000	0.234409
620.000000	0.234289
621.000000	0.234218
622.000000	0.234140
623.000000	0.234078
624.000000	0.234054
625.000000	0.234045
626.000000	0.234019
627.000000	0.233968
628.000000	0.233915
629.000000	0.233959
630.000000	0.233971
631.000000	0.233923
632.000000	0.233943
633.000000	0.233990
634.000000	0.233991
635.000000	0.233979
636.000000	0.233965
637.000000	0.233963
638.000000	0.234059
639.000000	0.234092
640.000000	0.234078
641.000000	0.234052
642.000000	0.234084
643.000000	0.234176
644.000000	0.234296
645.000000	0.234386
646.000000	0.234472
647.000000	0.234569
648.000000	0.234728
649.000000	0.234917
650.000000	0.235096
651.000000	0.235259
652.000000	0.235454
653.000000	0.235690
654.000000	0.235890
655.000000	0.236042
656.000000	0.236270
657.000000	0.236603
658.000000	0.236812
659.000000	0.237020
660.000000	0.237292
661.000000	0.237628
662.000000	0.237925
663.000000	0.238223
664.000000	0.238570
665.000000	0.238903
666.000000	0.239274
667.000000	0.239703
668.000000	0.240078
669.000000	0.240464
670.000000	0.240888
671.000000	0.241251
672.000000	0.241706
673.000000	0.242242
674.000000	0.242737
675.000000	0.243198
676.000000	0.243652
677.000000	0.244141
678.000000	0.244631
679.000000	0.245119
680.000000	0.245620
681.000000	0.246141
682.000000	0.246749
683.000000	0.247352
684.000000	0.247876
685.000000	0.248445
686.000000	0.249088
687.000000	0.249747
688.000000	0.250326
689.000000	0.250880
690.000000	0.251498
691.000000	0.252165
692.000000	0.252843
693.000000	0.253547
694.000000	0.254190
695.000000	0.254909
696.000000	0.255677
697.000000	0.256405
698.000000	0.257110
699.000000	0.257856
700.000000	0.258671
701.000000	0.259411
702.000000	0.260155
703.000000	0.260942
704.000000	0.261813
705.000000	0.262684
706.000000	0.263486
707.000000	0.264252
708.000000	0.265099
709.000000	0.265900
710.000000	0.266598
711.000000	0.267461
712.000000	0.268301
713.000000	0.269078
714.000000	0.269912
715.000000	0.270770
716.000000	0.271624
717.000000	0.272423
718.000000	0.273231
719.000000	0.274031
720.000000	0.274830
721.000000	0.275699
722.000000	0.276504
723.000000	0.277262
724.000000	0.278035
725.000000	0.278812
726.000000	0.279662
727.000000	0.280524
728.000000	0.281314
729.000000	0.282078
730.000000	0.282807
731.000000	0.283474
732.000000	0.284142
733.000000	0.284870
734.000000	0.285601
735.000000	0.286273
736.000000	0.286975
737.000000	0.287615
738.000000	0.288150
739.000000	0.288755
740.000000	0.289386
741.000000	0.289996
742.000000	0.290602
743.000000	0.291187
744.000000	0.291780
745.000000	0.292331
746.000000	0.292863
747.000000	0.293347
748.000000	0.293977
749.000000	0.294577
750.000000	0.295017
751.000000	0.295512
752.000000	0.296044
753.000000	0.296575
754.000000	0.297021
755.000000	0.297501
756.000000	0.297962
757.000000	0.298284
758.000000	0.298596
759.000000	0.298957
760.000000	0.299321
761.000000	0.299710
762.000000	0.300152
763.000000	0.300562
764.000000	0.300861
765.000000	0.301077
766.000000	0.301310
767.000000	0.301618
768.000000	0.301863
769.000000	0.302031
770.000000	0.302204
771.000000	0.302602
772.000000	0.302948
773.000000	0.303105
774.000000	0.303161
775.000000	0.303356
776.000000	0.303595
777.000000	0.303768
778.000000	0.303929
779.000000	0.304121
780.000000	0.304331
781.000000	0.304462
782.000000	0.304536
783.000000	0.304671
784.000000	0.304805
785.000000	0.304903
786.000000	0.305042
787.000000	0.305214
788.000000	0.305251
789.000000	0.305279
790.000000	0.305349
791.000000	0.305521
792.000000	0.305695
793.000000	0.305842
794.000000	0.305957
795.000000	0.306035
796.000000	0.306074
797.000000	0.306081
798.000000	0.306090
799.000000	0.306141
800.000000	0.306224
801.000000	0.306307
802.000000	0.306329
803.000000	0.306330
804.000000	0.306346
805.000000	0.306246
806.000000	0.306207
807.000000	0.306305
808.000000	0.306408
809.000000	0.306474
810.000000	0.306536
811.000000	0.306596
812.000000	0.306590
813.000000	0.306572
814.000000	0.306540
815.000000	0.306469
816.000000	0.306365
817.000000	0.306309
818.000000	0.306271
819.000000	0.306130
820.000000	0.306089
821.000000	0.306150
822.000000	0.306162
823.000000	0.306204
824.000000	0.306214
825.000000	0.306212
826.000000	0.306164
827.000000	0.306080
828.000000	0.306034
829.000000	0.306099
830.000000	0.306042
831.000000	0.305916
832.000000	0.305770
833.000000	0.305744
834.000000	0.305717
835.000000	0.305595
836.000000	0.305320
837.000000	0.305198
838.000000	0.305227
839.000000	0.305116
840.000000	0.305073
841.000000	0.305066
842.000000	0.304998
843.000000	0.304940
844.000000	0.304963
845.000000	0.304994
846.000000	0.304878
847.000000	0.304653
848.000000	0.304417
849.000000	0.304292
850.000000	0.304166
851.000000	0.304064
852.000000	0.304024
853.000000	0.303986
854.000000	0.303778
855.000000	0.303621
856.000000	0.303626
857.000000	0.303645
858.000000	0.303678
859.000000	0.303624
860.000000	0.303446
861.000000	0.303250
862.000000	0.303058
863.000000	0.302801
864.000000	0.302623
865.000000	0.302476
866.000000	0.302327
867.000000	0.302108
868.000000	0.302023
869.000000	0.301946
870.000000	0.301759
871.000000	0.301642
872.000000	0.301563
873.000000	0.301412
874.000000	0.301175
875.000000	0.300912
876.000000	0.300675
877.000000	0.300440
878.000000	0.300222
879.000000	0.300040
880.000000	0.299799
881.000000	0.299682
882.000000	0.299533
883.000000	0.299422
884.000000	0.299394
885.000000	0.299136
886.000000	0.298884
887.000000	0.298763
888.000000	0.298499
889.000000	0.298333
890.000000	0.298131
891.000000	0.297881
892.000000	0.297762
893.000000	0.297615
894.000000	0.297445
895.000000	0.297167
896.000000	0.296852
897.000000	0.296582
898.000000	0.296423
899.000000	0.296332
900.000000	0.296180
901.000000	0.295941
902.000000	0.295870
903.000000	0.295673
904.000000	0.295464
905.000000	0.295322
906.000000	0.295255
907.000000	0.294945
908.000000	0.294530
909.000000	0.294463
910.000000	0.294288
911.000000	0.294003
912.000000	0.293705
913.000000	0.293350
914.000000	0.293046
915.000000	0.292868
916.000000	0.292676
917.000000	0.292299
918.000000	0.291913
919.000000	0.291640
920.000000	0.291383
921.000000	0.291233
922.000000	0.291107
923.000000	0.290841
924.000000	0.290685
925.000000	0.290404
926.000000	0.289992
927.000000	0.289819
928.000000	0.289605
929.000000	0.289350
930.000000	0.289119
931.000000	0.288783
932.000000	0.288572
933.000000	0.288472
934.000000	0.288087
935.000000	0.287834
936.000000	0.287656
937.000000	0.287348
938.000000	0.287052
939.000000	0.286747
940.000000	0.286454
941.000000	0.286351
942.000000	0.286132
943.000000	0.285958
944.000000	0.285776
945.000000	0.285441
946.000000	0.285237
947.000000	0.285138
948.000000	0.284962
949.000000	0.284792
950.000000	0.284450
951.000000	0.283970
952.000000	0.283705
953.000000	0.283514
954.000000	0.283430
955.000000	0.283343
956.000000	0.282982
957.000000	0.282681
958.000000	0.282393
959.000000	0.282070
960.000000	0.281933
961.000000	0.281804
962.000000	0.281573
963.000000	0.281310
964.000000	0.281231
965.000000	0.281130
966.000000	0.280762
967.000000	0.280540
968.000000	0.280440
969.000000	0.280286
970.000000	0.279983
971.000000	0.279708
972.000000	0.279575
973.000000	0.279501
974.000000	0.279357
975.000000	0.279070
976.000000	0.278750
977.000000	0.278460
978.000000	0.278010
979.000000	0.277715
980.000000	0.277480
981.000000	0.277449
982.000000	0.277372
983.000000	0.277118
984.000000	0.276794
985.000000	0.276602
986.000000	0.276709
987.000000	0.276808
988.000000	0.276600
989.000000	0.276434
990.000000	0.275908
991.000000	0.275451
992.000000	0.275577
993.000000	0.275528
994.000000	0.275393
995.000000	0.275297
996.000000	0.275038
997.000000	0.275055
998.000000	0.274952
999.000000	0.274729
1000.000000	0.274873
1001.000000	0.275683
1002.000000	0.274861
1003.000000	0.274009
1004.000000	0.273714
1005.000000	0.273932
1006.000000	0.273499
1007.000000	0.273061
1008.000000	0.272760
1009.000000	0.272730
1010.000000	0.272693
1011.000000	0.272591
1012.000000	0.272960
1013.000000	0.272166
1014.000000	0.271167
1015.000000	0.271555
1016.000000	0.271964
1017.000000	0.272169
1018.000000	0.272291
1019.000000	0.272633
1020.000000	0.273127
1021.000000	0.273110
1022.000000	0.273507
1023.000000	0.273618
1024.000000	0.273127
1025.000000	0.272329
1026.000000	0.272137
1027.000000	0.272013
1028.000000	0.272182
1029.000000	0.272346
1030.000000	0.271974
1031.000000	0.271746
1032.000000	0.271427
1033.000000	0.270935
1034.000000	0.271162
1035.000000	0.272209
1036.000000	0.272612
1037.000000	0.273365
1038.000000	0.273645
1039.000000	0.273531
1040.000000	0.273373
1041.000000	0.273155
1042.000000	0.273026
1043.000000	0.273121
1044.000000	0.273101
1045.000000	0.273352
1046.000000	0.273602
1047.000000	0.273683
1048.000000	0.273309
1049.000000	0.273518
1050.000000	0.274234
1051.000000	0.274268
1052.000000	0.274220
1053.000000	0.274288
1054.000000	0.273946
1055.000000	0.273987
1056.000000	0.274564
1057.000000	0.274911
1058.000000	0.274729
1059.000000	0.274534
1060.000000	0.274695
1061.000000	0.274837
1062.000000	0.275225
1063.000000	0.275660
1064.000000	0.275989
1065.000000	0.276035
1066.000000	0.276431
1067.000000	0.277069
1068.000000	0.277391
1069.000000	0.277700
1070.000000	0.277821
1071.000000	0.277739
1072.000000	0.277736
1073.000000	0.277628
1074.000000	0.277695
1075.000000	0.277993
1076.000000	0.278114
1077.000000	0.278375
1078.000000	0.278730
1079.000000	0.278882
1080.000000	0.278789
1081.000000	0.279021
1082.000000	0.279511
1083.000000	0.279727
1084.000000	0.280027
1085.000000	0.280278
1086.000000	0.280225
1087.000000	0.280383
1088.000000	0.280613
1089.000000	0.280819
1090.000000	0.281017
1091.000000	0.281254
1092.000000	0.281155
1093.000000	0.281529
1094.000000	0.281777
1095.000000	0.281932
1096.000000	0.282069
1097.000000	0.282257
1098.000000	0.282549
1099.000000	0.282742
1100.000000	0.283037
1101.000000	0.283612
1102.000000	0.283859
1103.000000	0.283599
1104.000000	0.283914
1105.000000	0.284729
1106.000000	0.285020
1107.000000	0.285187
1108.000000	0.285461
1109.000000	0.285665
1110.000000	0.285451
1111.000000	0.285607
1112.000000	0.286169
1113.000000	0.286384
1114.000000	0.286382
1115.000000	0.286534
1116.000000	0.286719
1117.000000	0.286884
1118.000000	0.287025
1119.000000	0.287190
1120.000000	0.287441
1121.000000	0.287561
1122.000000	0.287702
1123.000000	0.287992
1124.000000	0.288074
1125.000000	0.288181
1126.000000	0.288318
1127.000000	0.288362
1128.000000	0.288342
1129.000000	0.288224
1130.000000	0.288245
1131.000000	0.288156
1132.000000	0.288406
1133.000000	0.288988
1134.000000	0.289346
1135.000000	0.289961
1136.000000	0.290094
1137.000000	0.289681
1138.000000	0.289674
1139.000000	0.289794
1140.000000	0.289872
1141.000000	0.290065
1142.000000	0.290247
1143.000000	0.290275
1144.000000	0.290392
1145.000000	0.290541
1146.000000	0.290460
1147.000000	0.290504
1148.000000	0.290399
1149.000000	0.290391
1150.000000	0.290447
1151.000000	0.290570
1152.000000	0.290649
1153.000000	0.290785
1154.000000	0.291038
1155.000000	0.291152
1156.000000	0.291201
1157.000000	0.291260
1158.000000	0.291160
1159.000000	0.291233
1160.000000	0.291434
1161.000000	0.291531
1162.000000	0.291728
1163.000000	0.292010
1164.000000	0.291961
1165.000000	0.291877
1166.000000	0.291809
1167.000000	0.291544
1168.000000	0.291496
1169.000000	0.291603
1170.000000	0.291623
1171.000000	0.291740
1172.000000	0.291839
1173.000000	0.291830
1174.000000	0.291877
1175.000000	0.291969
1176.000000	0.291991
1177.000000	0.292041
1178.000000	0.292109
1179.000000	0.292168
1180.000000	0.292181
1181.000000	0.292304
1182.000000	0.292361
1183.000000	0.292251
1184.000000	0.292266
1185.000000	0.292305
1186.000000	0.292291
1187.000000	0.292304
1188.000000	0.292467
1189.000000	0.292454
1190.000000	0.292345
1191.000000	0.292380
1192.000000	0.292570
1193.000000	0.292680
1194.000000	0.292657
1195.000000	0.292724
1196.000000	0.292690
1197.000000	0.292723
1198.000000	0.292933
1199.000000	0.293064
1200.000000	0.293151
1201.000000	0.293225
1202.000000	0.293305
1203.000000	0.293250
1204.000000	0.293214
1205.000000	0.293250
1206.000000	0.293169
1207.000000	0.293124
1208.000000	0.293085
1209.000000	0.293046
1210.000000	0.293025
1211.000000	0.293028
1212.000000	0.293060
1213.000000	0.293165
1214.000000	0.293185
1215.000000	0.293192
1216.000000	0.293221
1217.000000	0.293156
1218.000000	0.293139
1219.000000	0.293195
1220.000000	0.293284
1221.000000	0.293394
1222.000000	0.293380
1223.000000	0.293414
1224.000000	0.293619
1225.000000	0.293735
1226.000000	0.293725
1227.000000	0.293647
1228.000000	0.293542
1229.000000	0.293509
1230.000000	0.293446
1231.000000	0.293438
1232.000000	0.293658
1233.000000	0.293797
1234.000000	0.293894
1235.000000	0.293961
1236.000000	0.293965
1237.000000	0.293992
1238.000000	0.293902
1239.000000	0.293882
1240.000000	0.293937
1241.000000	0.293852
1242.000000	0.293840
1243.000000	0.293968
1244.000000	0.294073
1245.000000	0.294194
1246.000000	0.294279
1247.000000	0.294331
1248.000000	0.294339
1249.000000	0.294412
1250.000000	0.294485
1251.000000	0.294436
1252.000000	0.294403
1253.000000	0.294364
1254.000000	0.294325
1255.000000	0.294178
1256.000000	0.294230
1257.000000	0.294520
1258.000000	0.294553
1259.000000	0.294499
1260.000000	0.294521
1261.000000	0.294269
1262.000000	0.294149
1263.000000	0.294123
1264.000000	0.294259
1265.000000	0.294351
1266.000000	0.294397
1267.000000	0.294485
1268.000000	0.294517
1269.000000	0.294520
1270.000000	0.294665
1271.000000	0.294787
1272.000000	0.294809
1273.000000	0.294842
1274.000000	0.294776
1275.000000	0.294712
1276.000000	0.294684
1277.000000	0.294738
1278.000000	0.294651
1279.000000	0.294630
1280.000000	0.294643
1281.000000	0.294621
1282.000000	0.294629
1283.000000	0.294764
1284.000000	0.294952
1285.000000	0.295010
1286.000000	0.295009
1287.000000	0.295018
1288.000000	0.295065
1289.000000	0.295028
1290.000000	0.295009
1291.000000	0.295001
1292.000000	0.295011
1293.000000	0.295008
1294.000000	0.294895
1295.000000	0.294909
1296.000000	0.294975
1297.000000	0.294964
1298.000000	0.295020
1299.000000	0.295136
1300.000000	0.295102
1301.000000	0.294968
1302.000000	0.294907
1303.000000	0.295044
1304.000000	0.294971
1305.000000	0.294900
1306.000000	0.294908
1307.000000	0.294862
1308.000000	0.294907
1309.000000	0.295201
1310.000000	0.295251
1311.000000	0.295174
1312.000000	0.295127
1313.000000	0.295132
1314.000000	0.294968
1315.000000	0.294947
1316.000000	0.295118
1317.000000	0.295213
1318.000000	0.295278
1319.000000	0.295165
1320.000000	0.294918
1321.000000	0.294685
1322.000000	0.294559
1323.000000	0.294546
1324.000000	0.294701
1325.000000	0.294854
1326.000000	0.294709
1327.000000	0.294703
1328.000000	0.294870
1329.000000	0.294825
1330.000000	0.294755
1331.000000	0.294717
1332.000000	0.294554
1333.000000	0.294492
1334.000000	0.294632
1335.000000	0.294685
1336.000000	0.294708
1337.000000	0.294672
1338.000000	0.294554
1339.000000	0.294385
1340.000000	0.294259
1341.000000	0.294327
1342.000000	0.294377
1343.000000	0.294375
1344.000000	0.294303
1345.000000	0.294017
1346.000000	0.293807
1347.000000	0.293683
1348.000000	0.293720
1349.000000	0.293801
1350.000000	0.293874
1351.000000	0.293856
1352.000000	0.293695
1353.000000	0.293545
1354.000000	0.293500
1355.000000	0.293433
1356.000000	0.293428
1357.000000	0.293362
1358.000000	0.293258
1359.000000	0.293153
1360.000000	0.293054
1361.000000	0.293006
1362.000000	0.292880
1363.000000	0.292692
1364.000000	0.292595
1365.000000	0.292441
1366.000000	0.292358
1367.000000	0.292352
1368.000000	0.292333
1369.000000	0.292409
1370.000000	0.292281
1371.000000	0.291984
1372.000000	0.291694
1373.000000	0.291476
1374.000000	0.291429
1375.000000	0.291439
1376.000000	0.291496
1377.000000	0.291436
1378.000000	0.291271
1379.000000	0.291184
1380.000000	0.291040
1381.000000	0.290751
1382.000000	0.290418
1383.000000	0.289998
1384.000000	0.289629
1385.000000	0.289433
1386.000000	0.289265
1387.000000	0.289200
1388.000000	0.289061
1389.000000	0.288676
1390.000000	0.288209
1391.000000	0.287707
1392.000000	0.287206
1393.000000	0.286639
1394.000000	0.286102
1395.000000	0.285550
1396.000000	0.284912
1397.000000	0.284307
1398.000000	0.283676
1399.000000	0.283078
1400.000000	0.282446
1401.000000	0.281816
1402.000000	0.281249
1403.000000	0.280715
1404.000000	0.280144
1405.000000	0.279636
1406.000000	0.279109
1407.000000	0.278631
1408.000000	0.278071
1409.000000	0.277543
1410.000000	0.277144
1411.000000	0.276683
1412.000000	0.276248
1413.000000	0.275946
1414.000000	0.275637
1415.000000	0.275316
1416.000000	0.275010
1417.000000	0.274739
1418.000000	0.274323
1419.000000	0.273877
1420.000000	0.273610
1421.000000	0.273348
1422.000000	0.272899
1423.000000	0.272567
1424.000000	0.272208
1425.000000	0.271902
1426.000000	0.271762
1427.000000	0.271621
1428.000000	0.271352
1429.000000	0.271017
1430.000000	0.270705
1431.000000	0.270471
1432.000000	0.270170
1433.000000	0.269854
1434.000000	0.269572
1435.000000	0.269321
1436.000000	0.269108
1437.000000	0.268998
1438.000000	0.268849
1439.000000	0.268675
1440.000000	0.268590
1441.000000	0.268534
1442.000000	0.268539
1443.000000	0.268555
1444.000000	0.268678
1445.000000	0.268717
1446.000000	0.268761
1447.000000	0.268815
1448.000000	0.268842
1449.000000	0.269036
1450.000000	0.269250
1451.000000	0.269328
1452.000000	0.269344
1453.000000	0.269280
1454.000000	0.269197
1455.000000	0.269212
1456.000000	0.269383
1457.000000	0.269556
1458.000000	0.269610
1459.000000	0.269659
1460.000000	0.269624
1461.000000	0.269489
1462.000000	0.269415
1463.000000	0.269382
1464.000000	0.269396
1465.000000	0.269509
1466.000000	0.269620
1467.000000	0.269682
1468.000000	0.269811
1469.000000	0.269984
1470.000000	0.270033
1471.000000	0.270166
1472.000000	0.270291
1473.000000	0.270460
1474.000000	0.270665
1475.000000	0.270804
1476.000000	0.270883
1477.000000	0.270953
1478.000000	0.271130
1479.000000	0.271316
1480.000000	0.271529
1481.000000	0.271712
1482.000000	0.271852
1483.000000	0.272076
1484.000000	0.272387
1485.000000	0.272610
1486.000000	0.272826
1487.000000	0.273062
1488.000000	0.273280
1489.000000	0.273512
1490.000000	0.273706
1491.000000	0.273858
1492.000000	0.273900
1493.000000	0.273986
1494.000000	0.273988
1495.000000	0.274066
1496.000000	0.274176
1497.000000	0.274297
1498.000000	0.274482
1499.000000	0.274669
1500.000000	0.274748
1501.000000	0.274777
1502.000000	0.274825
1503.000000	0.274978
1504.000000	0.275146
1505.000000	0.275336
1506.000000	0.275594
1507.000000	0.275720
1508.000000	0.275838
1509.000000	0.276046
1510.000000	0.276122
1511.000000	0.276189
1512.000000	0.276392
1513.000000	0.276518
1514.000000	0.276599
1515.000000	0.276700
1516.000000	0.276680
1517.000000	0.276736
1518.000000	0.276848
1519.000000	0.276756
1520.000000	0.276781
1521.000000	0.276779
1522.000000	0.276849
1523.000000	0.277115
1524.000000	0.277220
1525.000000	0.277288
1526.000000	0.277305
1527.000000	0.277214
1528.000000	0.277244
1529.000000	0.277304
1530.000000	0.277199
1531.000000	0.277229
1532.000000	0.277370
1533.000000	0.277385
1534.000000	0.277404
1535.000000	0.277520
1536.000000	0.277512
1537.000000	0.277587
1538.000000	0.277803
1539.000000	0.277863
1540.000000	0.277914
1541.000000	0.278001
1542.000000	0.277937
1543.000000	0.277888
1544.000000	0.277911
1545.000000	0.277884
1546.000000	0.278025
1547.000000	0.278148
1548.000000	0.278103
1549.000000	0.278163
1550.000000	0.278078
1551.000000	0.277999
1552.000000	0.278129
1553.000000	0.278166
1554.000000	0.278113
1555.000000	0.278124
1556.000000	0.278186
1557.000000	0.278178
1558.000000	0.278201
1559.000000	0.278309
1560.000000	0.278295
1561.000000	0.278152
1562.000000	0.278151
1563.000000	0.278263
1564.000000	0.278242
1565.000000	0.278207
1566.000000	0.278166
1567.000000	0.278111
1568.000000	0.278158
1569.000000	0.278348
1570.000000	0.278482
1571.000000	0.278652
1572.000000	0.278708
1573.000000	0.278733
1574.000000	0.278738
1575.000000	0.278704
1576.000000	0.278652
1577.000000	0.278535
1578.000000	0.278472
1579.000000	0.278398
1580.000000	0.278392
1581.000000	0.278571
1582.000000	0.278652
1583.000000	0.278724
1584.000000	0.278748
1585.000000	0.278802
1586.000000	0.278806
1587.000000	0.278747
1588.000000	0.278704
1589.000000	0.278638
1590.000000	0.278601
1591.000000	0.278622
1592.000000	0.278644
1593.000000	0.278713
1594.000000	0.278705
1595.000000	0.278732
1596.000000	0.278671
1597.000000	0.278476
1598.000000	0.278442
1599.000000	0.278515
1600.000000	0.278511
1601.000000	0.278644
1602.000000	0.278692
1603.000000	0.278648
1604.000000	0.278662
1605.000000	0.278737
1606.000000	0.278729
1607.000000	0.278755
1608.000000	0.278735
1609.000000	0.278703
1610.000000	0.278692
1611.000000	0.278655
1612.000000	0.278668
1613.000000	0.278834
1614.000000	0.278872
1615.000000	0.278887
1616.000000	0.279032
1617.000000	0.279152
1618.000000	0.279262
1619.000000	0.279497
1620.000000	0.279620
1621.000000	0.279638
1622.000000	0.279730
1623.000000	0.279831
1624.000000	0.279878
1625.000000	0.279756
1626.000000	0.279742
1627.000000	0.279807
1628.000000	0.279835
1629.000000	0.279888
1630.000000	0.279885
1631.000000	0.279734
1632.000000	0.279591
1633.000000	0.279422
1634.000000	0.279377
1635.000000	0.279368
1636.000000	0.279452
1637.000000	0.279727
1638.000000	0.279843
1639.000000	0.280006
1640.000000	0.280087
1641.000000	0.280100
1642.000000	0.280169
1643.000000	0.280272
1644.000000	0.280367
1645.000000	0.280536
1646.000000	0.280524
1647.000000	0.280431
1648.000000	0.280396
1649.000000	0.280350
1650.000000	0.280329
1651.000000	0.280433
1652.000000	0.280460
1653.000000	0.280355
1654.000000	0.280375
1655.000000	0.280337
1656.000000	0.280357
1657.000000	0.280534
1658.000000	0.280649
1659.000000	0.280981
1660.000000	0.281062
1661.000000	0.280879
1662.000000	0.280882
1663.000000	0.280784
1664.000000	0.280758
1665.000000	0.280847
1666.000000	0.280994
1667.000000	0.281071
1668.000000	0.281188
1669.000000	0.281451
1670.000000	0.281473
1671.000000	0.281417
1672.000000	0.281510
1673.000000	0.281521
1674.000000	0.281744
1675.000000	0.281976
1676.000000	0.281992
1677.000000	0.282014
1678.000000	0.281960
1679.000000	0.281919
1680.000000	0.281995
1681.000000	0.282138
1682.000000	0.282217
1683.000000	0.282218
1684.000000	0.282146
1685.000000	0.282100
1686.000000	0.282009
1687.000000	0.281958
1688.000000	0.282049
1689.000000	0.282038
1690.000000	0.281889
1691.000000	0.281914
1692.000000	0.281944
1693.000000	0.282017
1694.000000	0.282135
1695.000000	0.282261
1696.000000	0.282267
1697.000000	0.282164
1698.000000	0.282027
1699.000000	0.281987
1700.000000	0.281853
1701.000000	0.281867
1702.000000	0.281915
1703.000000	0.281918
1704.000000	0.281960
1705.000000	0.282057
1706.000000	0.282321
1707.000000	0.282421
1708.000000	0.282429
1709.000000	0.282393
1710.000000	0.282335
1711.000000	0.282266
1712.000000	0.282152
1713.000000	0.282148
1714.000000	0.282159
1715.000000	0.282254
1716.000000	0.282616
1717.000000	0.282739
1718.000000	0.282721
1719.000000	0.282717
1720.000000	0.282639
1721.000000	0.282607
1722.000000	0.282589
1723.000000	0.282624
1724.000000	0.282677
1725.000000	0.282796
1726.000000	0.282986
1727.000000	0.283038
1728.000000	0.282966
1729.000000	0.282931
1730.000000	0.282918
1731.000000	0.282991
1732.000000	0.283174
1733.000000	0.283359
1734.000000	0.283486
1735.000000	0.283555
1736.000000	0.283589
1737.000000	0.283609
1738.000000	0.283618
1739.000000	0.283520
1740.000000	0.283300
1741.000000	0.283278
1742.000000	0.283238
1743.000000	0.283318
1744.000000	0.283610
1745.000000	0.283667
1746.000000	0.283616
1747.000000	0.283556
1748.000000	0.283503
1749.000000	0.283463
1750.000000	0.283395
1751.000000	0.283493
1752.000000	0.283572
1753.000000	0.283431
1754.000000	0.283405
1755.000000	0.283445
1756.000000	0.283357
1757.000000	0.283192
1758.000000	0.283148
1759.000000	0.283085
1760.000000	0.282983
1761.000000	0.282945
1762.000000	0.282871
1763.000000	0.282652
1764.000000	0.282573
1765.000000	0.282585
1766.000000	0.282592
1767.000000	0.282526
1768.000000	0.282538
1769.000000	0.282703
1770.000000	0.282863
1771.000000	0.283091
1772.000000	0.283192
1773.000000	0.283134
1774.000000	0.283225
1775.000000	0.283424
1776.000000	0.283484
1777.000000	0.283491
1778.000000	0.283584
1779.000000	0.283557
1780.000000	0.283714
1781.000000	0.284131
1782.000000	0.284169
1783.000000	0.284103
1784.000000	0.283956
1785.000000	0.283731
1786.000000	0.283678
1787.000000	0.283752
1788.000000	0.283753
1789.000000	0.283745
1790.000000	0.283904
1791.000000	0.283840
1792.000000	0.283731
1793.000000	0.283678
1794.000000	0.283382
1795.000000	0.283379
1796.000000	0.283802
1797.000000	0.283858
1798.000000	0.283798
1799.000000	0.283786
1800.000000	0.283482
1801.000000	0.282598
1802.000000	0.283241
1803.000000	0.285227
1804.000000	0.285805
1805.000000	0.285809
1806.000000	0.285634
1807.000000	0.284944
1808.000000	0.284379
1809.000000	0.283174
1810.000000	0.282674
1811.000000	0.282214
1812.000000	0.281672
1813.000000	0.281798
1814.000000	0.282326
1815.000000	0.282914
1816.000000	0.284651
1817.000000	0.285184
1818.000000	0.284789
1819.000000	0.285360
1820.000000	0.286586
1821.000000	0.286179
1822.000000	0.286198
1823.000000	0.286882
1824.000000	0.286591
1825.000000	0.284709
1826.000000	0.284309
1827.000000	0.284425
1828.000000	0.284236
1829.000000	0.284550
1830.000000	0.284835
1831.000000	0.284437
1832.000000	0.283052
1833.000000	0.282780
1834.000000	0.282708
1835.000000	0.282453
1836.000000	0.282699
1837.000000	0.282610
1838.000000	0.281640
1839.000000	0.281629
1840.000000	0.281508
1841.000000	0.281188
1842.000000	0.281370
1843.000000	0.281954
1844.000000	0.282251
1845.000000	0.282958
1846.000000	0.283097
1847.000000	0.283018
1848.000000	0.282028
1849.000000	0.280805
1850.000000	0.280418
1851.000000	0.280312
1852.000000	0.280434
1853.000000	0.280593
1854.000000	0.281168
1855.000000	0.281212
1856.000000	0.280660
1857.000000	0.281053
1858.000000	0.280818
1859.000000	0.280749
1860.000000	0.280848
1861.000000	0.280072
1862.000000	0.279789
1863.000000	0.279847
1864.000000	0.279375
1865.000000	0.279091
1866.000000	0.278338
1867.000000	0.276955
1868.000000	0.275477
1869.000000	0.273929
1870.000000	0.272533
1871.000000	0.271876
1872.000000	0.271554
1873.000000	0.270863
1874.000000	0.270586
1875.000000	0.269598
1876.000000	0.267750
1877.000000	0.265868
1878.000000	0.264577
1879.000000	0.263423
1880.000000	0.262520
1881.000000	0.261695
1882.000000	0.260828
1883.000000	0.259724
1884.000000	0.258480
1885.000000	0.257317
1886.000000	0.255525
1887.000000	0.252942
1888.000000	0.250743
1889.000000	0.248616
1890.000000	0.246081
1891.000000	0.244412
1892.000000	0.242390
1893.000000	0.239253
1894.000000	0.236679
1895.000000	0.234298
1896.000000	0.232181
1897.000000	0.229236
1898.000000	0.227106
1899.000000	0.225651
1900.000000	0.222891
1901.000000	0.221409
1902.000000	0.220364
1903.000000	0.218791
1904.000000	0.218139
1905.000000	0.216485
1906.000000	0.214940
1907.000000	0.213238
1908.000000	0.211763
1909.000000	0.210193
1910.000000	0.210053
1911.000000	0.209697
1912.000000	0.208946
1913.000000	0.208359
1914.000000	0.207186
1915.000000	0.206319
1916.000000	0.206110
1917.000000	0.205754
1918.000000	0.205632
1919.000000	0.205514
1920.000000	0.205674
1921.000000	0.205652
1922.000000	0.205167
1923.000000	0.204610
1924.000000	0.203798
1925.000000	0.203284
1926.000000	0.203414
1927.000000	0.203907
1928.000000	0.204150
1929.000000	0.204533
1930.000000	0.204650
1931.000000	0.204812
1932.000000	0.204977
1933.000000	0.205339
1934.000000	0.205860
1935.000000	0.205942
1936.000000	0.206258
1937.000000	0.207123
1938.000000	0.207234
1939.000000	0.207099
1940.000000	0.206895
1941.000000	0.206386
1942.000000	0.205576
1943.000000	0.205152
1944.000000	0.204834
1945.000000	0.205186
1946.000000	0.205434
1947.000000	0.205456
1948.000000	0.205906
1949.000000	0.205792
1950.000000	0.205353
1951.000000	0.205011
1952.000000	0.204765
1953.000000	0.204144
1954.000000	0.203534
1955.000000	0.203230
1956.000000	0.202817
1957.000000	0.202886
1958.000000	0.203580
1959.000000	0.203915
1960.000000	0.204113
1961.000000	0.204167
1962.000000	0.204125
1963.000000	0.203776
1964.000000	0.203792
1965.000000	0.203408
1966.000000	0.203110
1967.000000	0.203149
1968.000000	0.203434
1969.000000	0.204321
1970.000000	0.204809
1971.000000	0.205178
1972.000000	0.205196
1973.000000	0.205039
1974.000000	0.204716
1975.000000	0.204759
1976.000000	0.204860
1977.000000	0.204666
1978.000000	0.204900
1979.000000	0.204798
1980.000000	0.204885
1981.000000	0.205455
1982.000000	0.205252
1983.000000	0.205201
1984.000000	0.205525
1985.000000	0.205671
1986.000000	0.206191
1987.000000	0.207504
1988.000000	0.208524
1989.000000	0.208940
1990.000000	0.209491
1991.000000	0.209343
1992.000000	0.209413
1993.000000	0.209611
1994.000000	0.209449
1995.000000	0.209571
1996.000000	0.209633
1997.000000	0.210010
1998.000000	0.210765
1999.000000	0.211413
2000.000000	0.212222
2001.000000	0.213183
2002.000000	0.213605
2003.000000	0.213606
2004.000000	0.213600
2005.000000	0.213471
2006.000000	0.213711
2007.000000	0.214516
2008.000000	0.215248
2009.000000	0.216263
2010.000000	0.217087
2011.000000	0.217734
2012.000000	0.218474
2013.000000	0.219196
2014.000000	0.219856
2015.000000	0.220706
2016.000000	0.221528
2017.000000	0.221323
2018.000000	0.220914
2019.000000	0.220593
2020.000000	0.220025
2021.000000	0.220318
2022.000000	0.221550
2023.000000	0.222419
2024.000000	0.223821
2025.000000	0.224695
2026.000000	0.225410
2027.000000	0.225629
2028.000000	0.225458
2029.000000	0.225506
2030.000000	0.225371
2031.000000	0.225529
2032.000000	0.226293
2033.000000	0.227590
2034.000000	0.228488
2035.000000	0.230009
2036.000000	0.230296
2037.000000	0.229514
2038.000000	0.229530
2039.000000	0.229230
2040.000000	0.229510
2041.000000	0.230626
2042.000000	0.231541
2043.000000	0.231757
2044.000000	0.232102
2045.000000	0.232209
2046.000000	0.232314
2047.000000	0.232669
2048.000000	0.233367
2049.000000	0.233879
2050.000000	0.234025
2051.000000	0.234265
2052.000000	0.234339
2053.000000	0.234372
2054.000000	0.234529
2055.000000	0.235197
2056.000000	0.234994
2057.000000	0.235023
2058.000000	0.235079
2059.000000	0.235087
2060.000000	0.235695
2061.000000	0.237214
2062.000000	0.237867
2063.000000	0.238885
2064.000000	0.238973
2065.000000	0.238189
2066.000000	0.237812
2067.000000	0.237238
2068.000000	0.236850
2069.000000	0.237454
2070.000000	0.238673
2071.000000	0.239816
2072.000000	0.240737
2073.000000	0.241326
2074.000000	0.241528
2075.000000	0.241801
2076.000000	0.241915
2077.000000	0.242193
2078.000000	0.242332
2079.000000	0.242770
2080.000000	0.243723
2081.000000	0.244257
2082.000000	0.244866
2083.000000	0.245136
2084.000000	0.245182
2085.000000	0.245233
2086.000000	0.245335
2087.000000	0.244989
2088.000000	0.244406
2089.000000	0.243688
2090.000000	0.243430
2091.000000	0.243303
2092.000000	0.243714
2093.000000	0.244848
2094.000000	0.245713
2095.000000	0.247082
2096.000000	0.247665
2097.000000	0.247901
2098.000000	0.247503
2099.000000	0.247737
2100.000000	0.248368
2101.000000	0.249615
2102.000000	0.251617
2103.000000	0.251859
2104.000000	0.251421
2105.000000	0.251419
2106.000000	0.250359
2107.000000	0.250593
2108.000000	0.252302
2109.000000	0.252736
2110.000000	0.252835
2111.000000	0.252841
2112.000000	0.252012
2113.000000	0.251340
2114.000000	0.251669
2115.000000	0.251655
2116.000000	0.251795
2117.000000	0.252453
2118.000000	0.252792
2119.000000	0.252880
2120.000000	0.252855
2121.000000	0.252582
2122.000000	0.252340
2123.000000	0.251798
2124.000000	0.251680
2125.000000	0.251796
2126.000000	0.251804
2127.000000	0.251905
2128.000000	0.252090
2129.000000	0.252004
2130.000000	0.252458
2131.000000	0.252602
2132.000000	0.253666
2133.000000	0.255194
2134.000000	0.255684
2135.000000	0.256432
2136.000000	0.256721
2137.000000	0.256809
2138.000000	0.256326
2139.000000	0.256144
2140.000000	0.255969
2141.000000	0.255709
2142.000000	0.255191
2143.000000	0.255092
2144.000000	0.255519
2145.000000	0.255458
2146.000000	0.255890
2147.000000	0.255376
2148.000000	0.254805
2149.000000	0.254686
2150.000000	0.254820
2151.000000	0.256013
2152.000000	0.256371
2153.000000	0.256018
2154.000000	0.256249
2155.000000	0.256450
2156.000000	0.256521
2157.000000	0.257073
2158.000000	0.257129
2159.000000	0.256714
2160.000000	0.256454
2161.000000	0.255686
2162.000000	0.255832
2163.000000	0.256616
2164.000000	0.256750
2165.000000	0.256769
2166.000000	0.257652
2167.000000	0.257557
2168.000000	0.257100
2169.000000	0.257270
2170.000000	0.257147
2171.000000	0.256885
2172.000000	0.256558
2173.000000	0.255801
2174.000000	0.254252
2175.000000	0.253868
2176.000000	0.253297
2177.000000	0.253776
2178.000000	0.256446
2179.000000	0.257345
2180.000000	0.257879
2181.000000	0.258401
2182.000000	0.257655
2183.000000	0.256773
2184.000000	0.256466
2185.000000	0.256178
2186.000000	0.257111
2187.000000	0.257959
2188.000000	0.258056
2189.000000	0.258073
2190.000000	0.256457
2191.000000	0.254448
2192.000000	0.253617
2193.000000	0.253209
2194.000000	0.253401
2195.000000	0.255269
2196.000000	0.255827
2197.000000	0.255954
2198.000000	0.256650
2199.000000	0.257398
2200.000000	0.257958
2201.000000	0.259030
2202.000000	0.259597
2203.000000	0.259724
2204.000000	0.258785
2205.000000	0.256738
2206.000000	0.256900
2207.000000	0.256797
2208.000000	0.255998
2209.000000	0.256681
2210.000000	0.257655
2211.000000	0.257996
2212.000000	0.257760
2213.000000	0.256249
2214.000000	0.252491
2215.000000	0.251615
2216.000000	0.251239
2217.000000	0.250865
2218.000000	0.253562
2219.000000	0.253441
2220.000000	0.249304
2221.000000	0.249049
2222.000000	0.250728
2223.000000	0.250984
2224.000000	0.252466
2225.000000	0.253499
2226.000000	0.252829
2227.000000	0.251937
2228.000000	0.251235
2229.000000	0.252590
2230.000000	0.253088
2231.000000	0.252183
2232.000000	0.253222
2233.000000	0.252850
2234.000000	0.252238
2235.000000	0.253123
2236.000000	0.253338
2237.000000	0.253207
2238.000000	0.253621
2239.000000	0.255060
2240.000000	0.254982
2241.000000	0.254385
2242.000000	0.253221
2243.000000	0.249304
2244.000000	0.248309
2245.000000	0.248494
2246.000000	0.249205
2247.000000	0.252707
2248.000000	0.254392
2249.000000	0.256216
2250.000000	0.255979
2251.000000	0.255822
2252.000000	0.254908
2253.000000	0.253142
2254.000000	0.254076
2255.000000	0.253958
2256.000000	0.253904
2257.000000	0.254784
2258.000000	0.252944
2259.000000	0.250367
2260.000000	0.249717
2261.000000	0.249358
2262.000000	0.249182
2263.000000	0.250086
2264.000000	0.252181
2265.000000	0.253077
2266.000000	0.255083
2267.000000	0.255412
2268.000000	0.254901
2269.000000	0.254413
2270.000000	0.253577
2271.000000	0.250712
2272.000000	0.245449
2273.000000	0.242422
2274.000000	0.237097
2275.000000	0.235879
2276.000000	0.238042
2277.000000	0.240892
2278.000000	0.244596
2279.000000	0.247880
2280.000000	0.247100
2281.000000	0.245967
2282.000000	0.244768
2283.000000	0.243933
2284.000000	0.243948
2285.000000	0.245060
2286.000000	0.246671
2287.000000	0.245087
2288.000000	0.243978
2289.000000	0.242658
2290.000000	0.238239
2291.000000	0.235627
2292.000000	0.234600
2293.000000	0.234038
2294.000000	0.233961
2295.000000	0.236051
2296.000000	0.235881
2297.000000	0.234617
2298.000000	0.233952
2299.000000	0.232277
2300.000000	0.232176
2301.000000	0.232916
2302.000000	0.233441
2303.000000	0.234812
2304.000000	0.236001
2305.000000	0.238111
2306.000000	0.238446
2307.000000	0.237560
2308.000000	0.237326
2309.000000	0.236305
2310.000000	0.235371
2311.000000	0.236939
2312.000000	0.237239
2313.000000	0.236838
2314.000000	0.236494
2315.000000	0.234665
2316.000000	0.234336
2317.000000	0.233193
2318.000000	0.230912
2319.000000	0.231246
2320.000000	0.231395
2321.000000	0.232936
2322.000000	0.236543
2323.000000	0.237936
2324.000000	0.238453
2325.000000	0.237936
2326.000000	0.235539
2327.000000	0.234218
2328.000000	0.231409
2329.000000	0.228467
2330.000000	0.227260
2331.000000	0.225171
2332.000000	0.225889
2333.000000	0.227658
2334.000000	0.228057
2335.000000	0.227923
2336.000000	0.226562
2337.000000	0.226040
2338.000000	0.224658
2339.000000	0.224056
2340.000000	0.225088
2341.000000	0.225124
2342.000000	0.224121
2343.000000	0.223857
2344.000000	0.224812
2345.000000	0.224017
2346.000000	0.220996
2347.000000	0.220652
2348.000000	0.221077
2349.000000	0.221357
2350.000000	0.221956
2351.000000	0.225170
2352.000000	0.226404
2353.000000	0.226488
2354.000000	0.225756
2355.000000	0.221643
2356.000000	0.216995
2357.000000	0.213494
2358.000000	0.212048
2359.000000	0.213618
2360.000000	0.216030
2361.000000	0.217367
2362.000000	0.218283
2363.000000	0.218193
2364.000000	0.215698
2365.000000	0.213293
2366.000000	0.208957
2367.000000	0.206454
2368.000000	0.209393
2369.000000	0.211392
2370.000000	0.212396
2371.000000	0.212172
2372.000000	0.209251
2373.000000	0.205695
2374.000000	0.204400
2375.000000	0.202582
2376.000000	0.201818
2377.000000	0.202130
2378.000000	0.201333
2379.000000	0.206764
2380.000000	0.210982
2381.000000	0.211250
2382.000000	0.212139
2383.000000	0.208631
2384.000000	0.208773
2385.000000	0.211986
2386.000000	0.210372
2387.000000	0.212232
2388.000000	0.209441
2389.000000	0.202596
2390.000000	0.200707
2391.000000	0.199402
2392.000000	0.202037
2393.000000	0.204644
2394.000000	0.207949
2395.000000	0.210142
2396.000000	0.206105
2397.000000	0.207387
2398.000000	0.209448
2399.000000	0.204658
2400.000000	0.204044
2401.000000	0.204938
2402.000000	0.202568
2403.000000	0.201075
2404.000000	0.201419
2405.000000	0.200990
2406.000000	0.196073
2407.000000	0.194457
2408.000000	0.200079
2409.000000	0.199443
2410.000000	0.198589
2411.000000	0.203605
2412.000000	0.197920
2413.000000	0.196477
2414.000000	0.203985
2415.000000	0.200440
2416.000000	0.203921
2417.000000	0.211579
2418.000000	0.206114
2419.000000	0.206138
2420.000000	0.208503
2421.000000	0.202813
2422.000000	0.204910
2423.000000	0.210566
2424.000000	0.210413
2425.000000	0.210302
2426.000000	0.206677
2427.000000	0.197318
2428.000000	0.183432
2429.000000	0.172489
2430.000000	0.164767
2431.000000	0.165700
2432.000000	0.175354
2433.000000	0.178433
2434.000000	0.188508
2435.000000	0.194283
2436.000000	0.193659
2437.000000	0.208745
2438.000000	0.210401
2439.000000	0.199871
2440.000000	0.194384
2441.000000	0.186098
2442.000000	0.182415
2443.000000	0.189107
2444.000000	0.191164
2445.000000	0.188488
2446.000000	0.188532
2447.000000	0.177424
2448.000000	0.176850
2449.000000	0.174965
2450.000000	0.161748
2451.000000	0.162549
2452.000000	0.161672
2453.000000	0.164559
2454.000000	0.166383
2455.000000	0.166143
2456.000000	0.168608
2457.000000	0.166774
2458.000000	0.172488
2459.000000	0.176534
2460.000000	0.179667
2461.000000	0.188914
2462.000000	0.191881
2463.000000	0.180366
2464.000000	0.164761
2465.000000	0.157034
2466.000000	0.157772
2467.000000	0.162381
2468.000000	0.166225
2469.000000	0.162080
2470.000000	0.146310
2471.000000	0.138183
2472.000000	0.150171
2473.000000	0.170414
2474.000000	0.183921
2475.000000	0.203375
2476.000000	0.212371
2477.000000	0.188665
2478.000000	0.182041
2479.000000	0.185164
2480.000000	0.184640
2481.000000	0.197597
2482.000000	0.208200
2483.000000	0.200944
2484.000000	0.195322
2485.000000	0.207325
2486.000000	0.204874
2487.000000	0.173167
2488.000000	0.139000
2489.000000	0.120893
2490.000000	0.096567
2491.000000	0.161392
2492.000000	0.189658
2493.000000	0.201825
2494.000000	0.229782
2495.000000	0.265710
2496.000000	0.259845
2497.000000	0.227103
2498.000000	0.210136
2499.000000	0.153752
2500.000000	0.148510
