# Wavelength	NAu-2-30_HEX-60_FV7-10_00001.asd.rts.txt
350.000000	0.160820
351.000000	0.160986
352.000000	0.167977
353.000000	0.178801
354.000000	0.186926
355.000000	0.167567
356.000000	0.162108
357.000000	0.172528
358.000000	0.169854
359.000000	0.170433
360.000000	0.175935
361.000000	0.182816
362.000000	0.179152
363.000000	0.174140
364.000000	0.173383
365.000000	0.170843
366.000000	0.168513
367.000000	0.168133
368.000000	0.171988
369.000000	0.179074
370.000000	0.180771
371.000000	0.170210
372.000000	0.170647
373.000000	0.173975
374.000000	0.173918
375.000000	0.177349
376.000000	0.179384
377.000000	0.177922
378.000000	0.173035
379.000000	0.173866
380.000000	0.176291
381.000000	0.173689
382.000000	0.173721
383.000000	0.174511
384.000000	0.174838
385.000000	0.178373
386.000000	0.179272
387.000000	0.177445
388.000000	0.178601
389.000000	0.180037
390.000000	0.180987
391.000000	0.180977
392.000000	0.179336
393.000000	0.178787
394.000000	0.180634
395.000000	0.180583
396.000000	0.180397
397.000000	0.180456
398.000000	0.178889
399.000000	0.180484
400.000000	0.183051
401.000000	0.181595
402.000000	0.180778
403.000000	0.180678
404.000000	0.180841
405.000000	0.181772
406.000000	0.182323
407.000000	0.182179
408.000000	0.182208
409.000000	0.182541
410.000000	0.183151
411.000000	0.183844
412.000000	0.183885
413.000000	0.183658
414.000000	0.183771
415.000000	0.184361
416.000000	0.184829
417.000000	0.184870
418.000000	0.184735
419.000000	0.185381
420.000000	0.186590
421.000000	0.187124
422.000000	0.187205
423.000000	0.187225
424.000000	0.187654
425.000000	0.187965
426.000000	0.188660
427.000000	0.189766
428.000000	0.189434
429.000000	0.189491
430.000000	0.190316
431.000000	0.190377
432.000000	0.190486
433.000000	0.190758
434.000000	0.191134
435.000000	0.191717
436.000000	0.191879
437.000000	0.191312
438.000000	0.191859
439.000000	0.192404
440.000000	0.192512
441.000000	0.193075
442.000000	0.193466
443.000000	0.193595
444.000000	0.193849
445.000000	0.194581
446.000000	0.195387
447.000000	0.195580
448.000000	0.195365
449.000000	0.195567
450.000000	0.196514
451.000000	0.197085
452.000000	0.197389
453.000000	0.197587
454.000000	0.198138
455.000000	0.198687
456.000000	0.199152
457.000000	0.199422
458.000000	0.199802
459.000000	0.200123
460.000000	0.200317
461.000000	0.200913
462.000000	0.201297
463.000000	0.201313
464.000000	0.202173
465.000000	0.202693
466.000000	0.202815
467.000000	0.203267
468.000000	0.203648
469.000000	0.203963
470.000000	0.204409
471.000000	0.204725
472.000000	0.204925
473.000000	0.205141
474.000000	0.205706
475.000000	0.206141
476.000000	0.206377
477.000000	0.206463
478.000000	0.206767
479.000000	0.207326
480.000000	0.207743
481.000000	0.207920
482.000000	0.208269
483.000000	0.208868
484.000000	0.209021
485.000000	0.209175
486.000000	0.209634
487.000000	0.209942
488.000000	0.210117
489.000000	0.210265
490.000000	0.210557
491.000000	0.210707
492.000000	0.210900
493.000000	0.211256
494.000000	0.211389
495.000000	0.211473
496.000000	0.211610
497.000000	0.211668
498.000000	0.211761
499.000000	0.211962
500.000000	0.212145
501.000000	0.212248
502.000000	0.212369
503.000000	0.212601
504.000000	0.212758
505.000000	0.212908
506.000000	0.213140
507.000000	0.213336
508.000000	0.213643
509.000000	0.214068
510.000000	0.214435
511.000000	0.214845
512.000000	0.215258
513.000000	0.215466
514.000000	0.215863
515.000000	0.216384
516.000000	0.216784
517.000000	0.217177
518.000000	0.217581
519.000000	0.217948
520.000000	0.218387
521.000000	0.218882
522.000000	0.219421
523.000000	0.219978
524.000000	0.220649
525.000000	0.221360
526.000000	0.221987
527.000000	0.222798
528.000000	0.223754
529.000000	0.224798
530.000000	0.225912
531.000000	0.227147
532.000000	0.228437
533.000000	0.229720
534.000000	0.231036
535.000000	0.232377
536.000000	0.233719
537.000000	0.235058
538.000000	0.236341
539.000000	0.237499
540.000000	0.238724
541.000000	0.239877
542.000000	0.240876
543.000000	0.241949
544.000000	0.243038
545.000000	0.244058
546.000000	0.245084
547.000000	0.246207
548.000000	0.247410
549.000000	0.248504
550.000000	0.249654
551.000000	0.250995
552.000000	0.252553
553.000000	0.253990
554.000000	0.255480
555.000000	0.257167
556.000000	0.258907
557.000000	0.260633
558.000000	0.262424
559.000000	0.264194
560.000000	0.266059
561.000000	0.268008
562.000000	0.269825
563.000000	0.271640
564.000000	0.273389
565.000000	0.274915
566.000000	0.276445
567.000000	0.277926
568.000000	0.279302
569.000000	0.280642
570.000000	0.281830
571.000000	0.282874
572.000000	0.283928
573.000000	0.284745
574.000000	0.285439
575.000000	0.286268
576.000000	0.286903
577.000000	0.287363
578.000000	0.287780
579.000000	0.288181
580.000000	0.288484
581.000000	0.288669
582.000000	0.288820
583.000000	0.288935
584.000000	0.288987
585.000000	0.288928
586.000000	0.288848
587.000000	0.288735
588.000000	0.288562
589.000000	0.288335
590.000000	0.288084
591.000000	0.287810
592.000000	0.287419
593.000000	0.287056
594.000000	0.286704
595.000000	0.286174
596.000000	0.285694
597.000000	0.285262
598.000000	0.284698
599.000000	0.284140
600.000000	0.283547
601.000000	0.282828
602.000000	0.282239
603.000000	0.281654
604.000000	0.281012
605.000000	0.280350
606.000000	0.279683
607.000000	0.279035
608.000000	0.278436
609.000000	0.277825
610.000000	0.277221
611.000000	0.276654
612.000000	0.276069
613.000000	0.275516
614.000000	0.275047
615.000000	0.274567
616.000000	0.274071
617.000000	0.273556
618.000000	0.273112
619.000000	0.272676
620.000000	0.272176
621.000000	0.271608
622.000000	0.271088
623.000000	0.270631
624.000000	0.270218
625.000000	0.269787
626.000000	0.269429
627.000000	0.269158
628.000000	0.268852
629.000000	0.268644
630.000000	0.268396
631.000000	0.268086
632.000000	0.267885
633.000000	0.267659
634.000000	0.267272
635.000000	0.267046
636.000000	0.266963
637.000000	0.266937
638.000000	0.266841
639.000000	0.266773
640.000000	0.266748
641.000000	0.266567
642.000000	0.266537
643.000000	0.266633
644.000000	0.266721
645.000000	0.266675
646.000000	0.266679
647.000000	0.266835
648.000000	0.266985
649.000000	0.267186
650.000000	0.267425
651.000000	0.267652
652.000000	0.267933
653.000000	0.268241
654.000000	0.268440
655.000000	0.268711
656.000000	0.269064
657.000000	0.269440
658.000000	0.269916
659.000000	0.270434
660.000000	0.270924
661.000000	0.271321
662.000000	0.271774
663.000000	0.272336
664.000000	0.272913
665.000000	0.273563
666.000000	0.274244
667.000000	0.274876
668.000000	0.275511
669.000000	0.276204
670.000000	0.276979
671.000000	0.277769
672.000000	0.278621
673.000000	0.279524
674.000000	0.280439
675.000000	0.281397
676.000000	0.282382
677.000000	0.283388
678.000000	0.284456
679.000000	0.285527
680.000000	0.286576
681.000000	0.287642
682.000000	0.288877
683.000000	0.290181
684.000000	0.291412
685.000000	0.292673
686.000000	0.293980
687.000000	0.295275
688.000000	0.296633
689.000000	0.298026
690.000000	0.299479
691.000000	0.301097
692.000000	0.302659
693.000000	0.304194
694.000000	0.305848
695.000000	0.307510
696.000000	0.309140
697.000000	0.310746
698.000000	0.312511
699.000000	0.314346
700.000000	0.316153
701.000000	0.317930
702.000000	0.319798
703.000000	0.321746
704.000000	0.323631
705.000000	0.325639
706.000000	0.327709
707.000000	0.329783
708.000000	0.331879
709.000000	0.333964
710.000000	0.336039
711.000000	0.338173
712.000000	0.340285
713.000000	0.342375
714.000000	0.344493
715.000000	0.346661
716.000000	0.348853
717.000000	0.350995
718.000000	0.353184
719.000000	0.355422
720.000000	0.357694
721.000000	0.359893
722.000000	0.362054
723.000000	0.364254
724.000000	0.366424
725.000000	0.368647
726.000000	0.370962
727.000000	0.373183
728.000000	0.375345
729.000000	0.377531
730.000000	0.379724
731.000000	0.381859
732.000000	0.384042
733.000000	0.386312
734.000000	0.388473
735.000000	0.390513
736.000000	0.392620
737.000000	0.394726
738.000000	0.396641
739.000000	0.398590
740.000000	0.400537
741.000000	0.402519
742.000000	0.404426
743.000000	0.406223
744.000000	0.408070
745.000000	0.409780
746.000000	0.411507
747.000000	0.413352
748.000000	0.415128
749.000000	0.416766
750.000000	0.418256
751.000000	0.419902
752.000000	0.421414
753.000000	0.422778
754.000000	0.424173
755.000000	0.425560
756.000000	0.426921
757.000000	0.428182
758.000000	0.429437
759.000000	0.430700
760.000000	0.431877
761.000000	0.433034
762.000000	0.434218
763.000000	0.435348
764.000000	0.436376
765.000000	0.437389
766.000000	0.438332
767.000000	0.439150
768.000000	0.439982
769.000000	0.440824
770.000000	0.441649
771.000000	0.442385
772.000000	0.443184
773.000000	0.443933
774.000000	0.444610
775.000000	0.445233
776.000000	0.445867
777.000000	0.446509
778.000000	0.447062
779.000000	0.447545
780.000000	0.448004
781.000000	0.448482
782.000000	0.448936
783.000000	0.449402
784.000000	0.449700
785.000000	0.450039
786.000000	0.450414
787.000000	0.450764
788.000000	0.450954
789.000000	0.451191
790.000000	0.451484
791.000000	0.451812
792.000000	0.452185
793.000000	0.452487
794.000000	0.452677
795.000000	0.453008
796.000000	0.453163
797.000000	0.453125
798.000000	0.453204
799.000000	0.453229
800.000000	0.453266
801.000000	0.453418
802.000000	0.453548
803.000000	0.453654
804.000000	0.453776
805.000000	0.453820
806.000000	0.453832
807.000000	0.453914
808.000000	0.453966
809.000000	0.453964
810.000000	0.453935
811.000000	0.453882
812.000000	0.453772
813.000000	0.453762
814.000000	0.453827
815.000000	0.453809
816.000000	0.453760
817.000000	0.453699
818.000000	0.453533
819.000000	0.453461
820.000000	0.453393
821.000000	0.453244
822.000000	0.453169
823.000000	0.453112
824.000000	0.452986
825.000000	0.452875
826.000000	0.452730
827.000000	0.452554
828.000000	0.452411
829.000000	0.452273
830.000000	0.452028
831.000000	0.451808
832.000000	0.451631
833.000000	0.451482
834.000000	0.451337
835.000000	0.451204
836.000000	0.450991
837.000000	0.450640
838.000000	0.450335
839.000000	0.450379
840.000000	0.450386
841.000000	0.450295
842.000000	0.450083
843.000000	0.449903
844.000000	0.449639
845.000000	0.449304
846.000000	0.449168
847.000000	0.449079
848.000000	0.448932
849.000000	0.448710
850.000000	0.448476
851.000000	0.448188
852.000000	0.447934
853.000000	0.447842
854.000000	0.447566
855.000000	0.447334
856.000000	0.447212
857.000000	0.446916
858.000000	0.446653
859.000000	0.446415
860.000000	0.446150
861.000000	0.445878
862.000000	0.445655
863.000000	0.445421
864.000000	0.445126
865.000000	0.444778
866.000000	0.444466
867.000000	0.444303
868.000000	0.444150
869.000000	0.443874
870.000000	0.443532
871.000000	0.443165
872.000000	0.442737
873.000000	0.442243
874.000000	0.442076
875.000000	0.441843
876.000000	0.441536
877.000000	0.441193
878.000000	0.440728
879.000000	0.440380
880.000000	0.440081
881.000000	0.439832
882.000000	0.439599
883.000000	0.439412
884.000000	0.439208
885.000000	0.438848
886.000000	0.438538
887.000000	0.438366
888.000000	0.438013
889.000000	0.437675
890.000000	0.437260
891.000000	0.436919
892.000000	0.436651
893.000000	0.436392
894.000000	0.436218
895.000000	0.435879
896.000000	0.435469
897.000000	0.435103
898.000000	0.434869
899.000000	0.434618
900.000000	0.434375
901.000000	0.434093
902.000000	0.433806
903.000000	0.433454
904.000000	0.433128
905.000000	0.432806
906.000000	0.432629
907.000000	0.432423
908.000000	0.432186
909.000000	0.431864
910.000000	0.431450
911.000000	0.431166
912.000000	0.431142
913.000000	0.430907
914.000000	0.430549
915.000000	0.430236
916.000000	0.429951
917.000000	0.429650
918.000000	0.429389
919.000000	0.429168
920.000000	0.428934
921.000000	0.428705
922.000000	0.428522
923.000000	0.428358
924.000000	0.427968
925.000000	0.427475
926.000000	0.427060
927.000000	0.426750
928.000000	0.426481
929.000000	0.426163
930.000000	0.425759
931.000000	0.425497
932.000000	0.425302
933.000000	0.425115
934.000000	0.424777
935.000000	0.424487
936.000000	0.424244
937.000000	0.423904
938.000000	0.423687
939.000000	0.423549
940.000000	0.423310
941.000000	0.422961
942.000000	0.422627
943.000000	0.422481
944.000000	0.422348
945.000000	0.422012
946.000000	0.421651
947.000000	0.421387
948.000000	0.421200
949.000000	0.421055
950.000000	0.420872
951.000000	0.420592
952.000000	0.420350
953.000000	0.420015
954.000000	0.419733
955.000000	0.419542
956.000000	0.419518
957.000000	0.419300
958.000000	0.418855
959.000000	0.418482
960.000000	0.418161
961.000000	0.417903
962.000000	0.417679
963.000000	0.417497
964.000000	0.417330
965.000000	0.417079
966.000000	0.416651
967.000000	0.416780
968.000000	0.416727
969.000000	0.416370
970.000000	0.416093
971.000000	0.415947
972.000000	0.415832
973.000000	0.415649
974.000000	0.415596
975.000000	0.415412
976.000000	0.415210
977.000000	0.415094
978.000000	0.414923
979.000000	0.414943
980.000000	0.414743
981.000000	0.414390
982.000000	0.414124
983.000000	0.413886
984.000000	0.413839
985.000000	0.414143
986.000000	0.414190
987.000000	0.413987
988.000000	0.413547
989.000000	0.413158
990.000000	0.413093
991.000000	0.413158
992.000000	0.413156
993.000000	0.413468
994.000000	0.413537
995.000000	0.413513
996.000000	0.413481
997.000000	0.412986
998.000000	0.412919
999.000000	0.413469
1000.000000	0.413235
1001.000000	0.413610
1002.000000	0.413448
1003.000000	0.412566
1004.000000	0.412371
1005.000000	0.412571
1006.000000	0.412322
1007.000000	0.412186
1008.000000	0.411985
1009.000000	0.411839
1010.000000	0.411655
1011.000000	0.411592
1012.000000	0.412493
1013.000000	0.412216
1014.000000	0.411152
1015.000000	0.411754
1016.000000	0.412124
1017.000000	0.411716
1018.000000	0.412577
1019.000000	0.412937
1020.000000	0.412362
1021.000000	0.411903
1022.000000	0.412247
1023.000000	0.412493
1024.000000	0.411928
1025.000000	0.412588
1026.000000	0.413146
1027.000000	0.413201
1028.000000	0.413735
1029.000000	0.413772
1030.000000	0.413891
1031.000000	0.414146
1032.000000	0.413970
1033.000000	0.413462
1034.000000	0.413227
1035.000000	0.412939
1036.000000	0.413078
1037.000000	0.413484
1038.000000	0.413819
1039.000000	0.414666
1040.000000	0.415149
1041.000000	0.415569
1042.000000	0.415922
1043.000000	0.415923
1044.000000	0.415906
1045.000000	0.416042
1046.000000	0.416191
1047.000000	0.416336
1048.000000	0.416677
1049.000000	0.416852
1050.000000	0.416810
1051.000000	0.416987
1052.000000	0.417186
1053.000000	0.417311
1054.000000	0.417613
1055.000000	0.417879
1056.000000	0.417870
1057.000000	0.418863
1058.000000	0.419377
1059.000000	0.419340
1060.000000	0.419671
1061.000000	0.419794
1062.000000	0.419764
1063.000000	0.420520
1064.000000	0.420854
1065.000000	0.420973
1066.000000	0.421248
1067.000000	0.421537
1068.000000	0.421714
1069.000000	0.421866
1070.000000	0.422029
1071.000000	0.422048
1072.000000	0.422207
1073.000000	0.422414
1074.000000	0.423067
1075.000000	0.423547
1076.000000	0.423972
1077.000000	0.424047
1078.000000	0.423874
1079.000000	0.423790
1080.000000	0.423380
1081.000000	0.423402
1082.000000	0.423816
1083.000000	0.424048
1084.000000	0.424553
1085.000000	0.424844
1086.000000	0.424934
1087.000000	0.425095
1088.000000	0.425040
1089.000000	0.424991
1090.000000	0.424769
1091.000000	0.424773
1092.000000	0.424904
1093.000000	0.425484
1094.000000	0.425845
1095.000000	0.426296
1096.000000	0.426753
1097.000000	0.427172
1098.000000	0.427613
1099.000000	0.428180
1100.000000	0.428572
1101.000000	0.428862
1102.000000	0.428927
1103.000000	0.428502
1104.000000	0.428645
1105.000000	0.428839
1106.000000	0.429121
1107.000000	0.429975
1108.000000	0.430381
1109.000000	0.430581
1110.000000	0.430701
1111.000000	0.430965
1112.000000	0.431211
1113.000000	0.431356
1114.000000	0.431538
1115.000000	0.431755
1116.000000	0.431956
1117.000000	0.431991
1118.000000	0.431935
1119.000000	0.431977
1120.000000	0.431756
1121.000000	0.431829
1122.000000	0.432469
1123.000000	0.433019
1124.000000	0.433304
1125.000000	0.433577
1126.000000	0.433555
1127.000000	0.433671
1128.000000	0.433820
1129.000000	0.434087
1130.000000	0.434188
1131.000000	0.434366
1132.000000	0.434343
1133.000000	0.434114
1134.000000	0.434137
1135.000000	0.434126
1136.000000	0.434168
1137.000000	0.434332
1138.000000	0.434390
1139.000000	0.434569
1140.000000	0.434750
1141.000000	0.434827
1142.000000	0.434928
1143.000000	0.434976
1144.000000	0.435112
1145.000000	0.435058
1146.000000	0.434923
1147.000000	0.434791
1148.000000	0.434395
1149.000000	0.434337
1150.000000	0.434473
1151.000000	0.434458
1152.000000	0.434377
1153.000000	0.434447
1154.000000	0.434481
1155.000000	0.434469
1156.000000	0.434567
1157.000000	0.434661
1158.000000	0.434594
1159.000000	0.434550
1160.000000	0.434564
1161.000000	0.434578
1162.000000	0.434584
1163.000000	0.434796
1164.000000	0.434946
1165.000000	0.434883
1166.000000	0.434928
1167.000000	0.434781
1168.000000	0.434836
1169.000000	0.435139
1170.000000	0.435229
1171.000000	0.435336
1172.000000	0.435446
1173.000000	0.435307
1174.000000	0.435407
1175.000000	0.435650
1176.000000	0.435786
1177.000000	0.436193
1178.000000	0.436361
1179.000000	0.436370
1180.000000	0.436273
1181.000000	0.436131
1182.000000	0.435884
1183.000000	0.435807
1184.000000	0.436044
1185.000000	0.436200
1186.000000	0.436584
1187.000000	0.436650
1188.000000	0.436514
1189.000000	0.436506
1190.000000	0.436542
1191.000000	0.436536
1192.000000	0.436693
1193.000000	0.436941
1194.000000	0.436992
1195.000000	0.437088
1196.000000	0.437257
1197.000000	0.437348
1198.000000	0.437365
1199.000000	0.437428
1200.000000	0.437520
1201.000000	0.437510
1202.000000	0.437609
1203.000000	0.437784
1204.000000	0.437692
1205.000000	0.437686
1206.000000	0.437691
1207.000000	0.437725
1208.000000	0.437681
1209.000000	0.437813
1210.000000	0.437884
1211.000000	0.437818
1212.000000	0.437838
1213.000000	0.438025
1214.000000	0.438148
1215.000000	0.438132
1216.000000	0.438237
1217.000000	0.438443
1218.000000	0.438549
1219.000000	0.438597
1220.000000	0.438881
1221.000000	0.439148
1222.000000	0.439039
1223.000000	0.438981
1224.000000	0.439057
1225.000000	0.439163
1226.000000	0.439411
1227.000000	0.439698
1228.000000	0.439932
1229.000000	0.440046
1230.000000	0.439969
1231.000000	0.439958
1232.000000	0.440070
1233.000000	0.440288
1234.000000	0.440560
1235.000000	0.440736
1236.000000	0.440769
1237.000000	0.440925
1238.000000	0.441050
1239.000000	0.441107
1240.000000	0.441128
1241.000000	0.441274
1242.000000	0.441324
1243.000000	0.441350
1244.000000	0.441593
1245.000000	0.441885
1246.000000	0.442015
1247.000000	0.442277
1248.000000	0.442588
1249.000000	0.442805
1250.000000	0.443054
1251.000000	0.443210
1252.000000	0.443291
1253.000000	0.443279
1254.000000	0.443293
1255.000000	0.443178
1256.000000	0.443280
1257.000000	0.443500
1258.000000	0.443709
1259.000000	0.444075
1260.000000	0.444267
1261.000000	0.444150
1262.000000	0.444188
1263.000000	0.444214
1264.000000	0.444299
1265.000000	0.444564
1266.000000	0.444884
1267.000000	0.445104
1268.000000	0.445245
1269.000000	0.445388
1270.000000	0.445643
1271.000000	0.445742
1272.000000	0.445902
1273.000000	0.446106
1274.000000	0.446061
1275.000000	0.446087
1276.000000	0.446217
1277.000000	0.446392
1278.000000	0.446352
1279.000000	0.446461
1280.000000	0.446654
1281.000000	0.446748
1282.000000	0.446925
1283.000000	0.447165
1284.000000	0.447315
1285.000000	0.447415
1286.000000	0.447447
1287.000000	0.447492
1288.000000	0.447621
1289.000000	0.447731
1290.000000	0.447853
1291.000000	0.447928
1292.000000	0.447978
1293.000000	0.448037
1294.000000	0.448024
1295.000000	0.448139
1296.000000	0.448193
1297.000000	0.448271
1298.000000	0.448410
1299.000000	0.448301
1300.000000	0.448301
1301.000000	0.448251
1302.000000	0.448164
1303.000000	0.448323
1304.000000	0.448334
1305.000000	0.448349
1306.000000	0.448317
1307.000000	0.448277
1308.000000	0.448311
1309.000000	0.448413
1310.000000	0.448462
1311.000000	0.448605
1312.000000	0.448527
1313.000000	0.448522
1314.000000	0.448422
1315.000000	0.448163
1316.000000	0.448118
1317.000000	0.448035
1318.000000	0.447847
1319.000000	0.447808
1320.000000	0.447927
1321.000000	0.447994
1322.000000	0.447916
1323.000000	0.447609
1324.000000	0.447178
1325.000000	0.446674
1326.000000	0.446231
1327.000000	0.446218
1328.000000	0.446421
1329.000000	0.446216
1330.000000	0.445854
1331.000000	0.445632
1332.000000	0.445258
1333.000000	0.444999
1334.000000	0.445167
1335.000000	0.445075
1336.000000	0.444724
1337.000000	0.444460
1338.000000	0.444126
1339.000000	0.443713
1340.000000	0.443476
1341.000000	0.443368
1342.000000	0.443202
1343.000000	0.443011
1344.000000	0.442592
1345.000000	0.442151
1346.000000	0.441909
1347.000000	0.441517
1348.000000	0.441296
1349.000000	0.440910
1350.000000	0.440475
1351.000000	0.440099
1352.000000	0.439732
1353.000000	0.439498
1354.000000	0.439176
1355.000000	0.438856
1356.000000	0.438609
1357.000000	0.438109
1358.000000	0.437720
1359.000000	0.437337
1360.000000	0.436985
1361.000000	0.436690
1362.000000	0.436467
1363.000000	0.436386
1364.000000	0.436115
1365.000000	0.435743
1366.000000	0.435377
1367.000000	0.434927
1368.000000	0.434359
1369.000000	0.433993
1370.000000	0.433492
1371.000000	0.432963
1372.000000	0.432328
1373.000000	0.431578
1374.000000	0.431048
1375.000000	0.430429
1376.000000	0.429947
1377.000000	0.429643
1378.000000	0.428988
1379.000000	0.428092
1380.000000	0.427325
1381.000000	0.426370
1382.000000	0.425288
1383.000000	0.424355
1384.000000	0.423054
1385.000000	0.421500
1386.000000	0.420115
1387.000000	0.418628
1388.000000	0.416978
1389.000000	0.415357
1390.000000	0.413673
1391.000000	0.411837
1392.000000	0.409974
1393.000000	0.407898
1394.000000	0.405728
1395.000000	0.403498
1396.000000	0.401157
1397.000000	0.398578
1398.000000	0.395710
1399.000000	0.393069
1400.000000	0.390302
1401.000000	0.387643
1402.000000	0.385177
1403.000000	0.382737
1404.000000	0.380388
1405.000000	0.377960
1406.000000	0.375590
1407.000000	0.373323
1408.000000	0.370830
1409.000000	0.368495
1410.000000	0.366362
1411.000000	0.364241
1412.000000	0.362293
1413.000000	0.360377
1414.000000	0.358485
1415.000000	0.356755
1416.000000	0.355013
1417.000000	0.353276
1418.000000	0.351603
1419.000000	0.350041
1420.000000	0.348365
1421.000000	0.346768
1422.000000	0.345350
1423.000000	0.343960
1424.000000	0.342516
1425.000000	0.341176
1426.000000	0.339616
1427.000000	0.337987
1428.000000	0.336592
1429.000000	0.335280
1430.000000	0.334014
1431.000000	0.332877
1432.000000	0.331744
1433.000000	0.330630
1434.000000	0.329565
1435.000000	0.328637
1436.000000	0.327739
1437.000000	0.326901
1438.000000	0.326046
1439.000000	0.325258
1440.000000	0.324546
1441.000000	0.323796
1442.000000	0.323198
1443.000000	0.322640
1444.000000	0.322246
1445.000000	0.321937
1446.000000	0.321737
1447.000000	0.321608
1448.000000	0.321482
1449.000000	0.321375
1450.000000	0.321295
1451.000000	0.321177
1452.000000	0.320968
1453.000000	0.320772
1454.000000	0.320585
1455.000000	0.320458
1456.000000	0.320488
1457.000000	0.320503
1458.000000	0.320443
1459.000000	0.320378
1460.000000	0.320268
1461.000000	0.320120
1462.000000	0.320029
1463.000000	0.319950
1464.000000	0.319917
1465.000000	0.320018
1466.000000	0.320039
1467.000000	0.320052
1468.000000	0.320156
1469.000000	0.320313
1470.000000	0.320447
1471.000000	0.320633
1472.000000	0.320882
1473.000000	0.321113
1474.000000	0.321344
1475.000000	0.321761
1476.000000	0.322260
1477.000000	0.322840
1478.000000	0.323461
1479.000000	0.324164
1480.000000	0.324802
1481.000000	0.325408
1482.000000	0.326025
1483.000000	0.326811
1484.000000	0.327675
1485.000000	0.328480
1486.000000	0.329350
1487.000000	0.330204
1488.000000	0.330981
1489.000000	0.331790
1490.000000	0.332583
1491.000000	0.333373
1492.000000	0.334078
1493.000000	0.334780
1494.000000	0.335443
1495.000000	0.336075
1496.000000	0.336621
1497.000000	0.337262
1498.000000	0.337950
1499.000000	0.338665
1500.000000	0.339439
1501.000000	0.340110
1502.000000	0.340688
1503.000000	0.341365
1504.000000	0.341912
1505.000000	0.342398
1506.000000	0.343003
1507.000000	0.343435
1508.000000	0.344044
1509.000000	0.344640
1510.000000	0.344947
1511.000000	0.345403
1512.000000	0.345736
1513.000000	0.346068
1514.000000	0.346676
1515.000000	0.347163
1516.000000	0.347630
1517.000000	0.348079
1518.000000	0.348409
1519.000000	0.348681
1520.000000	0.348982
1521.000000	0.349178
1522.000000	0.349451
1523.000000	0.349906
1524.000000	0.350261
1525.000000	0.350667
1526.000000	0.351063
1527.000000	0.351341
1528.000000	0.351607
1529.000000	0.351838
1530.000000	0.352011
1531.000000	0.352236
1532.000000	0.352549
1533.000000	0.352833
1534.000000	0.353109
1535.000000	0.353445
1536.000000	0.353624
1537.000000	0.353798
1538.000000	0.354008
1539.000000	0.354058
1540.000000	0.354123
1541.000000	0.354345
1542.000000	0.354492
1543.000000	0.354549
1544.000000	0.354658
1545.000000	0.354809
1546.000000	0.354920
1547.000000	0.355017
1548.000000	0.355108
1549.000000	0.355074
1550.000000	0.355055
1551.000000	0.355146
1552.000000	0.355184
1553.000000	0.355249
1554.000000	0.355353
1555.000000	0.355388
1556.000000	0.355436
1557.000000	0.355433
1558.000000	0.355527
1559.000000	0.355612
1560.000000	0.355656
1561.000000	0.355818
1562.000000	0.355833
1563.000000	0.355752
1564.000000	0.355743
1565.000000	0.355671
1566.000000	0.355616
1567.000000	0.355721
1568.000000	0.355756
1569.000000	0.355865
1570.000000	0.356012
1571.000000	0.356149
1572.000000	0.356223
1573.000000	0.356334
1574.000000	0.356372
1575.000000	0.356346
1576.000000	0.356397
1577.000000	0.356437
1578.000000	0.356474
1579.000000	0.356608
1580.000000	0.356644
1581.000000	0.356678
1582.000000	0.356761
1583.000000	0.356846
1584.000000	0.356882
1585.000000	0.357078
1586.000000	0.357146
1587.000000	0.357068
1588.000000	0.357052
1589.000000	0.357016
1590.000000	0.357020
1591.000000	0.357096
1592.000000	0.357191
1593.000000	0.357348
1594.000000	0.357439
1595.000000	0.357552
1596.000000	0.357660
1597.000000	0.357804
1598.000000	0.357907
1599.000000	0.358048
1600.000000	0.358138
1601.000000	0.358244
1602.000000	0.358371
1603.000000	0.358558
1604.000000	0.358662
1605.000000	0.358760
1606.000000	0.358845
1607.000000	0.358952
1608.000000	0.359035
1609.000000	0.359198
1610.000000	0.359253
1611.000000	0.359179
1612.000000	0.359269
1613.000000	0.359488
1614.000000	0.359691
1615.000000	0.360126
1616.000000	0.360417
1617.000000	0.360566
1618.000000	0.360773
1619.000000	0.360924
1620.000000	0.361083
1621.000000	0.361255
1622.000000	0.361567
1623.000000	0.361911
1624.000000	0.362223
1625.000000	0.362511
1626.000000	0.362693
1627.000000	0.362708
1628.000000	0.362984
1629.000000	0.363357
1630.000000	0.363700
1631.000000	0.364104
1632.000000	0.364446
1633.000000	0.364713
1634.000000	0.365054
1635.000000	0.365511
1636.000000	0.365840
1637.000000	0.366208
1638.000000	0.366460
1639.000000	0.366603
1640.000000	0.366858
1641.000000	0.367121
1642.000000	0.367455
1643.000000	0.368029
1644.000000	0.368411
1645.000000	0.368736
1646.000000	0.368985
1647.000000	0.369124
1648.000000	0.369326
1649.000000	0.369634
1650.000000	0.369980
1651.000000	0.370407
1652.000000	0.370797
1653.000000	0.371138
1654.000000	0.371515
1655.000000	0.371848
1656.000000	0.372080
1657.000000	0.372365
1658.000000	0.372666
1659.000000	0.373016
1660.000000	0.373411
1661.000000	0.373781
1662.000000	0.374121
1663.000000	0.374386
1664.000000	0.374742
1665.000000	0.375166
1666.000000	0.375608
1667.000000	0.375998
1668.000000	0.376315
1669.000000	0.376572
1670.000000	0.376770
1671.000000	0.377016
1672.000000	0.377338
1673.000000	0.377615
1674.000000	0.377931
1675.000000	0.378317
1676.000000	0.378635
1677.000000	0.378823
1678.000000	0.378996
1679.000000	0.379261
1680.000000	0.379516
1681.000000	0.379841
1682.000000	0.380100
1683.000000	0.380329
1684.000000	0.380638
1685.000000	0.380891
1686.000000	0.381096
1687.000000	0.381298
1688.000000	0.381352
1689.000000	0.381433
1690.000000	0.381495
1691.000000	0.381721
1692.000000	0.381956
1693.000000	0.382091
1694.000000	0.382359
1695.000000	0.382641
1696.000000	0.382708
1697.000000	0.382815
1698.000000	0.382940
1699.000000	0.383106
1700.000000	0.383367
1701.000000	0.383654
1702.000000	0.383680
1703.000000	0.383779
1704.000000	0.384081
1705.000000	0.384266
1706.000000	0.384486
1707.000000	0.384687
1708.000000	0.384695
1709.000000	0.384798
1710.000000	0.385127
1711.000000	0.385384
1712.000000	0.385752
1713.000000	0.385936
1714.000000	0.386028
1715.000000	0.386149
1716.000000	0.386105
1717.000000	0.386287
1718.000000	0.386623
1719.000000	0.386820
1720.000000	0.387105
1721.000000	0.387389
1722.000000	0.387629
1723.000000	0.387837
1724.000000	0.388094
1725.000000	0.388408
1726.000000	0.388595
1727.000000	0.388780
1728.000000	0.389018
1729.000000	0.389057
1730.000000	0.389007
1731.000000	0.389140
1732.000000	0.389345
1733.000000	0.389587
1734.000000	0.389752
1735.000000	0.389988
1736.000000	0.390188
1737.000000	0.390441
1738.000000	0.390848
1739.000000	0.391069
1740.000000	0.391190
1741.000000	0.391333
1742.000000	0.391396
1743.000000	0.391643
1744.000000	0.391995
1745.000000	0.392112
1746.000000	0.392179
1747.000000	0.392263
1748.000000	0.392264
1749.000000	0.392261
1750.000000	0.392348
1751.000000	0.392681
1752.000000	0.392922
1753.000000	0.392970
1754.000000	0.393150
1755.000000	0.393230
1756.000000	0.393262
1757.000000	0.393471
1758.000000	0.393559
1759.000000	0.393339
1760.000000	0.393324
1761.000000	0.393303
1762.000000	0.393410
1763.000000	0.393826
1764.000000	0.393966
1765.000000	0.393981
1766.000000	0.394061
1767.000000	0.393816
1768.000000	0.393794
1769.000000	0.394119
1770.000000	0.394349
1771.000000	0.394618
1772.000000	0.394697
1773.000000	0.394494
1774.000000	0.394581
1775.000000	0.394741
1776.000000	0.394978
1777.000000	0.395466
1778.000000	0.395692
1779.000000	0.395759
1780.000000	0.395904
1781.000000	0.395971
1782.000000	0.396071
1783.000000	0.396243
1784.000000	0.396446
1785.000000	0.396576
1786.000000	0.396645
1787.000000	0.396815
1788.000000	0.397190
1789.000000	0.397424
1790.000000	0.397578
1791.000000	0.397723
1792.000000	0.397784
1793.000000	0.397820
1794.000000	0.397942
1795.000000	0.398094
1796.000000	0.398056
1797.000000	0.398201
1798.000000	0.398573
1799.000000	0.398839
1800.000000	0.399244
1801.000000	0.398328
1802.000000	0.398854
1803.000000	0.399473
1804.000000	0.399607
1805.000000	0.399309
1806.000000	0.399153
1807.000000	0.398391
1808.000000	0.398285
1809.000000	0.398615
1810.000000	0.398767
1811.000000	0.399264
1812.000000	0.400331
1813.000000	0.400862
1814.000000	0.401561
1815.000000	0.401837
1816.000000	0.401518
1817.000000	0.401387
1818.000000	0.400973
1819.000000	0.401306
1820.000000	0.401581
1821.000000	0.401637
1822.000000	0.401466
1823.000000	0.400640
1824.000000	0.400383
1825.000000	0.400444
1826.000000	0.400193
1827.000000	0.399346
1828.000000	0.399611
1829.000000	0.400210
1830.000000	0.399347
1831.000000	0.399111
1832.000000	0.399400
1833.000000	0.399225
1834.000000	0.398575
1835.000000	0.398264
1836.000000	0.398211
1837.000000	0.397901
1838.000000	0.397372
1839.000000	0.396396
1840.000000	0.396418
1841.000000	0.395673
1842.000000	0.394872
1843.000000	0.393858
1844.000000	0.393540
1845.000000	0.393111
1846.000000	0.392711
1847.000000	0.392996
1848.000000	0.392437
1849.000000	0.391385
1850.000000	0.390229
1851.000000	0.389083
1852.000000	0.387818
1853.000000	0.386594
1854.000000	0.384629
1855.000000	0.383497
1856.000000	0.382728
1857.000000	0.381864
1858.000000	0.381122
1859.000000	0.380218
1860.000000	0.378496
1861.000000	0.376727
1862.000000	0.374616
1863.000000	0.372017
1864.000000	0.369864
1865.000000	0.367519
1866.000000	0.365216
1867.000000	0.363083
1868.000000	0.361336
1869.000000	0.358561
1870.000000	0.355665
1871.000000	0.352407
1872.000000	0.348569
1873.000000	0.345000
1874.000000	0.341343
1875.000000	0.337684
1876.000000	0.334005
1877.000000	0.329891
1878.000000	0.325042
1879.000000	0.320208
1880.000000	0.315235
1881.000000	0.309900
1882.000000	0.304853
1883.000000	0.299889
1884.000000	0.294643
1885.000000	0.288924
1886.000000	0.283250
1887.000000	0.277458
1888.000000	0.271231
1889.000000	0.265128
1890.000000	0.259186
1891.000000	0.253182
1892.000000	0.246896
1893.000000	0.240482
1894.000000	0.234022
1895.000000	0.227694
1896.000000	0.221367
1897.000000	0.215493
1898.000000	0.209478
1899.000000	0.204072
1900.000000	0.199211
1901.000000	0.194260
1902.000000	0.190167
1903.000000	0.186099
1904.000000	0.181360
1905.000000	0.176557
1906.000000	0.172292
1907.000000	0.167916
1908.000000	0.164301
1909.000000	0.162079
1910.000000	0.160595
1911.000000	0.158926
1912.000000	0.157344
1913.000000	0.155284
1914.000000	0.152932
1915.000000	0.151476
1916.000000	0.150307
1917.000000	0.149061
1918.000000	0.148078
1919.000000	0.147368
1920.000000	0.146239
1921.000000	0.145055
1922.000000	0.143969
1923.000000	0.142825
1924.000000	0.142323
1925.000000	0.142476
1926.000000	0.142417
1927.000000	0.142764
1928.000000	0.143132
1929.000000	0.143742
1930.000000	0.143576
1931.000000	0.143644
1932.000000	0.143934
1933.000000	0.143837
1934.000000	0.143703
1935.000000	0.143873
1936.000000	0.144190
1937.000000	0.144074
1938.000000	0.143700
1939.000000	0.143582
1940.000000	0.143505
1941.000000	0.143277
1942.000000	0.143343
1943.000000	0.143631
1944.000000	0.143594
1945.000000	0.143486
1946.000000	0.143171
1947.000000	0.142882
1948.000000	0.142544
1949.000000	0.141893
1950.000000	0.141201
1951.000000	0.140558
1952.000000	0.139744
1953.000000	0.139401
1954.000000	0.139400
1955.000000	0.139275
1956.000000	0.139085
1957.000000	0.138381
1958.000000	0.137779
1959.000000	0.137726
1960.000000	0.137610
1961.000000	0.137561
1962.000000	0.137691
1963.000000	0.138081
1964.000000	0.137828
1965.000000	0.137645
1966.000000	0.138273
1967.000000	0.137978
1968.000000	0.137395
1969.000000	0.137303
1970.000000	0.136839
1971.000000	0.136788
1972.000000	0.137481
1973.000000	0.137860
1974.000000	0.138492
1975.000000	0.138916
1976.000000	0.139321
1977.000000	0.139341
1978.000000	0.139585
1979.000000	0.139877
1980.000000	0.139794
1981.000000	0.140006
1982.000000	0.140023
1983.000000	0.140254
1984.000000	0.140938
1985.000000	0.142177
1986.000000	0.143117
1987.000000	0.144266
1988.000000	0.145694
1989.000000	0.146534
1990.000000	0.147187
1991.000000	0.148045
1992.000000	0.148523
1993.000000	0.149075
1994.000000	0.150250
1995.000000	0.151377
1996.000000	0.152160
1997.000000	0.153096
1998.000000	0.154140
1999.000000	0.155081
2000.000000	0.155868
2001.000000	0.156986
2002.000000	0.158006
2003.000000	0.159227
2004.000000	0.160300
2005.000000	0.161185
2006.000000	0.162951
2007.000000	0.164315
2008.000000	0.165685
2009.000000	0.167667
2010.000000	0.168830
2011.000000	0.169174
2012.000000	0.169958
2013.000000	0.170472
2014.000000	0.170978
2015.000000	0.172396
2016.000000	0.173472
2017.000000	0.174579
2018.000000	0.175867
2019.000000	0.176602
2020.000000	0.177385
2021.000000	0.178750
2022.000000	0.180692
2023.000000	0.182278
2024.000000	0.184287
2025.000000	0.185849
2026.000000	0.187201
2027.000000	0.187709
2028.000000	0.188566
2029.000000	0.189545
2030.000000	0.190181
2031.000000	0.191439
2032.000000	0.192806
2033.000000	0.194610
2034.000000	0.196327
2035.000000	0.198715
2036.000000	0.200051
2037.000000	0.200871
2038.000000	0.201873
2039.000000	0.202610
2040.000000	0.203367
2041.000000	0.203827
2042.000000	0.204927
2043.000000	0.205849
2044.000000	0.206401
2045.000000	0.207310
2046.000000	0.207954
2047.000000	0.209091
2048.000000	0.210173
2049.000000	0.211696
2050.000000	0.214031
2051.000000	0.215478
2052.000000	0.216497
2053.000000	0.217589
2054.000000	0.218435
2055.000000	0.219301
2056.000000	0.220773
2057.000000	0.221968
2058.000000	0.223395
2059.000000	0.224818
2060.000000	0.225836
2061.000000	0.226650
2062.000000	0.227480
2063.000000	0.227813
2064.000000	0.228601
2065.000000	0.229907
2066.000000	0.230692
2067.000000	0.231684
2068.000000	0.232698
2069.000000	0.232741
2070.000000	0.233648
2071.000000	0.234551
2072.000000	0.235242
2073.000000	0.236297
2074.000000	0.236968
2075.000000	0.237898
2076.000000	0.238793
2077.000000	0.239950
2078.000000	0.241570
2079.000000	0.242688
2080.000000	0.243460
2081.000000	0.244545
2082.000000	0.245620
2083.000000	0.246631
2084.000000	0.247953
2085.000000	0.249850
2086.000000	0.251239
2087.000000	0.252770
2088.000000	0.254116
2089.000000	0.255088
2090.000000	0.255901
2091.000000	0.256234
2092.000000	0.256894
2093.000000	0.257276
2094.000000	0.258220
2095.000000	0.259896
2096.000000	0.261160
2097.000000	0.262769
2098.000000	0.263596
2099.000000	0.263968
2100.000000	0.264386
2101.000000	0.265011
2102.000000	0.266155
2103.000000	0.267622
2104.000000	0.269013
2105.000000	0.269997
2106.000000	0.270409
2107.000000	0.271466
2108.000000	0.272630
2109.000000	0.273601
2110.000000	0.274901
2111.000000	0.275695
2112.000000	0.275710
2113.000000	0.276038
2114.000000	0.276654
2115.000000	0.277608
2116.000000	0.278408
2117.000000	0.278751
2118.000000	0.279718
2119.000000	0.280412
2120.000000	0.281263
2121.000000	0.282926
2122.000000	0.283638
2123.000000	0.283716
2124.000000	0.283937
2125.000000	0.283382
2126.000000	0.283932
2127.000000	0.285079
2128.000000	0.286039
2129.000000	0.287780
2130.000000	0.289000
2131.000000	0.288984
2132.000000	0.288987
2133.000000	0.289604
2134.000000	0.290219
2135.000000	0.291079
2136.000000	0.292096
2137.000000	0.292231
2138.000000	0.291442
2139.000000	0.291138
2140.000000	0.290073
2141.000000	0.290091
2142.000000	0.290926
2143.000000	0.291228
2144.000000	0.292269
2145.000000	0.293018
2146.000000	0.293834
2147.000000	0.294045
2148.000000	0.294295
2149.000000	0.293918
2150.000000	0.293050
2151.000000	0.292719
2152.000000	0.293205
2153.000000	0.293964
2154.000000	0.294085
2155.000000	0.294016
2156.000000	0.294386
2157.000000	0.294419
2158.000000	0.294840
2159.000000	0.296437
2160.000000	0.297334
2161.000000	0.297645
2162.000000	0.298170
2163.000000	0.298589
2164.000000	0.298834
2165.000000	0.299173
2166.000000	0.299372
2167.000000	0.298817
2168.000000	0.297484
2169.000000	0.295949
2170.000000	0.294443
2171.000000	0.293995
2172.000000	0.294548
2173.000000	0.294873
2174.000000	0.295972
2175.000000	0.296370
2176.000000	0.296227
2177.000000	0.296657
2178.000000	0.297389
2179.000000	0.297902
2180.000000	0.299085
2181.000000	0.299361
2182.000000	0.298192
2183.000000	0.297167
2184.000000	0.296909
2185.000000	0.295900
2186.000000	0.294745
2187.000000	0.296134
2188.000000	0.297449
2189.000000	0.298573
2190.000000	0.300342
2191.000000	0.300050
2192.000000	0.299399
2193.000000	0.295884
2194.000000	0.295199
2195.000000	0.295918
2196.000000	0.296395
2197.000000	0.297606
2198.000000	0.299110
2199.000000	0.301606
2200.000000	0.302440
2201.000000	0.303691
2202.000000	0.304010
2203.000000	0.302412
2204.000000	0.299339
2205.000000	0.297287
2206.000000	0.296500
2207.000000	0.295583
2208.000000	0.296213
2209.000000	0.299022
2210.000000	0.300225
2211.000000	0.300630
2212.000000	0.301322
2213.000000	0.301043
2214.000000	0.299207
2215.000000	0.298110
2216.000000	0.296453
2217.000000	0.295883
2218.000000	0.294513
2219.000000	0.295431
2220.000000	0.299029
2221.000000	0.301571
2222.000000	0.305624
2223.000000	0.307715
2224.000000	0.308800
2225.000000	0.309754
2226.000000	0.308303
2227.000000	0.304326
2228.000000	0.302854
2229.000000	0.300784
2230.000000	0.300180
2231.000000	0.302088
2232.000000	0.301312
2233.000000	0.299755
2234.000000	0.297722
2235.000000	0.297364
2236.000000	0.296482
2237.000000	0.296063
2238.000000	0.294706
2239.000000	0.292027
2240.000000	0.291411
2241.000000	0.292178
2242.000000	0.291714
2243.000000	0.291224
2244.000000	0.291766
2245.000000	0.292382
2246.000000	0.291714
2247.000000	0.290855
2248.000000	0.291141
2249.000000	0.290533
2250.000000	0.290665
2251.000000	0.291739
2252.000000	0.295341
2253.000000	0.297644
2254.000000	0.298045
2255.000000	0.299146
2256.000000	0.299334
2257.000000	0.297671
2258.000000	0.296191
2259.000000	0.295035
2260.000000	0.294011
2261.000000	0.293668
2262.000000	0.294169
2263.000000	0.294180
2264.000000	0.294027
2265.000000	0.294434
2266.000000	0.295230
2267.000000	0.294837
2268.000000	0.295720
2269.000000	0.294699
2270.000000	0.290594
2271.000000	0.288383
2272.000000	0.286943
2273.000000	0.284514
2274.000000	0.281995
2275.000000	0.279824
2276.000000	0.277441
2277.000000	0.273298
2278.000000	0.272722
2279.000000	0.273296
2280.000000	0.272780
2281.000000	0.272721
2282.000000	0.271037
2283.000000	0.268357
2284.000000	0.266207
2285.000000	0.264495
2286.000000	0.262035
2287.000000	0.260173
2288.000000	0.258516
2289.000000	0.255321
2290.000000	0.252217
2291.000000	0.250676
2292.000000	0.249469
2293.000000	0.249250
2294.000000	0.248085
2295.000000	0.246738
2296.000000	0.245132
2297.000000	0.242047
2298.000000	0.241067
2299.000000	0.242274
2300.000000	0.243055
2301.000000	0.244597
2302.000000	0.244380
2303.000000	0.241969
2304.000000	0.241785
2305.000000	0.242776
2306.000000	0.243306
2307.000000	0.245897
2308.000000	0.245681
2309.000000	0.243423
2310.000000	0.241282
2311.000000	0.239562
2312.000000	0.241444
2313.000000	0.244113
2314.000000	0.245157
2315.000000	0.247632
2316.000000	0.248511
2317.000000	0.248110
2318.000000	0.250795
2319.000000	0.250152
2320.000000	0.247122
2321.000000	0.247332
2322.000000	0.244528
2323.000000	0.242464
2324.000000	0.243741
2325.000000	0.241703
2326.000000	0.239434
2327.000000	0.237831
2328.000000	0.234433
2329.000000	0.231615
2330.000000	0.229847
2331.000000	0.225939
2332.000000	0.222659
2333.000000	0.221698
2334.000000	0.221095
2335.000000	0.222003
2336.000000	0.226527
2337.000000	0.226293
2338.000000	0.225411
2339.000000	0.223784
2340.000000	0.217593
2341.000000	0.216461
2342.000000	0.217895
2343.000000	0.216777
2344.000000	0.217133
2345.000000	0.215911
2346.000000	0.212356
2347.000000	0.208843
2348.000000	0.204664
2349.000000	0.202447
2350.000000	0.196931
2351.000000	0.196405
2352.000000	0.195494
2353.000000	0.193954
2354.000000	0.197462
2355.000000	0.196264
2356.000000	0.196971
2357.000000	0.197740
2358.000000	0.194330
2359.000000	0.193809
2360.000000	0.192033
2361.000000	0.188679
2362.000000	0.186565
2363.000000	0.188710
2364.000000	0.189742
2365.000000	0.189970
2366.000000	0.190680
2367.000000	0.182277
2368.000000	0.176057
2369.000000	0.176826
2370.000000	0.174377
2371.000000	0.173952
2372.000000	0.176727
2373.000000	0.177757
2374.000000	0.182221
2375.000000	0.188620
2376.000000	0.186372
2377.000000	0.180975
2378.000000	0.174839
2379.000000	0.168173
2380.000000	0.170425
2381.000000	0.174435
2382.000000	0.174592
2383.000000	0.175959
2384.000000	0.174662
2385.000000	0.170412
2386.000000	0.170183
2387.000000	0.167541
2388.000000	0.161948
2389.000000	0.161107
2390.000000	0.158636
2391.000000	0.152373
2392.000000	0.153445
2393.000000	0.157669
2394.000000	0.153661
2395.000000	0.155958
2396.000000	0.162131
2397.000000	0.154405
2398.000000	0.149540
2399.000000	0.149635
2400.000000	0.141452
2401.000000	0.139046
2402.000000	0.142394
2403.000000	0.147371
2404.000000	0.152899
2405.000000	0.154076
2406.000000	0.155605
2407.000000	0.157484
2408.000000	0.159614
2409.000000	0.163502
2410.000000	0.169587
2411.000000	0.166593
2412.000000	0.158550
2413.000000	0.151984
2414.000000	0.143289
2415.000000	0.140842
2416.000000	0.146625
2417.000000	0.154676
2418.000000	0.158267
2419.000000	0.163783
2420.000000	0.169456
2421.000000	0.168367
2422.000000	0.171058
2423.000000	0.178722
2424.000000	0.175516
2425.000000	0.159602
2426.000000	0.155510
2427.000000	0.154160
2428.000000	0.153179
2429.000000	0.167740
2430.000000	0.171704
2431.000000	0.166485
2432.000000	0.165741
2433.000000	0.162252
2434.000000	0.164815
2435.000000	0.171398
2436.000000	0.160018
2437.000000	0.155770
2438.000000	0.156706
2439.000000	0.144916
2440.000000	0.147856
2441.000000	0.138170
2442.000000	0.131665
2443.000000	0.139530
2444.000000	0.135913
2445.000000	0.149257
2446.000000	0.160056
2447.000000	0.157225
2448.000000	0.163078
2449.000000	0.171497
2450.000000	0.171552
2451.000000	0.168644
2452.000000	0.160784
2453.000000	0.141604
2454.000000	0.134001
2455.000000	0.128529
2456.000000	0.130186
2457.000000	0.139531
2458.000000	0.134569
2459.000000	0.141492
2460.000000	0.147955
2461.000000	0.143100
2462.000000	0.152766
2463.000000	0.161761
2464.000000	0.156963
2465.000000	0.151154
2466.000000	0.149927
2467.000000	0.140593
2468.000000	0.139562
2469.000000	0.151654
2470.000000	0.142364
2471.000000	0.145009
2472.000000	0.144632
2473.000000	0.114744
2474.000000	0.106405
2475.000000	0.089982
2476.000000	0.071662
2477.000000	0.103420
2478.000000	0.127889
2479.000000	0.135381
2480.000000	0.149397
2481.000000	0.138307
2482.000000	0.126848
2483.000000	0.133920
2484.000000	0.114034
2485.000000	0.115126
2486.000000	0.136567
2487.000000	0.129682
2488.000000	0.137217
2489.000000	0.135372
2490.000000	0.116497
2491.000000	0.110219
2492.000000	0.111036
2493.000000	0.129713
2494.000000	0.129122
2495.000000	0.111341
2496.000000	0.106335
2497.000000	0.094095
2498.000000	0.087529
2499.000000	0.111675
2500.000000	0.124043
