# Wavelength	SM1200H-20_HEX-10_FV7-70_00000.asd.rts.txt
350.000000	0.238571
351.000000	0.242608
352.000000	0.247127
353.000000	0.244536
354.000000	0.236685
355.000000	0.236212
356.000000	0.232963
357.000000	0.230770
358.000000	0.239674
359.000000	0.242009
360.000000	0.237457
361.000000	0.231075
362.000000	0.234959
363.000000	0.239276
364.000000	0.237385
365.000000	0.235848
366.000000	0.236033
367.000000	0.236642
368.000000	0.234492
369.000000	0.233911
370.000000	0.235553
371.000000	0.238416
372.000000	0.238829
373.000000	0.234892
374.000000	0.229088
375.000000	0.233292
376.000000	0.238477
377.000000	0.239872
378.000000	0.236092
379.000000	0.237039
380.000000	0.240872
381.000000	0.242922
382.000000	0.241977
383.000000	0.239516
384.000000	0.237555
385.000000	0.237612
386.000000	0.238622
387.000000	0.240194
388.000000	0.242480
389.000000	0.242468
390.000000	0.241935
391.000000	0.243606
392.000000	0.242982
393.000000	0.242120
394.000000	0.242911
395.000000	0.244165
396.000000	0.244137
397.000000	0.243017
398.000000	0.243719
399.000000	0.244230
400.000000	0.244228
401.000000	0.243903
402.000000	0.243970
403.000000	0.244840
404.000000	0.246514
405.000000	0.247164
406.000000	0.247096
407.000000	0.246882
408.000000	0.247255
409.000000	0.247971
410.000000	0.248636
411.000000	0.248696
412.000000	0.249841
413.000000	0.250720
414.000000	0.249974
415.000000	0.250063
416.000000	0.250771
417.000000	0.251445
418.000000	0.250725
419.000000	0.250900
420.000000	0.252010
421.000000	0.252194
422.000000	0.252377
423.000000	0.252767
424.000000	0.253409
425.000000	0.253731
426.000000	0.253764
427.000000	0.253696
428.000000	0.254052
429.000000	0.254186
430.000000	0.254103
431.000000	0.254703
432.000000	0.255185
433.000000	0.255374
434.000000	0.255483
435.000000	0.255907
436.000000	0.256565
437.000000	0.257161
438.000000	0.257051
439.000000	0.256910
440.000000	0.257072
441.000000	0.256728
442.000000	0.256500
443.000000	0.256601
444.000000	0.257170
445.000000	0.257680
446.000000	0.257973
447.000000	0.257926
448.000000	0.258366
449.000000	0.258729
450.000000	0.258727
451.000000	0.259235
452.000000	0.259447
453.000000	0.259281
454.000000	0.259723
455.000000	0.260207
456.000000	0.260621
457.000000	0.260831
458.000000	0.261061
459.000000	0.261401
460.000000	0.261845
461.000000	0.261772
462.000000	0.261809
463.000000	0.262101
464.000000	0.262457
465.000000	0.262749
466.000000	0.263013
467.000000	0.263550
468.000000	0.263585
469.000000	0.263431
470.000000	0.263731
471.000000	0.263828
472.000000	0.263833
473.000000	0.263950
474.000000	0.264353
475.000000	0.264483
476.000000	0.264472
477.000000	0.264877
478.000000	0.264949
479.000000	0.265033
480.000000	0.265494
481.000000	0.265916
482.000000	0.266252
483.000000	0.266342
484.000000	0.266514
485.000000	0.266686
486.000000	0.266952
487.000000	0.267121
488.000000	0.267475
489.000000	0.267877
490.000000	0.267874
491.000000	0.267930
492.000000	0.268212
493.000000	0.268598
494.000000	0.268718
495.000000	0.268922
496.000000	0.269384
497.000000	0.269801
498.000000	0.270096
499.000000	0.270344
500.000000	0.270610
501.000000	0.270769
502.000000	0.270936
503.000000	0.271236
504.000000	0.271543
505.000000	0.271779
506.000000	0.271912
507.000000	0.272043
508.000000	0.272246
509.000000	0.272540
510.000000	0.273020
511.000000	0.273388
512.000000	0.273627
513.000000	0.273883
514.000000	0.274233
515.000000	0.274605
516.000000	0.274832
517.000000	0.275154
518.000000	0.275498
519.000000	0.275732
520.000000	0.276099
521.000000	0.276405
522.000000	0.276616
523.000000	0.276929
524.000000	0.277171
525.000000	0.277357
526.000000	0.277646
527.000000	0.277961
528.000000	0.278261
529.000000	0.278553
530.000000	0.278742
531.000000	0.278917
532.000000	0.279081
533.000000	0.279355
534.000000	0.279684
535.000000	0.280002
536.000000	0.280256
537.000000	0.280530
538.000000	0.280814
539.000000	0.281051
540.000000	0.281281
541.000000	0.281530
542.000000	0.281842
543.000000	0.282150
544.000000	0.282397
545.000000	0.282552
546.000000	0.282889
547.000000	0.283224
548.000000	0.283535
549.000000	0.283801
550.000000	0.284063
551.000000	0.284317
552.000000	0.284511
553.000000	0.284782
554.000000	0.285117
555.000000	0.285487
556.000000	0.285859
557.000000	0.286084
558.000000	0.286299
559.000000	0.286652
560.000000	0.286938
561.000000	0.287214
562.000000	0.287496
563.000000	0.287724
564.000000	0.287993
565.000000	0.288292
566.000000	0.288623
567.000000	0.288934
568.000000	0.289203
569.000000	0.289556
570.000000	0.289897
571.000000	0.290213
572.000000	0.290590
573.000000	0.290888
574.000000	0.291139
575.000000	0.291480
576.000000	0.291782
577.000000	0.292027
578.000000	0.292287
579.000000	0.292547
580.000000	0.292829
581.000000	0.293129
582.000000	0.293416
583.000000	0.293701
584.000000	0.293980
585.000000	0.294245
586.000000	0.294472
587.000000	0.294719
588.000000	0.295035
589.000000	0.295260
590.000000	0.295526
591.000000	0.295885
592.000000	0.296111
593.000000	0.296366
594.000000	0.296670
595.000000	0.296912
596.000000	0.297124
597.000000	0.297365
598.000000	0.297597
599.000000	0.297735
600.000000	0.297890
601.000000	0.298082
602.000000	0.298309
603.000000	0.298446
604.000000	0.298526
605.000000	0.298858
606.000000	0.299083
607.000000	0.299177
608.000000	0.299313
609.000000	0.299511
610.000000	0.299736
611.000000	0.299930
612.000000	0.300037
613.000000	0.300179
614.000000	0.300422
615.000000	0.300491
616.000000	0.300593
617.000000	0.300736
618.000000	0.300834
619.000000	0.300988
620.000000	0.301169
621.000000	0.301359
622.000000	0.301440
623.000000	0.301534
624.000000	0.301725
625.000000	0.301823
626.000000	0.301894
627.000000	0.301985
628.000000	0.302094
629.000000	0.302265
630.000000	0.302357
631.000000	0.302425
632.000000	0.302562
633.000000	0.302770
634.000000	0.303001
635.000000	0.303228
636.000000	0.303468
637.000000	0.303691
638.000000	0.303807
639.000000	0.303959
640.000000	0.304170
641.000000	0.304198
642.000000	0.304315
643.000000	0.304477
644.000000	0.304561
645.000000	0.304642
646.000000	0.304773
647.000000	0.304935
648.000000	0.305023
649.000000	0.305094
650.000000	0.305202
651.000000	0.305478
652.000000	0.305596
653.000000	0.305667
654.000000	0.305903
655.000000	0.306112
656.000000	0.306277
657.000000	0.306375
658.000000	0.306557
659.000000	0.306746
660.000000	0.306886
661.000000	0.307028
662.000000	0.307132
663.000000	0.307259
664.000000	0.307421
665.000000	0.307662
666.000000	0.307854
667.000000	0.307871
668.000000	0.308027
669.000000	0.308224
670.000000	0.308384
671.000000	0.308516
672.000000	0.308645
673.000000	0.308785
674.000000	0.308966
675.000000	0.309127
676.000000	0.309297
677.000000	0.309524
678.000000	0.309655
679.000000	0.309778
680.000000	0.309961
681.000000	0.310108
682.000000	0.310289
683.000000	0.310450
684.000000	0.310647
685.000000	0.310820
686.000000	0.310956
687.000000	0.311018
688.000000	0.311179
689.000000	0.311342
690.000000	0.311477
691.000000	0.311716
692.000000	0.311931
693.000000	0.312120
694.000000	0.312249
695.000000	0.312359
696.000000	0.312458
697.000000	0.312545
698.000000	0.312659
699.000000	0.312799
700.000000	0.312966
701.000000	0.313171
702.000000	0.313387
703.000000	0.313566
704.000000	0.313667
705.000000	0.313780
706.000000	0.313885
707.000000	0.314010
708.000000	0.314119
709.000000	0.314247
710.000000	0.314434
711.000000	0.314601
712.000000	0.314725
713.000000	0.314838
714.000000	0.314974
715.000000	0.315099
716.000000	0.315213
717.000000	0.315308
718.000000	0.315433
719.000000	0.315586
720.000000	0.315762
721.000000	0.315917
722.000000	0.316029
723.000000	0.316145
724.000000	0.316203
725.000000	0.316267
726.000000	0.316393
727.000000	0.316471
728.000000	0.316612
729.000000	0.316833
730.000000	0.317054
731.000000	0.317207
732.000000	0.317317
733.000000	0.317446
734.000000	0.317583
735.000000	0.317624
736.000000	0.317707
737.000000	0.317794
738.000000	0.317884
739.000000	0.317970
740.000000	0.317915
741.000000	0.318004
742.000000	0.318098
743.000000	0.318125
744.000000	0.318180
745.000000	0.318197
746.000000	0.318247
747.000000	0.318334
748.000000	0.318481
749.000000	0.318643
750.000000	0.318744
751.000000	0.318793
752.000000	0.318791
753.000000	0.318791
754.000000	0.318864
755.000000	0.319037
756.000000	0.319264
757.000000	0.319432
758.000000	0.319559
759.000000	0.319661
760.000000	0.319685
761.000000	0.319722
762.000000	0.319777
763.000000	0.319812
764.000000	0.319843
765.000000	0.319871
766.000000	0.319888
767.000000	0.319889
768.000000	0.319922
769.000000	0.319999
770.000000	0.320098
771.000000	0.320135
772.000000	0.320170
773.000000	0.320149
774.000000	0.320113
775.000000	0.320061
776.000000	0.320060
777.000000	0.320133
778.000000	0.320237
779.000000	0.320391
780.000000	0.320542
781.000000	0.320553
782.000000	0.320566
783.000000	0.320658
784.000000	0.320691
785.000000	0.320691
786.000000	0.320751
787.000000	0.320872
788.000000	0.320894
789.000000	0.320951
790.000000	0.321002
791.000000	0.320979
792.000000	0.320983
793.000000	0.320998
794.000000	0.321002
795.000000	0.321017
796.000000	0.321009
797.000000	0.320948
798.000000	0.320819
799.000000	0.320781
800.000000	0.320811
801.000000	0.320840
802.000000	0.320908
803.000000	0.320936
804.000000	0.320932
805.000000	0.320936
806.000000	0.320928
807.000000	0.320976
808.000000	0.321023
809.000000	0.321059
810.000000	0.321037
811.000000	0.320944
812.000000	0.320944
813.000000	0.320869
814.000000	0.320746
815.000000	0.320792
816.000000	0.320795
817.000000	0.320801
818.000000	0.320798
819.000000	0.320760
820.000000	0.320777
821.000000	0.320817
822.000000	0.320820
823.000000	0.320840
824.000000	0.320837
825.000000	0.320861
826.000000	0.320843
827.000000	0.320860
828.000000	0.320975
829.000000	0.321029
830.000000	0.321023
831.000000	0.320990
832.000000	0.320831
833.000000	0.320865
834.000000	0.320967
835.000000	0.321014
836.000000	0.320950
837.000000	0.320904
838.000000	0.320894
839.000000	0.320801
840.000000	0.320720
841.000000	0.320574
842.000000	0.320300
843.000000	0.320277
844.000000	0.320184
845.000000	0.319980
846.000000	0.320026
847.000000	0.319975
848.000000	0.319879
849.000000	0.319881
850.000000	0.319791
851.000000	0.319680
852.000000	0.319667
853.000000	0.319819
854.000000	0.319704
855.000000	0.319544
856.000000	0.319514
857.000000	0.319369
858.000000	0.319310
859.000000	0.319325
860.000000	0.319255
861.000000	0.319227
862.000000	0.319259
863.000000	0.319241
864.000000	0.319129
865.000000	0.318998
866.000000	0.318893
867.000000	0.318696
868.000000	0.318530
869.000000	0.318333
870.000000	0.318104
871.000000	0.317932
872.000000	0.317760
873.000000	0.317553
874.000000	0.317594
875.000000	0.317484
876.000000	0.317305
877.000000	0.317238
878.000000	0.317073
879.000000	0.316905
880.000000	0.316693
881.000000	0.316611
882.000000	0.316559
883.000000	0.316418
884.000000	0.316059
885.000000	0.315963
886.000000	0.315956
887.000000	0.315890
888.000000	0.315692
889.000000	0.315496
890.000000	0.315226
891.000000	0.314981
892.000000	0.314858
893.000000	0.314768
894.000000	0.314731
895.000000	0.314559
896.000000	0.314351
897.000000	0.314113
898.000000	0.313826
899.000000	0.313455
900.000000	0.313278
901.000000	0.313282
902.000000	0.313180
903.000000	0.313144
904.000000	0.313107
905.000000	0.312867
906.000000	0.312590
907.000000	0.312349
908.000000	0.312171
909.000000	0.311849
910.000000	0.311675
911.000000	0.311506
912.000000	0.311221
913.000000	0.311082
914.000000	0.310805
915.000000	0.310548
916.000000	0.310597
917.000000	0.310295
918.000000	0.309921
919.000000	0.309729
920.000000	0.309562
921.000000	0.309468
922.000000	0.309368
923.000000	0.309121
924.000000	0.308951
925.000000	0.308598
926.000000	0.308083
927.000000	0.307891
928.000000	0.307741
929.000000	0.307534
930.000000	0.307250
931.000000	0.306917
932.000000	0.306559
933.000000	0.306281
934.000000	0.306153
935.000000	0.305879
936.000000	0.305640
937.000000	0.305470
938.000000	0.305042
939.000000	0.304755
940.000000	0.304560
941.000000	0.304306
942.000000	0.304069
943.000000	0.303871
944.000000	0.303603
945.000000	0.303384
946.000000	0.303197
947.000000	0.303037
948.000000	0.302814
949.000000	0.302485
950.000000	0.302162
951.000000	0.301843
952.000000	0.301539
953.000000	0.301367
954.000000	0.301185
955.000000	0.300860
956.000000	0.300702
957.000000	0.300469
958.000000	0.300184
959.000000	0.300073
960.000000	0.299913
961.000000	0.299754
962.000000	0.299582
963.000000	0.299346
964.000000	0.298833
965.000000	0.298471
966.000000	0.298382
967.000000	0.297870
968.000000	0.297607
969.000000	0.297490
970.000000	0.297212
971.000000	0.296933
972.000000	0.296734
973.000000	0.296537
974.000000	0.296276
975.000000	0.296233
976.000000	0.296028
977.000000	0.295469
978.000000	0.295316
979.000000	0.295385
980.000000	0.295218
981.000000	0.294816
982.000000	0.294531
983.000000	0.294475
984.000000	0.294514
985.000000	0.294180
986.000000	0.294238
987.000000	0.294268
988.000000	0.293808
989.000000	0.293198
990.000000	0.292953
991.000000	0.292870
992.000000	0.292630
993.000000	0.292598
994.000000	0.292394
995.000000	0.292220
996.000000	0.292259
997.000000	0.292060
998.000000	0.292102
999.000000	0.292395
1000.000000	0.291890
1001.000000	0.292351
1002.000000	0.291879
1003.000000	0.292156
1004.000000	0.292128
1005.000000	0.291598
1006.000000	0.291372
1007.000000	0.291283
1008.000000	0.291235
1009.000000	0.291472
1010.000000	0.291638
1011.000000	0.291032
1012.000000	0.290480
1013.000000	0.290577
1014.000000	0.290281
1015.000000	0.289959
1016.000000	0.290628
1017.000000	0.290596
1018.000000	0.290152
1019.000000	0.290042
1020.000000	0.290355
1021.000000	0.290006
1022.000000	0.289480
1023.000000	0.289418
1024.000000	0.289149
1025.000000	0.289131
1026.000000	0.289632
1027.000000	0.290045
1028.000000	0.290375
1029.000000	0.290855
1030.000000	0.290794
1031.000000	0.290522
1032.000000	0.290166
1033.000000	0.290024
1034.000000	0.289982
1035.000000	0.290191
1036.000000	0.290183
1037.000000	0.290089
1038.000000	0.289977
1039.000000	0.289584
1040.000000	0.290073
1041.000000	0.290614
1042.000000	0.290952
1043.000000	0.291371
1044.000000	0.291201
1045.000000	0.290817
1046.000000	0.291083
1047.000000	0.291197
1048.000000	0.291478
1049.000000	0.291351
1050.000000	0.290727
1051.000000	0.290890
1052.000000	0.291399
1053.000000	0.291473
1054.000000	0.291940
1055.000000	0.292362
1056.000000	0.292353
1057.000000	0.292642
1058.000000	0.293082
1059.000000	0.293459
1060.000000	0.293877
1061.000000	0.294086
1062.000000	0.294414
1063.000000	0.294760
1064.000000	0.294784
1065.000000	0.294231
1066.000000	0.294122
1067.000000	0.293964
1068.000000	0.294015
1069.000000	0.294270
1070.000000	0.294441
1071.000000	0.294727
1072.000000	0.294980
1073.000000	0.295334
1074.000000	0.295618
1075.000000	0.295765
1076.000000	0.295853
1077.000000	0.295713
1078.000000	0.295734
1079.000000	0.295745
1080.000000	0.295767
1081.000000	0.295996
1082.000000	0.296545
1083.000000	0.296718
1084.000000	0.296833
1085.000000	0.297100
1086.000000	0.297215
1087.000000	0.297413
1088.000000	0.297776
1089.000000	0.298031
1090.000000	0.298371
1091.000000	0.298089
1092.000000	0.298013
1093.000000	0.298769
1094.000000	0.299140
1095.000000	0.299627
1096.000000	0.299774
1097.000000	0.299554
1098.000000	0.299838
1099.000000	0.300142
1100.000000	0.300454
1101.000000	0.301143
1102.000000	0.301536
1103.000000	0.301739
1104.000000	0.301817
1105.000000	0.301593
1106.000000	0.301722
1107.000000	0.301858
1108.000000	0.301895
1109.000000	0.302101
1110.000000	0.302525
1111.000000	0.302704
1112.000000	0.302639
1113.000000	0.302752
1114.000000	0.302930
1115.000000	0.303149
1116.000000	0.303471
1117.000000	0.303562
1118.000000	0.303516
1119.000000	0.303611
1120.000000	0.303766
1121.000000	0.303690
1122.000000	0.303637
1123.000000	0.303818
1124.000000	0.303504
1125.000000	0.303527
1126.000000	0.303907
1127.000000	0.304149
1128.000000	0.304378
1129.000000	0.304633
1130.000000	0.304901
1131.000000	0.305262
1132.000000	0.305353
1133.000000	0.305310
1134.000000	0.305480
1135.000000	0.305465
1136.000000	0.305643
1137.000000	0.306195
1138.000000	0.306389
1139.000000	0.306493
1140.000000	0.306693
1141.000000	0.306801
1142.000000	0.306865
1143.000000	0.306812
1144.000000	0.306959
1145.000000	0.306973
1146.000000	0.306995
1147.000000	0.306912
1148.000000	0.306711
1149.000000	0.306705
1150.000000	0.306621
1151.000000	0.306740
1152.000000	0.307119
1153.000000	0.307308
1154.000000	0.307427
1155.000000	0.307503
1156.000000	0.307481
1157.000000	0.307566
1158.000000	0.307690
1159.000000	0.307705
1160.000000	0.307719
1161.000000	0.307685
1162.000000	0.307516
1163.000000	0.307585
1164.000000	0.307668
1165.000000	0.307598
1166.000000	0.307611
1167.000000	0.307581
1168.000000	0.307565
1169.000000	0.307584
1170.000000	0.307653
1171.000000	0.307799
1172.000000	0.307928
1173.000000	0.308019
1174.000000	0.308125
1175.000000	0.308264
1176.000000	0.308297
1177.000000	0.308400
1178.000000	0.308423
1179.000000	0.308236
1180.000000	0.308150
1181.000000	0.308199
1182.000000	0.308210
1183.000000	0.308278
1184.000000	0.308424
1185.000000	0.308414
1186.000000	0.308292
1187.000000	0.308252
1188.000000	0.308159
1189.000000	0.308122
1190.000000	0.308217
1191.000000	0.308183
1192.000000	0.308134
1193.000000	0.308284
1194.000000	0.308471
1195.000000	0.308486
1196.000000	0.308417
1197.000000	0.308426
1198.000000	0.308304
1199.000000	0.308270
1200.000000	0.308407
1201.000000	0.308454
1202.000000	0.308505
1203.000000	0.308534
1204.000000	0.308436
1205.000000	0.308570
1206.000000	0.308488
1207.000000	0.308276
1208.000000	0.308218
1209.000000	0.308268
1210.000000	0.308275
1211.000000	0.308411
1212.000000	0.308397
1213.000000	0.308347
1214.000000	0.308243
1215.000000	0.307902
1216.000000	0.307816
1217.000000	0.307794
1218.000000	0.307774
1219.000000	0.307887
1220.000000	0.308119
1221.000000	0.308179
1222.000000	0.308166
1223.000000	0.308225
1224.000000	0.308214
1225.000000	0.308123
1226.000000	0.308142
1227.000000	0.308079
1228.000000	0.308101
1229.000000	0.308140
1230.000000	0.308285
1231.000000	0.308220
1232.000000	0.308223
1233.000000	0.308244
1234.000000	0.308126
1235.000000	0.308037
1236.000000	0.307826
1237.000000	0.307799
1238.000000	0.307800
1239.000000	0.307804
1240.000000	0.307900
1241.000000	0.308056
1242.000000	0.308055
1243.000000	0.308064
1244.000000	0.308183
1245.000000	0.308189
1246.000000	0.308185
1247.000000	0.308344
1248.000000	0.308256
1249.000000	0.308204
1250.000000	0.308239
1251.000000	0.308022
1252.000000	0.307926
1253.000000	0.307988
1254.000000	0.307913
1255.000000	0.307685
1256.000000	0.307626
1257.000000	0.307682
1258.000000	0.307683
1259.000000	0.307651
1260.000000	0.307693
1261.000000	0.307634
1262.000000	0.307611
1263.000000	0.307615
1264.000000	0.307795
1265.000000	0.307899
1266.000000	0.307872
1267.000000	0.307892
1268.000000	0.307794
1269.000000	0.307540
1270.000000	0.307435
1271.000000	0.307409
1272.000000	0.307468
1273.000000	0.307623
1274.000000	0.307644
1275.000000	0.307597
1276.000000	0.307430
1277.000000	0.307393
1278.000000	0.307250
1279.000000	0.307196
1280.000000	0.307126
1281.000000	0.307115
1282.000000	0.307265
1283.000000	0.307356
1284.000000	0.307394
1285.000000	0.307429
1286.000000	0.307392
1287.000000	0.307363
1288.000000	0.307428
1289.000000	0.307269
1290.000000	0.306961
1291.000000	0.306930
1292.000000	0.306983
1293.000000	0.307035
1294.000000	0.307103
1295.000000	0.307026
1296.000000	0.306800
1297.000000	0.306644
1298.000000	0.306716
1299.000000	0.306860
1300.000000	0.306999
1301.000000	0.306976
1302.000000	0.306887
1303.000000	0.306734
1304.000000	0.306669
1305.000000	0.306745
1306.000000	0.306702
1307.000000	0.306686
1308.000000	0.306632
1309.000000	0.306438
1310.000000	0.306374
1311.000000	0.306407
1312.000000	0.306402
1313.000000	0.306542
1314.000000	0.306553
1315.000000	0.306536
1316.000000	0.306717
1317.000000	0.306709
1318.000000	0.306675
1319.000000	0.306614
1320.000000	0.306477
1321.000000	0.306459
1322.000000	0.306444
1323.000000	0.306401
1324.000000	0.306399
1325.000000	0.306313
1326.000000	0.306055
1327.000000	0.305922
1328.000000	0.306010
1329.000000	0.305937
1330.000000	0.305865
1331.000000	0.305758
1332.000000	0.305634
1333.000000	0.305553
1334.000000	0.305471
1335.000000	0.305493
1336.000000	0.305583
1337.000000	0.305557
1338.000000	0.305476
1339.000000	0.305482
1340.000000	0.305225
1341.000000	0.305135
1342.000000	0.304951
1343.000000	0.304793
1344.000000	0.304985
1345.000000	0.305092
1346.000000	0.305278
1347.000000	0.305396
1348.000000	0.305337
1349.000000	0.305247
1350.000000	0.305194
1351.000000	0.305148
1352.000000	0.305145
1353.000000	0.305158
1354.000000	0.305271
1355.000000	0.305410
1356.000000	0.305427
1357.000000	0.305386
1358.000000	0.305452
1359.000000	0.305301
1360.000000	0.305202
1361.000000	0.305294
1362.000000	0.305190
1363.000000	0.304849
1364.000000	0.304750
1365.000000	0.304640
1366.000000	0.304528
1367.000000	0.304483
1368.000000	0.304487
1369.000000	0.304448
1370.000000	0.304428
1371.000000	0.304389
1372.000000	0.304144
1373.000000	0.303818
1374.000000	0.303541
1375.000000	0.303137
1376.000000	0.302862
1377.000000	0.302706
1378.000000	0.302368
1379.000000	0.302113
1380.000000	0.301906
1381.000000	0.301400
1382.000000	0.300953
1383.000000	0.300609
1384.000000	0.300179
1385.000000	0.299915
1386.000000	0.299530
1387.000000	0.299072
1388.000000	0.298629
1389.000000	0.298263
1390.000000	0.298228
1391.000000	0.298204
1392.000000	0.298341
1393.000000	0.298323
1394.000000	0.298182
1395.000000	0.298190
1396.000000	0.298253
1397.000000	0.298202
1398.000000	0.298199
1399.000000	0.298167
1400.000000	0.297939
1401.000000	0.297811
1402.000000	0.297792
1403.000000	0.297814
1404.000000	0.297665
1405.000000	0.297518
1406.000000	0.297258
1407.000000	0.296944
1408.000000	0.296819
1409.000000	0.296737
1410.000000	0.296748
1411.000000	0.296717
1412.000000	0.296487
1413.000000	0.296394
1414.000000	0.296270
1415.000000	0.296134
1416.000000	0.296153
1417.000000	0.296074
1418.000000	0.295886
1419.000000	0.295750
1420.000000	0.295562
1421.000000	0.295532
1422.000000	0.295542
1423.000000	0.295585
1424.000000	0.295613
1425.000000	0.295582
1426.000000	0.295526
1427.000000	0.295553
1428.000000	0.295587
1429.000000	0.295636
1430.000000	0.295710
1431.000000	0.295677
1432.000000	0.295670
1433.000000	0.295678
1434.000000	0.295675
1435.000000	0.295802
1436.000000	0.295825
1437.000000	0.295763
1438.000000	0.295687
1439.000000	0.295525
1440.000000	0.295526
1441.000000	0.295639
1442.000000	0.295686
1443.000000	0.295714
1444.000000	0.295828
1445.000000	0.295737
1446.000000	0.295752
1447.000000	0.295797
1448.000000	0.295718
1449.000000	0.295770
1450.000000	0.295684
1451.000000	0.295528
1452.000000	0.295467
1453.000000	0.295388
1454.000000	0.295318
1455.000000	0.295349
1456.000000	0.295461
1457.000000	0.295404
1458.000000	0.295327
1459.000000	0.295289
1460.000000	0.295160
1461.000000	0.295142
1462.000000	0.295238
1463.000000	0.295197
1464.000000	0.295147
1465.000000	0.295159
1466.000000	0.295081
1467.000000	0.295169
1468.000000	0.295308
1469.000000	0.295329
1470.000000	0.295315
1471.000000	0.295381
1472.000000	0.295468
1473.000000	0.295704
1474.000000	0.295982
1475.000000	0.296089
1476.000000	0.296144
1477.000000	0.296146
1478.000000	0.296100
1479.000000	0.296133
1480.000000	0.296161
1481.000000	0.296185
1482.000000	0.296258
1483.000000	0.296361
1484.000000	0.296507
1485.000000	0.296570
1486.000000	0.296618
1487.000000	0.296635
1488.000000	0.296564
1489.000000	0.296608
1490.000000	0.296561
1491.000000	0.296629
1492.000000	0.296764
1493.000000	0.296918
1494.000000	0.297082
1495.000000	0.297214
1496.000000	0.297354
1497.000000	0.297454
1498.000000	0.297541
1499.000000	0.297644
1500.000000	0.297689
1501.000000	0.297750
1502.000000	0.297734
1503.000000	0.297762
1504.000000	0.297834
1505.000000	0.297862
1506.000000	0.298024
1507.000000	0.298191
1508.000000	0.298324
1509.000000	0.298454
1510.000000	0.298553
1511.000000	0.298653
1512.000000	0.298696
1513.000000	0.298690
1514.000000	0.298692
1515.000000	0.298654
1516.000000	0.298694
1517.000000	0.298772
1518.000000	0.298746
1519.000000	0.298628
1520.000000	0.298634
1521.000000	0.298734
1522.000000	0.298847
1523.000000	0.298959
1524.000000	0.298959
1525.000000	0.298877
1526.000000	0.298780
1527.000000	0.298680
1528.000000	0.298607
1529.000000	0.298497
1530.000000	0.298377
1531.000000	0.298468
1532.000000	0.298564
1533.000000	0.298495
1534.000000	0.298366
1535.000000	0.298267
1536.000000	0.298168
1537.000000	0.298263
1538.000000	0.298425
1539.000000	0.298421
1540.000000	0.298446
1541.000000	0.298489
1542.000000	0.298505
1543.000000	0.298561
1544.000000	0.298633
1545.000000	0.298809
1546.000000	0.298924
1547.000000	0.298934
1548.000000	0.299002
1549.000000	0.298938
1550.000000	0.298827
1551.000000	0.298856
1552.000000	0.298802
1553.000000	0.298694
1554.000000	0.298694
1555.000000	0.298682
1556.000000	0.298628
1557.000000	0.298654
1558.000000	0.298639
1559.000000	0.298489
1560.000000	0.298476
1561.000000	0.298588
1562.000000	0.298548
1563.000000	0.298581
1564.000000	0.298561
1565.000000	0.298373
1566.000000	0.298257
1567.000000	0.298302
1568.000000	0.298264
1569.000000	0.298259
1570.000000	0.298277
1571.000000	0.298270
1572.000000	0.298266
1573.000000	0.298325
1574.000000	0.298289
1575.000000	0.298151
1576.000000	0.298184
1577.000000	0.298273
1578.000000	0.298253
1579.000000	0.298378
1580.000000	0.298433
1581.000000	0.298440
1582.000000	0.298410
1583.000000	0.298385
1584.000000	0.298254
1585.000000	0.298000
1586.000000	0.297946
1587.000000	0.297975
1588.000000	0.298000
1589.000000	0.298162
1590.000000	0.298225
1591.000000	0.298269
1592.000000	0.298328
1593.000000	0.298397
1594.000000	0.298374
1595.000000	0.298353
1596.000000	0.298335
1597.000000	0.298312
1598.000000	0.298279
1599.000000	0.298273
1600.000000	0.298231
1601.000000	0.298203
1602.000000	0.298132
1603.000000	0.298090
1604.000000	0.298055
1605.000000	0.298020
1606.000000	0.298021
1607.000000	0.298112
1608.000000	0.298080
1609.000000	0.298083
1610.000000	0.297977
1611.000000	0.297772
1612.000000	0.297697
1613.000000	0.297676
1614.000000	0.297651
1615.000000	0.297774
1616.000000	0.297829
1617.000000	0.297810
1618.000000	0.297825
1619.000000	0.297842
1620.000000	0.297815
1621.000000	0.297806
1622.000000	0.297850
1623.000000	0.297758
1624.000000	0.297862
1625.000000	0.298020
1626.000000	0.298041
1627.000000	0.298163
1628.000000	0.298213
1629.000000	0.298086
1630.000000	0.298113
1631.000000	0.298137
1632.000000	0.298136
1633.000000	0.298218
1634.000000	0.298205
1635.000000	0.298128
1636.000000	0.298172
1637.000000	0.298292
1638.000000	0.298271
1639.000000	0.298348
1640.000000	0.298278
1641.000000	0.298051
1642.000000	0.297968
1643.000000	0.297949
1644.000000	0.297942
1645.000000	0.297988
1646.000000	0.297936
1647.000000	0.297857
1648.000000	0.297819
1649.000000	0.297895
1650.000000	0.297889
1651.000000	0.297944
1652.000000	0.297942
1653.000000	0.297747
1654.000000	0.297723
1655.000000	0.297713
1656.000000	0.297671
1657.000000	0.297805
1658.000000	0.297748
1659.000000	0.297673
1660.000000	0.297677
1661.000000	0.297501
1662.000000	0.297468
1663.000000	0.297581
1664.000000	0.297566
1665.000000	0.297480
1666.000000	0.297598
1667.000000	0.297659
1668.000000	0.297770
1669.000000	0.298053
1670.000000	0.298034
1671.000000	0.297979
1672.000000	0.298007
1673.000000	0.297855
1674.000000	0.298058
1675.000000	0.298280
1676.000000	0.298415
1677.000000	0.298601
1678.000000	0.298565
1679.000000	0.298487
1680.000000	0.298475
1681.000000	0.298347
1682.000000	0.298392
1683.000000	0.298441
1684.000000	0.298323
1685.000000	0.298412
1686.000000	0.298452
1687.000000	0.298347
1688.000000	0.298347
1689.000000	0.298401
1690.000000	0.298287
1691.000000	0.298283
1692.000000	0.298301
1693.000000	0.298176
1694.000000	0.298137
1695.000000	0.298234
1696.000000	0.298361
1697.000000	0.298310
1698.000000	0.298155
1699.000000	0.298103
1700.000000	0.297995
1701.000000	0.297981
1702.000000	0.297876
1703.000000	0.297845
1704.000000	0.297976
1705.000000	0.298015
1706.000000	0.298184
1707.000000	0.298235
1708.000000	0.297970
1709.000000	0.297928
1710.000000	0.298197
1711.000000	0.298252
1712.000000	0.298372
1713.000000	0.298388
1714.000000	0.298182
1715.000000	0.298101
1716.000000	0.298034
1717.000000	0.298084
1718.000000	0.298269
1719.000000	0.298250
1720.000000	0.298296
1721.000000	0.298256
1722.000000	0.297928
1723.000000	0.297887
1724.000000	0.298098
1725.000000	0.298142
1726.000000	0.298064
1727.000000	0.298132
1728.000000	0.298183
1729.000000	0.298097
1730.000000	0.298216
1731.000000	0.298196
1732.000000	0.297944
1733.000000	0.297926
1734.000000	0.297925
1735.000000	0.297888
1736.000000	0.297832
1737.000000	0.297776
1738.000000	0.297716
1739.000000	0.297691
1740.000000	0.297638
1741.000000	0.297670
1742.000000	0.297805
1743.000000	0.297844
1744.000000	0.297871
1745.000000	0.297888
1746.000000	0.297836
1747.000000	0.297778
1748.000000	0.297758
1749.000000	0.297815
1750.000000	0.297732
1751.000000	0.297704
1752.000000	0.297798
1753.000000	0.297693
1754.000000	0.297656
1755.000000	0.297791
1756.000000	0.297764
1757.000000	0.297574
1758.000000	0.297492
1759.000000	0.297376
1760.000000	0.297292
1761.000000	0.297243
1762.000000	0.297187
1763.000000	0.297135
1764.000000	0.297104
1765.000000	0.297065
1766.000000	0.297068
1767.000000	0.297007
1768.000000	0.296971
1769.000000	0.297086
1770.000000	0.297157
1771.000000	0.297266
1772.000000	0.297172
1773.000000	0.296783
1774.000000	0.296767
1775.000000	0.296832
1776.000000	0.296930
1777.000000	0.297381
1778.000000	0.297386
1779.000000	0.297046
1780.000000	0.297042
1781.000000	0.297009
1782.000000	0.296979
1783.000000	0.297146
1784.000000	0.297181
1785.000000	0.297106
1786.000000	0.297133
1787.000000	0.297210
1788.000000	0.297111
1789.000000	0.296925
1790.000000	0.296827
1791.000000	0.296829
1792.000000	0.297113
1793.000000	0.297332
1794.000000	0.297748
1795.000000	0.297883
1796.000000	0.297820
1797.000000	0.297741
1798.000000	0.297371
1799.000000	0.297240
1800.000000	0.297221
1801.000000	0.296363
1802.000000	0.297119
1803.000000	0.298351
1804.000000	0.298498
1805.000000	0.297241
1806.000000	0.297074
1807.000000	0.297214
1808.000000	0.296882
1809.000000	0.295970
1810.000000	0.296267
1811.000000	0.296518
1812.000000	0.296482
1813.000000	0.296906
1814.000000	0.298809
1815.000000	0.299156
1816.000000	0.298778
1817.000000	0.298325
1818.000000	0.297353
1819.000000	0.296204
1820.000000	0.295567
1821.000000	0.295649
1822.000000	0.295378
1823.000000	0.295304
1824.000000	0.295163
1825.000000	0.294526
1826.000000	0.294515
1827.000000	0.294844
1828.000000	0.295204
1829.000000	0.295931
1830.000000	0.296256
1831.000000	0.295992
1832.000000	0.294873
1833.000000	0.294668
1834.000000	0.294569
1835.000000	0.294321
1836.000000	0.294580
1837.000000	0.294519
1838.000000	0.293995
1839.000000	0.292903
1840.000000	0.292660
1841.000000	0.292454
1842.000000	0.292502
1843.000000	0.292955
1844.000000	0.293141
1845.000000	0.293209
1846.000000	0.293507
1847.000000	0.293638
1848.000000	0.293807
1849.000000	0.294645
1850.000000	0.294982
1851.000000	0.295098
1852.000000	0.294896
1853.000000	0.295037
1854.000000	0.295097
1855.000000	0.294873
1856.000000	0.294775
1857.000000	0.294102
1858.000000	0.293085
1859.000000	0.292472
1860.000000	0.292349
1861.000000	0.292528
1862.000000	0.292467
1863.000000	0.292696
1864.000000	0.292603
1865.000000	0.292071
1866.000000	0.291868
1867.000000	0.292066
1868.000000	0.291576
1869.000000	0.290496
1870.000000	0.290197
1871.000000	0.289699
1872.000000	0.289074
1873.000000	0.288782
1874.000000	0.288835
1875.000000	0.288956
1876.000000	0.288854
1877.000000	0.289116
1878.000000	0.289179
1879.000000	0.288955
1880.000000	0.288113
1881.000000	0.286536
1882.000000	0.285343
1883.000000	0.283920
1884.000000	0.282716
1885.000000	0.281489
1886.000000	0.280324
1887.000000	0.279030
1888.000000	0.278028
1889.000000	0.277100
1890.000000	0.276567
1891.000000	0.276104
1892.000000	0.275326
1893.000000	0.274583
1894.000000	0.273901
1895.000000	0.272693
1896.000000	0.271244
1897.000000	0.269745
1898.000000	0.268422
1899.000000	0.267026
1900.000000	0.266072
1901.000000	0.265340
1902.000000	0.264420
1903.000000	0.263841
1904.000000	0.263443
1905.000000	0.263246
1906.000000	0.263102
1907.000000	0.263309
1908.000000	0.263282
1909.000000	0.262983
1910.000000	0.262828
1911.000000	0.262782
1912.000000	0.262643
1913.000000	0.262392
1914.000000	0.262117
1915.000000	0.261373
1916.000000	0.260451
1917.000000	0.260223
1918.000000	0.260574
1919.000000	0.261066
1920.000000	0.261655
1921.000000	0.262481
1922.000000	0.262496
1923.000000	0.262239
1924.000000	0.261925
1925.000000	0.261350
1926.000000	0.261044
1927.000000	0.261293
1928.000000	0.261389
1929.000000	0.261714
1930.000000	0.261969
1931.000000	0.262296
1932.000000	0.262346
1933.000000	0.262648
1934.000000	0.263235
1935.000000	0.263219
1936.000000	0.263243
1937.000000	0.263378
1938.000000	0.263397
1939.000000	0.263582
1940.000000	0.264157
1941.000000	0.264595
1942.000000	0.264534
1943.000000	0.264317
1944.000000	0.264049
1945.000000	0.263723
1946.000000	0.263740
1947.000000	0.263888
1948.000000	0.264019
1949.000000	0.264136
1950.000000	0.264026
1951.000000	0.264007
1952.000000	0.264176
1953.000000	0.263895
1954.000000	0.263623
1955.000000	0.263681
1956.000000	0.263030
1957.000000	0.262854
1958.000000	0.262993
1959.000000	0.263057
1960.000000	0.263442
1961.000000	0.263458
1962.000000	0.263365
1963.000000	0.263065
1964.000000	0.263046
1965.000000	0.262763
1966.000000	0.262517
1967.000000	0.262804
1968.000000	0.262833
1969.000000	0.262983
1970.000000	0.263561
1971.000000	0.264176
1972.000000	0.264751
1973.000000	0.264706
1974.000000	0.264229
1975.000000	0.263977
1976.000000	0.263312
1977.000000	0.262869
1978.000000	0.263052
1979.000000	0.263839
1980.000000	0.264550
1981.000000	0.265255
1982.000000	0.265728
1983.000000	0.265823
1984.000000	0.265840
1985.000000	0.265649
1986.000000	0.265303
1987.000000	0.264596
1988.000000	0.264529
1989.000000	0.264806
1990.000000	0.265159
1991.000000	0.265415
1992.000000	0.265841
1993.000000	0.265893
1994.000000	0.265545
1995.000000	0.266096
1996.000000	0.266462
1997.000000	0.266789
1998.000000	0.267436
1999.000000	0.267880
2000.000000	0.268268
2001.000000	0.268311
2002.000000	0.267952
2003.000000	0.267949
2004.000000	0.268104
2005.000000	0.268067
2006.000000	0.268954
2007.000000	0.269257
2008.000000	0.269420
2009.000000	0.269239
2010.000000	0.269571
2011.000000	0.270039
2012.000000	0.270234
2013.000000	0.270583
2014.000000	0.270320
2015.000000	0.270133
2016.000000	0.269852
2017.000000	0.269688
2018.000000	0.270206
2019.000000	0.270681
2020.000000	0.270959
2021.000000	0.271210
2022.000000	0.271520
2023.000000	0.271629
2024.000000	0.271259
2025.000000	0.271443
2026.000000	0.271719
2027.000000	0.272051
2028.000000	0.272586
2029.000000	0.273763
2030.000000	0.273976
2031.000000	0.273809
2032.000000	0.273969
2033.000000	0.274028
2034.000000	0.274248
2035.000000	0.274998
2036.000000	0.275194
2037.000000	0.275464
2038.000000	0.275511
2039.000000	0.275177
2040.000000	0.275248
2041.000000	0.275134
2042.000000	0.274913
2043.000000	0.275170
2044.000000	0.275672
2045.000000	0.276563
2046.000000	0.276673
2047.000000	0.276696
2048.000000	0.276204
2049.000000	0.276300
2050.000000	0.276009
2051.000000	0.275981
2052.000000	0.276241
2053.000000	0.276269
2054.000000	0.276319
2055.000000	0.276823
2056.000000	0.277017
2057.000000	0.276817
2058.000000	0.276866
2059.000000	0.276794
2060.000000	0.276693
2061.000000	0.276651
2062.000000	0.276714
2063.000000	0.276810
2064.000000	0.276798
2065.000000	0.277215
2066.000000	0.277276
2067.000000	0.277525
2068.000000	0.277194
2069.000000	0.276905
2070.000000	0.276857
2071.000000	0.276703
2072.000000	0.276849
2073.000000	0.277292
2074.000000	0.277517
2075.000000	0.277889
2076.000000	0.278317
2077.000000	0.278775
2078.000000	0.279491
2079.000000	0.279758
2080.000000	0.279861
2081.000000	0.280089
2082.000000	0.279969
2083.000000	0.280381
2084.000000	0.280648
2085.000000	0.280107
2086.000000	0.279398
2087.000000	0.278502
2088.000000	0.278150
2089.000000	0.278250
2090.000000	0.278205
2091.000000	0.278547
2092.000000	0.278492
2093.000000	0.278232
2094.000000	0.278142
2095.000000	0.277859
2096.000000	0.278104
2097.000000	0.278859
2098.000000	0.278968
2099.000000	0.279400
2100.000000	0.279782
2101.000000	0.279346
2102.000000	0.279404
2103.000000	0.279975
2104.000000	0.280373
2105.000000	0.280154
2106.000000	0.279539
2107.000000	0.279363
2108.000000	0.278363
2109.000000	0.278213
2110.000000	0.279040
2111.000000	0.279369
2112.000000	0.279362
2113.000000	0.279670
2114.000000	0.280217
2115.000000	0.280318
2116.000000	0.280040
2117.000000	0.279872
2118.000000	0.279813
2119.000000	0.279653
2120.000000	0.279493
2121.000000	0.279442
2122.000000	0.279623
2123.000000	0.279721
2124.000000	0.279864
2125.000000	0.280749
2126.000000	0.280815
2127.000000	0.280092
2128.000000	0.280059
2129.000000	0.280252
2130.000000	0.279660
2131.000000	0.280290
2132.000000	0.280517
2133.000000	0.279917
2134.000000	0.280244
2135.000000	0.280404
2136.000000	0.280543
2137.000000	0.280330
2138.000000	0.280142
2139.000000	0.279971
2140.000000	0.279083
2141.000000	0.278883
2142.000000	0.279269
2143.000000	0.279364
2144.000000	0.280026
2145.000000	0.280321
2146.000000	0.280584
2147.000000	0.280740
2148.000000	0.281463
2149.000000	0.280802
2150.000000	0.279455
2151.000000	0.279813
2152.000000	0.279638
2153.000000	0.279288
2154.000000	0.278889
2155.000000	0.278628
2156.000000	0.278507
2157.000000	0.278250
2158.000000	0.278025
2159.000000	0.278202
2160.000000	0.278428
2161.000000	0.277987
2162.000000	0.278469
2163.000000	0.280419
2164.000000	0.281186
2165.000000	0.281762
2166.000000	0.282342
2167.000000	0.280841
2168.000000	0.279563
2169.000000	0.279462
2170.000000	0.278979
2171.000000	0.279673
2172.000000	0.282358
2173.000000	0.283252
2174.000000	0.284022
2175.000000	0.284349
2176.000000	0.283898
2177.000000	0.283415
2178.000000	0.282750
2179.000000	0.281900
2180.000000	0.279871
2181.000000	0.279317
2182.000000	0.278653
2183.000000	0.278728
2184.000000	0.279354
2185.000000	0.280171
2186.000000	0.279948
2187.000000	0.279283
2188.000000	0.279307
2189.000000	0.278990
2190.000000	0.279899
2191.000000	0.281735
2192.000000	0.281939
2193.000000	0.281576
2194.000000	0.281104
2195.000000	0.278696
2196.000000	0.278272
2197.000000	0.278814
2198.000000	0.278924
2199.000000	0.280946
2200.000000	0.281156
2201.000000	0.279588
2202.000000	0.279248
2203.000000	0.278356
2204.000000	0.276962
2205.000000	0.278877
2206.000000	0.280972
2207.000000	0.281508
2208.000000	0.280679
2209.000000	0.279508
2210.000000	0.278122
2211.000000	0.278290
2212.000000	0.280396
2213.000000	0.280956
2214.000000	0.281151
2215.000000	0.280371
2216.000000	0.279011
2217.000000	0.277869
2218.000000	0.274929
2219.000000	0.274450
2220.000000	0.274301
2221.000000	0.275489
2222.000000	0.280626
2223.000000	0.282006
2224.000000	0.282201
2225.000000	0.283203
2226.000000	0.280634
2227.000000	0.277050
2228.000000	0.276688
2229.000000	0.275706
2230.000000	0.275245
2231.000000	0.276287
2232.000000	0.276330
2233.000000	0.276020
2234.000000	0.276289
2235.000000	0.278586
2236.000000	0.278763
2237.000000	0.277754
2238.000000	0.277987
2239.000000	0.277803
2240.000000	0.277189
2241.000000	0.277791
2242.000000	0.277807
2243.000000	0.275425
2244.000000	0.276002
2245.000000	0.279130
2246.000000	0.280143
2247.000000	0.281371
2248.000000	0.282416
2249.000000	0.281712
2250.000000	0.282981
2251.000000	0.284238
2252.000000	0.284269
2253.000000	0.281693
2254.000000	0.277742
2255.000000	0.275811
2256.000000	0.275004
2257.000000	0.275480
2258.000000	0.275772
2259.000000	0.275580
2260.000000	0.275925
2261.000000	0.275856
2262.000000	0.276510
2263.000000	0.276209
2264.000000	0.274760
2265.000000	0.274201
2266.000000	0.273691
2267.000000	0.273394
2268.000000	0.273418
2269.000000	0.273694
2270.000000	0.274613
2271.000000	0.274594
2272.000000	0.274567
2273.000000	0.273958
2274.000000	0.271166
2275.000000	0.271093
2276.000000	0.272255
2277.000000	0.273819
2278.000000	0.276252
2279.000000	0.276606
2280.000000	0.273565
2281.000000	0.270778
2282.000000	0.269034
2283.000000	0.268415
2284.000000	0.269685
2285.000000	0.270940
2286.000000	0.273040
2287.000000	0.273951
2288.000000	0.274200
2289.000000	0.274840
2290.000000	0.274225
2291.000000	0.274075
2292.000000	0.273136
2293.000000	0.271260
2294.000000	0.269792
2295.000000	0.266892
2296.000000	0.265529
2297.000000	0.265542
2298.000000	0.265123
2299.000000	0.264935
2300.000000	0.264263
2301.000000	0.263363
2302.000000	0.262830
2303.000000	0.261194
2304.000000	0.261297
2305.000000	0.262860
2306.000000	0.264579
2307.000000	0.267700
2308.000000	0.270484
2309.000000	0.270180
2310.000000	0.266216
2311.000000	0.260971
2312.000000	0.258204
2313.000000	0.258161
2314.000000	0.258882
2315.000000	0.258899
2316.000000	0.256630
2317.000000	0.253874
2318.000000	0.253725
2319.000000	0.255679
2320.000000	0.258137
2321.000000	0.261085
2322.000000	0.262515
2323.000000	0.261696
2324.000000	0.262181
2325.000000	0.264118
2326.000000	0.265744
2327.000000	0.267586
2328.000000	0.267868
2329.000000	0.266285
2330.000000	0.264225
2331.000000	0.262618
2332.000000	0.262025
2333.000000	0.261383
2334.000000	0.261471
2335.000000	0.263003
2336.000000	0.266294
2337.000000	0.267442
2338.000000	0.268529
2339.000000	0.269479
2340.000000	0.267902
2341.000000	0.268079
2342.000000	0.272292
2343.000000	0.272120
2344.000000	0.269373
2345.000000	0.267885
2346.000000	0.262377
2347.000000	0.260377
2348.000000	0.261336
2349.000000	0.261286
2350.000000	0.261990
2351.000000	0.263490
2352.000000	0.260519
2353.000000	0.259646
2354.000000	0.258568
2355.000000	0.260004
2356.000000	0.264718
2357.000000	0.267699
2358.000000	0.270477
2359.000000	0.269735
2360.000000	0.265034
2361.000000	0.262004
2362.000000	0.258928
2363.000000	0.254945
2364.000000	0.255348
2365.000000	0.258111
2366.000000	0.261226
2367.000000	0.266826
2368.000000	0.271327
2369.000000	0.270037
2370.000000	0.264544
2371.000000	0.260516
2372.000000	0.255485
2373.000000	0.254232
2374.000000	0.260010
2375.000000	0.261141
2376.000000	0.260240
2377.000000	0.260579
2378.000000	0.256578
2379.000000	0.255262
2380.000000	0.257199
2381.000000	0.256838
2382.000000	0.255641
2383.000000	0.253257
2384.000000	0.252733
2385.000000	0.254584
2386.000000	0.254857
2387.000000	0.250630
2388.000000	0.245461
2389.000000	0.241372
2390.000000	0.240450
2391.000000	0.244219
2392.000000	0.247369
2393.000000	0.254706
2394.000000	0.264330
2395.000000	0.267429
2396.000000	0.266770
2397.000000	0.263305
2398.000000	0.251024
2399.000000	0.244815
2400.000000	0.247948
2401.000000	0.243282
2402.000000	0.245954
2403.000000	0.248778
2404.000000	0.245706
2405.000000	0.249522
2406.000000	0.247055
2407.000000	0.242539
2408.000000	0.242498
2409.000000	0.239166
2410.000000	0.232859
2411.000000	0.233964
2412.000000	0.236726
2413.000000	0.237506
2414.000000	0.245981
2415.000000	0.254310
2416.000000	0.258107
2417.000000	0.260567
2418.000000	0.260758
2419.000000	0.251551
2420.000000	0.241710
2421.000000	0.234367
2422.000000	0.235397
2423.000000	0.250735
2424.000000	0.260370
2425.000000	0.269872
2426.000000	0.273917
2427.000000	0.270653
2428.000000	0.270829
2429.000000	0.271264
2430.000000	0.267258
2431.000000	0.252601
2432.000000	0.238597
2433.000000	0.223247
2434.000000	0.215819
2435.000000	0.221776
2436.000000	0.224458
2437.000000	0.233570
2438.000000	0.240341
2439.000000	0.235778
2440.000000	0.234531
2441.000000	0.242784
2442.000000	0.244926
2443.000000	0.244124
2444.000000	0.254288
2445.000000	0.258815
2446.000000	0.262994
2447.000000	0.278305
2448.000000	0.285889
2449.000000	0.265394
2450.000000	0.239020
2451.000000	0.216475
2452.000000	0.197023
2453.000000	0.190730
2454.000000	0.188570
2455.000000	0.188297
2456.000000	0.182924
2457.000000	0.197730
2458.000000	0.223592
2459.000000	0.234691
2460.000000	0.254971
2461.000000	0.244363
2462.000000	0.212723
2463.000000	0.189108
2464.000000	0.166550
2465.000000	0.161282
2466.000000	0.173673
2467.000000	0.202774
2468.000000	0.222346
2469.000000	0.226971
2470.000000	0.215207
2471.000000	0.192266
2472.000000	0.191463
2473.000000	0.208273
2474.000000	0.239208
2475.000000	0.271765
2476.000000	0.264109
2477.000000	0.230021
2478.000000	0.223015
2479.000000	0.219641
2480.000000	0.211198
2481.000000	0.207881
2482.000000	0.193627
2483.000000	0.181410
2484.000000	0.174755
2485.000000	0.188556
2486.000000	0.202330
2487.000000	0.218050
2488.000000	0.257079
2489.000000	0.273702
2490.000000	0.285841
2491.000000	0.170967
2492.000000	0.145876
2493.000000	0.152249
2494.000000	0.163185
2495.000000	0.288918
2496.000000	0.301759
2497.000000	0.222296
2498.000000	0.179474
2499.000000	0.072141
2500.000000	0.018195
