# Wavelength	SM1200H-30_HEX-50_FV7-20_00002.asd.rts.txt
350.000000	0.347254
351.000000	0.320884
352.000000	0.321394
353.000000	0.311834
354.000000	0.290048
355.000000	0.327159
356.000000	0.336836
357.000000	0.319021
358.000000	0.326205
359.000000	0.329377
360.000000	0.327857
361.000000	0.326164
362.000000	0.323591
363.000000	0.325877
364.000000	0.332086
365.000000	0.327204
366.000000	0.321843
367.000000	0.320768
368.000000	0.325577
369.000000	0.326555
370.000000	0.324993
371.000000	0.324891
372.000000	0.322004
373.000000	0.324246
374.000000	0.334047
375.000000	0.335054
376.000000	0.334002
377.000000	0.334113
378.000000	0.336190
379.000000	0.335025
380.000000	0.334186
381.000000	0.339231
382.000000	0.334384
383.000000	0.329538
384.000000	0.331669
385.000000	0.330602
386.000000	0.332668
387.000000	0.337979
388.000000	0.339511
389.000000	0.340583
390.000000	0.341696
391.000000	0.342165
392.000000	0.342410
393.000000	0.342420
394.000000	0.342233
395.000000	0.342240
396.000000	0.342636
397.000000	0.343073
398.000000	0.342440
399.000000	0.342921
400.000000	0.344478
401.000000	0.345863
402.000000	0.345195
403.000000	0.345091
404.000000	0.347574
405.000000	0.348094
406.000000	0.347926
407.000000	0.348065
408.000000	0.348543
409.000000	0.349272
410.000000	0.349572
411.000000	0.348374
412.000000	0.348398
413.000000	0.349529
414.000000	0.350888
415.000000	0.351302
416.000000	0.351505
417.000000	0.352011
418.000000	0.352555
419.000000	0.353035
420.000000	0.353490
421.000000	0.354085
422.000000	0.354308
423.000000	0.354382
424.000000	0.354809
425.000000	0.355019
426.000000	0.355286
427.000000	0.355748
428.000000	0.355877
429.000000	0.356252
430.000000	0.356917
431.000000	0.357189
432.000000	0.357262
433.000000	0.357318
434.000000	0.357714
435.000000	0.358064
436.000000	0.358362
437.000000	0.358655
438.000000	0.359100
439.000000	0.359341
440.000000	0.359405
441.000000	0.359597
442.000000	0.359827
443.000000	0.359957
444.000000	0.360033
445.000000	0.360270
446.000000	0.360659
447.000000	0.360857
448.000000	0.360871
449.000000	0.361178
450.000000	0.361962
451.000000	0.362510
452.000000	0.362629
453.000000	0.362540
454.000000	0.363371
455.000000	0.363911
456.000000	0.364146
457.000000	0.364281
458.000000	0.364628
459.000000	0.364904
460.000000	0.364940
461.000000	0.365064
462.000000	0.365572
463.000000	0.366183
464.000000	0.366306
465.000000	0.366630
466.000000	0.366999
467.000000	0.366926
468.000000	0.367207
469.000000	0.367549
470.000000	0.367685
471.000000	0.367679
472.000000	0.367704
473.000000	0.367921
474.000000	0.368319
475.000000	0.368479
476.000000	0.368563
477.000000	0.368871
478.000000	0.369059
479.000000	0.369353
480.000000	0.369671
481.000000	0.369817
482.000000	0.370103
483.000000	0.370480
484.000000	0.370874
485.000000	0.371059
486.000000	0.371227
487.000000	0.371453
488.000000	0.371822
489.000000	0.372225
490.000000	0.372370
491.000000	0.372561
492.000000	0.372899
493.000000	0.373215
494.000000	0.373551
495.000000	0.373879
496.000000	0.374146
497.000000	0.374524
498.000000	0.374816
499.000000	0.375074
500.000000	0.375368
501.000000	0.375713
502.000000	0.376090
503.000000	0.376337
504.000000	0.376563
505.000000	0.376812
506.000000	0.377110
507.000000	0.377406
508.000000	0.377724
509.000000	0.378042
510.000000	0.378464
511.000000	0.378851
512.000000	0.379179
513.000000	0.379428
514.000000	0.379732
515.000000	0.380078
516.000000	0.380329
517.000000	0.380651
518.000000	0.381057
519.000000	0.381394
520.000000	0.381611
521.000000	0.381853
522.000000	0.382191
523.000000	0.382587
524.000000	0.382898
525.000000	0.383141
526.000000	0.383495
527.000000	0.383821
528.000000	0.384095
529.000000	0.384391
530.000000	0.384632
531.000000	0.384924
532.000000	0.385200
533.000000	0.385423
534.000000	0.385749
535.000000	0.386151
536.000000	0.386483
537.000000	0.386724
538.000000	0.386954
539.000000	0.387270
540.000000	0.387558
541.000000	0.387842
542.000000	0.388195
543.000000	0.388519
544.000000	0.388802
545.000000	0.389003
546.000000	0.389391
547.000000	0.389750
548.000000	0.390059
549.000000	0.390283
550.000000	0.390579
551.000000	0.390976
552.000000	0.391369
553.000000	0.391617
554.000000	0.391901
555.000000	0.392338
556.000000	0.392731
557.000000	0.392995
558.000000	0.393301
559.000000	0.393630
560.000000	0.393957
561.000000	0.394338
562.000000	0.394654
563.000000	0.394885
564.000000	0.395169
565.000000	0.395489
566.000000	0.395843
567.000000	0.396209
568.000000	0.396546
569.000000	0.396872
570.000000	0.397180
571.000000	0.397484
572.000000	0.397864
573.000000	0.398163
574.000000	0.398412
575.000000	0.398776
576.000000	0.399125
577.000000	0.399403
578.000000	0.399684
579.000000	0.400014
580.000000	0.400310
581.000000	0.400553
582.000000	0.400846
583.000000	0.401146
584.000000	0.401434
585.000000	0.401701
586.000000	0.402097
587.000000	0.402494
588.000000	0.402745
589.000000	0.403067
590.000000	0.403374
591.000000	0.403609
592.000000	0.403840
593.000000	0.404089
594.000000	0.404360
595.000000	0.404655
596.000000	0.404931
597.000000	0.405205
598.000000	0.405390
599.000000	0.405583
600.000000	0.405827
601.000000	0.406026
602.000000	0.406169
603.000000	0.406298
604.000000	0.406463
605.000000	0.406696
606.000000	0.406845
607.000000	0.406935
608.000000	0.407107
609.000000	0.407305
610.000000	0.407502
611.000000	0.407692
612.000000	0.407966
613.000000	0.408231
614.000000	0.408462
615.000000	0.408629
616.000000	0.408767
617.000000	0.408876
618.000000	0.409060
619.000000	0.409274
620.000000	0.409411
621.000000	0.409447
622.000000	0.409549
623.000000	0.409690
624.000000	0.409823
625.000000	0.409992
626.000000	0.410119
627.000000	0.410199
628.000000	0.410340
629.000000	0.410567
630.000000	0.410731
631.000000	0.410971
632.000000	0.411144
633.000000	0.411283
634.000000	0.411434
635.000000	0.411658
636.000000	0.411886
637.000000	0.412044
638.000000	0.412146
639.000000	0.412278
640.000000	0.412505
641.000000	0.412648
642.000000	0.412737
643.000000	0.412860
644.000000	0.413107
645.000000	0.413240
646.000000	0.413377
647.000000	0.413572
648.000000	0.413704
649.000000	0.413854
650.000000	0.414007
651.000000	0.414112
652.000000	0.414211
653.000000	0.414339
654.000000	0.414414
655.000000	0.414568
656.000000	0.414742
657.000000	0.414803
658.000000	0.414928
659.000000	0.415107
660.000000	0.415292
661.000000	0.415451
662.000000	0.415564
663.000000	0.415739
664.000000	0.416011
665.000000	0.416278
666.000000	0.416490
667.000000	0.416601
668.000000	0.416824
669.000000	0.417027
670.000000	0.417143
671.000000	0.417248
672.000000	0.417408
673.000000	0.417609
674.000000	0.417792
675.000000	0.417974
676.000000	0.418168
677.000000	0.418394
678.000000	0.418494
679.000000	0.418631
680.000000	0.418894
681.000000	0.419037
682.000000	0.419225
683.000000	0.419389
684.000000	0.419547
685.000000	0.419646
686.000000	0.419767
687.000000	0.419946
688.000000	0.420097
689.000000	0.420278
690.000000	0.420555
691.000000	0.420757
692.000000	0.420933
693.000000	0.421171
694.000000	0.421353
695.000000	0.421528
696.000000	0.421717
697.000000	0.421934
698.000000	0.422118
699.000000	0.422281
700.000000	0.422447
701.000000	0.422573
702.000000	0.422701
703.000000	0.422820
704.000000	0.422915
705.000000	0.423072
706.000000	0.423224
707.000000	0.423373
708.000000	0.423533
709.000000	0.423684
710.000000	0.423833
711.000000	0.423938
712.000000	0.424094
713.000000	0.424322
714.000000	0.424446
715.000000	0.424589
716.000000	0.424748
717.000000	0.424842
718.000000	0.425021
719.000000	0.425224
720.000000	0.425395
721.000000	0.425522
722.000000	0.425615
723.000000	0.425751
724.000000	0.425829
725.000000	0.425908
726.000000	0.426071
727.000000	0.426180
728.000000	0.426282
729.000000	0.426397
730.000000	0.426466
731.000000	0.426543
732.000000	0.426662
733.000000	0.426840
734.000000	0.426905
735.000000	0.426948
736.000000	0.427122
737.000000	0.427247
738.000000	0.427323
739.000000	0.427460
740.000000	0.427513
741.000000	0.427605
742.000000	0.427721
743.000000	0.427801
744.000000	0.427844
745.000000	0.427831
746.000000	0.427844
747.000000	0.427857
748.000000	0.427933
749.000000	0.428094
750.000000	0.428270
751.000000	0.428367
752.000000	0.428421
753.000000	0.428475
754.000000	0.428541
755.000000	0.428626
756.000000	0.428719
757.000000	0.428746
758.000000	0.428748
759.000000	0.428844
760.000000	0.428981
761.000000	0.429143
762.000000	0.429251
763.000000	0.429287
764.000000	0.429381
765.000000	0.429406
766.000000	0.429432
767.000000	0.429520
768.000000	0.429581
769.000000	0.429644
770.000000	0.429719
771.000000	0.429760
772.000000	0.429913
773.000000	0.430043
774.000000	0.430094
775.000000	0.430101
776.000000	0.430151
777.000000	0.430251
778.000000	0.430278
779.000000	0.430299
780.000000	0.430341
781.000000	0.430365
782.000000	0.430368
783.000000	0.430486
784.000000	0.430603
785.000000	0.430676
786.000000	0.430694
787.000000	0.430656
788.000000	0.430582
789.000000	0.430579
790.000000	0.430608
791.000000	0.430623
792.000000	0.430744
793.000000	0.430894
794.000000	0.430995
795.000000	0.431050
796.000000	0.431075
797.000000	0.431072
798.000000	0.431053
799.000000	0.431065
800.000000	0.431088
801.000000	0.431094
802.000000	0.431106
803.000000	0.431157
804.000000	0.431281
805.000000	0.431340
806.000000	0.431309
807.000000	0.431290
808.000000	0.431238
809.000000	0.431246
810.000000	0.431295
811.000000	0.431327
812.000000	0.431308
813.000000	0.431341
814.000000	0.431373
815.000000	0.431252
816.000000	0.431125
817.000000	0.431117
818.000000	0.431166
819.000000	0.431132
820.000000	0.431150
821.000000	0.431187
822.000000	0.431167
823.000000	0.431201
824.000000	0.431220
825.000000	0.431268
826.000000	0.431279
827.000000	0.431223
828.000000	0.431170
829.000000	0.431186
830.000000	0.431122
831.000000	0.431038
832.000000	0.430880
833.000000	0.430806
834.000000	0.430782
835.000000	0.430786
836.000000	0.430752
837.000000	0.430668
838.000000	0.430595
839.000000	0.430587
840.000000	0.430622
841.000000	0.430633
842.000000	0.430522
843.000000	0.430385
844.000000	0.430300
845.000000	0.430261
846.000000	0.430278
847.000000	0.430312
848.000000	0.430262
849.000000	0.430116
850.000000	0.430065
851.000000	0.430048
852.000000	0.430083
853.000000	0.430171
854.000000	0.430043
855.000000	0.429919
856.000000	0.429879
857.000000	0.429859
858.000000	0.429876
859.000000	0.429792
860.000000	0.429534
861.000000	0.429341
862.000000	0.429279
863.000000	0.429220
864.000000	0.429127
865.000000	0.429035
866.000000	0.429005
867.000000	0.429037
868.000000	0.429022
869.000000	0.428902
870.000000	0.428816
871.000000	0.428814
872.000000	0.428779
873.000000	0.428609
874.000000	0.428585
875.000000	0.428417
876.000000	0.428169
877.000000	0.427944
878.000000	0.427697
879.000000	0.427579
880.000000	0.427434
881.000000	0.427173
882.000000	0.426947
883.000000	0.426814
884.000000	0.426689
885.000000	0.426609
886.000000	0.426483
887.000000	0.426344
888.000000	0.426356
889.000000	0.426256
890.000000	0.426015
891.000000	0.425962
892.000000	0.425711
893.000000	0.425352
894.000000	0.425132
895.000000	0.424940
896.000000	0.424758
897.000000	0.424575
898.000000	0.424389
899.000000	0.424202
900.000000	0.424052
901.000000	0.423926
902.000000	0.423924
903.000000	0.423838
904.000000	0.423726
905.000000	0.423569
906.000000	0.423511
907.000000	0.423212
908.000000	0.422800
909.000000	0.422664
910.000000	0.422493
911.000000	0.422237
912.000000	0.421962
913.000000	0.421821
914.000000	0.421573
915.000000	0.421317
916.000000	0.421170
917.000000	0.420964
918.000000	0.420770
919.000000	0.420602
920.000000	0.420337
921.000000	0.420100
922.000000	0.419898
923.000000	0.419641
924.000000	0.419390
925.000000	0.419019
926.000000	0.418627
927.000000	0.418585
928.000000	0.418445
929.000000	0.418175
930.000000	0.417907
931.000000	0.417792
932.000000	0.417705
933.000000	0.417554
934.000000	0.417168
935.000000	0.416764
936.000000	0.416464
937.000000	0.416204
938.000000	0.416074
939.000000	0.415916
940.000000	0.415674
941.000000	0.415555
942.000000	0.415180
943.000000	0.414838
944.000000	0.414554
945.000000	0.414346
946.000000	0.413965
947.000000	0.413664
948.000000	0.413617
949.000000	0.413330
950.000000	0.412983
951.000000	0.412560
952.000000	0.412030
953.000000	0.411868
954.000000	0.411871
955.000000	0.411707
956.000000	0.411452
957.000000	0.411369
958.000000	0.411297
959.000000	0.411110
960.000000	0.410974
961.000000	0.410610
962.000000	0.410093
963.000000	0.410002
964.000000	0.409781
965.000000	0.409530
966.000000	0.409241
967.000000	0.408868
968.000000	0.408501
969.000000	0.408107
970.000000	0.407804
971.000000	0.407762
972.000000	0.407722
973.000000	0.407485
974.000000	0.407246
975.000000	0.407013
976.000000	0.406744
977.000000	0.406423
978.000000	0.406168
979.000000	0.406058
980.000000	0.405883
981.000000	0.405899
982.000000	0.405514
983.000000	0.405019
984.000000	0.404783
985.000000	0.404924
986.000000	0.404698
987.000000	0.404520
988.000000	0.404500
989.000000	0.404108
990.000000	0.403899
991.000000	0.403802
992.000000	0.403654
993.000000	0.403665
994.000000	0.403589
995.000000	0.403484
996.000000	0.403146
997.000000	0.403088
998.000000	0.403015
999.000000	0.402920
1000.000000	0.403000
1001.000000	0.403389
1002.000000	0.403012
1003.000000	0.402534
1004.000000	0.402194
1005.000000	0.401449
1006.000000	0.401048
1007.000000	0.400744
1008.000000	0.401161
1009.000000	0.401741
1010.000000	0.400850
1011.000000	0.400337
1012.000000	0.400606
1013.000000	0.400283
1014.000000	0.400242
1015.000000	0.400483
1016.000000	0.400447
1017.000000	0.399653
1018.000000	0.399358
1019.000000	0.399294
1020.000000	0.399299
1021.000000	0.399016
1022.000000	0.399612
1023.000000	0.399839
1024.000000	0.399453
1025.000000	0.399692
1026.000000	0.399461
1027.000000	0.398272
1028.000000	0.398213
1029.000000	0.398087
1030.000000	0.398171
1031.000000	0.398855
1032.000000	0.399024
1033.000000	0.399350
1034.000000	0.399575
1035.000000	0.399850
1036.000000	0.400095
1037.000000	0.400270
1038.000000	0.400244
1039.000000	0.400394
1040.000000	0.400331
1041.000000	0.399929
1042.000000	0.399883
1043.000000	0.399884
1044.000000	0.400238
1045.000000	0.400707
1046.000000	0.400839
1047.000000	0.401032
1048.000000	0.400891
1049.000000	0.400987
1050.000000	0.401432
1051.000000	0.401620
1052.000000	0.401726
1053.000000	0.401667
1054.000000	0.401348
1055.000000	0.401491
1056.000000	0.401895
1057.000000	0.402251
1058.000000	0.402776
1059.000000	0.402837
1060.000000	0.402500
1061.000000	0.402986
1062.000000	0.403216
1063.000000	0.403453
1064.000000	0.403644
1065.000000	0.403418
1066.000000	0.403612
1067.000000	0.404094
1068.000000	0.404427
1069.000000	0.404846
1070.000000	0.405269
1071.000000	0.405891
1072.000000	0.406030
1073.000000	0.405900
1074.000000	0.405960
1075.000000	0.405979
1076.000000	0.406128
1077.000000	0.406491
1078.000000	0.407007
1079.000000	0.406997
1080.000000	0.406471
1081.000000	0.406374
1082.000000	0.406138
1083.000000	0.406371
1084.000000	0.407137
1085.000000	0.407685
1086.000000	0.408629
1087.000000	0.409091
1088.000000	0.409084
1089.000000	0.409188
1090.000000	0.409271
1091.000000	0.408738
1092.000000	0.408872
1093.000000	0.409302
1094.000000	0.409459
1095.000000	0.409547
1096.000000	0.409881
1097.000000	0.410352
1098.000000	0.410469
1099.000000	0.410424
1100.000000	0.410702
1101.000000	0.410757
1102.000000	0.410884
1103.000000	0.411396
1104.000000	0.411722
1105.000000	0.411844
1106.000000	0.411926
1107.000000	0.411912
1108.000000	0.411973
1109.000000	0.412039
1110.000000	0.411875
1111.000000	0.412302
1112.000000	0.413201
1113.000000	0.413714
1114.000000	0.414618
1115.000000	0.414763
1116.000000	0.414374
1117.000000	0.414119
1118.000000	0.413251
1119.000000	0.413061
1120.000000	0.413292
1121.000000	0.413332
1122.000000	0.413707
1123.000000	0.414190
1124.000000	0.414296
1125.000000	0.414510
1126.000000	0.414936
1127.000000	0.415074
1128.000000	0.415063
1129.000000	0.414781
1130.000000	0.414976
1131.000000	0.415323
1132.000000	0.415419
1133.000000	0.415741
1134.000000	0.415954
1135.000000	0.415879
1136.000000	0.415821
1137.000000	0.415887
1138.000000	0.415795
1139.000000	0.415545
1140.000000	0.415483
1141.000000	0.415440
1142.000000	0.415420
1143.000000	0.415214
1144.000000	0.415361
1145.000000	0.415607
1146.000000	0.415645
1147.000000	0.415663
1148.000000	0.415635
1149.000000	0.415568
1150.000000	0.415260
1151.000000	0.415340
1152.000000	0.415623
1153.000000	0.415715
1154.000000	0.415865
1155.000000	0.415876
1156.000000	0.415695
1157.000000	0.415584
1158.000000	0.415411
1159.000000	0.415283
1160.000000	0.415131
1161.000000	0.414991
1162.000000	0.415026
1163.000000	0.415021
1164.000000	0.414994
1165.000000	0.414960
1166.000000	0.414993
1167.000000	0.415069
1168.000000	0.414993
1169.000000	0.414860
1170.000000	0.414860
1171.000000	0.414887
1172.000000	0.414947
1173.000000	0.415217
1174.000000	0.415164
1175.000000	0.414715
1176.000000	0.414573
1177.000000	0.414545
1178.000000	0.414517
1179.000000	0.414747
1180.000000	0.414763
1181.000000	0.414755
1182.000000	0.414635
1183.000000	0.414791
1184.000000	0.414849
1185.000000	0.414811
1186.000000	0.414724
1187.000000	0.414756
1188.000000	0.414745
1189.000000	0.414711
1190.000000	0.414901
1191.000000	0.414844
1192.000000	0.414683
1193.000000	0.414706
1194.000000	0.414552
1195.000000	0.414510
1196.000000	0.414444
1197.000000	0.414444
1198.000000	0.414671
1199.000000	0.414708
1200.000000	0.414562
1201.000000	0.414586
1202.000000	0.414749
1203.000000	0.414773
1204.000000	0.414829
1205.000000	0.414885
1206.000000	0.414814
1207.000000	0.414568
1208.000000	0.414476
1209.000000	0.414592
1210.000000	0.414594
1211.000000	0.414538
1212.000000	0.414478
1213.000000	0.414450
1214.000000	0.414443
1215.000000	0.414413
1216.000000	0.414404
1217.000000	0.414475
1218.000000	0.414341
1219.000000	0.414031
1220.000000	0.413927
1221.000000	0.413805
1222.000000	0.413736
1223.000000	0.413955
1224.000000	0.414058
1225.000000	0.414091
1226.000000	0.414233
1227.000000	0.414235
1228.000000	0.414248
1229.000000	0.414211
1230.000000	0.414047
1231.000000	0.413951
1232.000000	0.414077
1233.000000	0.414155
1234.000000	0.414241
1235.000000	0.414176
1236.000000	0.413834
1237.000000	0.413729
1238.000000	0.413569
1239.000000	0.413459
1240.000000	0.413509
1241.000000	0.413418
1242.000000	0.413383
1243.000000	0.413451
1244.000000	0.413410
1245.000000	0.413653
1246.000000	0.413790
1247.000000	0.413739
1248.000000	0.413857
1249.000000	0.413852
1250.000000	0.413640
1251.000000	0.413586
1252.000000	0.413549
1253.000000	0.413527
1254.000000	0.413546
1255.000000	0.413682
1256.000000	0.413662
1257.000000	0.413585
1258.000000	0.413646
1259.000000	0.413717
1260.000000	0.413758
1261.000000	0.413679
1262.000000	0.413667
1263.000000	0.413670
1264.000000	0.413584
1265.000000	0.413724
1266.000000	0.413859
1267.000000	0.413818
1268.000000	0.413816
1269.000000	0.413684
1270.000000	0.413599
1271.000000	0.413462
1272.000000	0.413310
1273.000000	0.413284
1274.000000	0.413257
1275.000000	0.413238
1276.000000	0.413349
1277.000000	0.413424
1278.000000	0.413332
1279.000000	0.413320
1280.000000	0.413236
1281.000000	0.413174
1282.000000	0.413263
1283.000000	0.413302
1284.000000	0.413200
1285.000000	0.413224
1286.000000	0.413246
1287.000000	0.413228
1288.000000	0.413364
1289.000000	0.413420
1290.000000	0.413300
1291.000000	0.413115
1292.000000	0.413057
1293.000000	0.412972
1294.000000	0.412750
1295.000000	0.412783
1296.000000	0.412913
1297.000000	0.412812
1298.000000	0.412876
1299.000000	0.413045
1300.000000	0.413059
1301.000000	0.413050
1302.000000	0.412951
1303.000000	0.412918
1304.000000	0.412848
1305.000000	0.412881
1306.000000	0.412770
1307.000000	0.412625
1308.000000	0.412604
1309.000000	0.412523
1310.000000	0.412481
1311.000000	0.412623
1312.000000	0.412648
1313.000000	0.412535
1314.000000	0.412522
1315.000000	0.412391
1316.000000	0.412197
1317.000000	0.412253
1318.000000	0.412183
1319.000000	0.411841
1320.000000	0.411856
1321.000000	0.411643
1322.000000	0.411032
1323.000000	0.410958
1324.000000	0.410929
1325.000000	0.410528
1326.000000	0.410282
1327.000000	0.410053
1328.000000	0.409914
1329.000000	0.409702
1330.000000	0.409680
1331.000000	0.409556
1332.000000	0.409309
1333.000000	0.409096
1334.000000	0.409067
1335.000000	0.408992
1336.000000	0.408854
1337.000000	0.408693
1338.000000	0.408509
1339.000000	0.408180
1340.000000	0.407760
1341.000000	0.407487
1342.000000	0.407271
1343.000000	0.406926
1344.000000	0.406490
1345.000000	0.406239
1346.000000	0.405957
1347.000000	0.405543
1348.000000	0.405514
1349.000000	0.405239
1350.000000	0.404868
1351.000000	0.404673
1352.000000	0.404263
1353.000000	0.403835
1354.000000	0.403648
1355.000000	0.403384
1356.000000	0.403171
1357.000000	0.402943
1358.000000	0.402628
1359.000000	0.402277
1360.000000	0.401970
1361.000000	0.401725
1362.000000	0.401503
1363.000000	0.401307
1364.000000	0.401093
1365.000000	0.400886
1366.000000	0.400622
1367.000000	0.400338
1368.000000	0.399908
1369.000000	0.399635
1370.000000	0.399283
1371.000000	0.398865
1372.000000	0.398486
1373.000000	0.397911
1374.000000	0.397325
1375.000000	0.396607
1376.000000	0.395788
1377.000000	0.394990
1378.000000	0.393977
1379.000000	0.392842
1380.000000	0.391735
1381.000000	0.390296
1382.000000	0.388625
1383.000000	0.386798
1384.000000	0.384620
1385.000000	0.382664
1386.000000	0.380960
1387.000000	0.379379
1388.000000	0.378027
1389.000000	0.376870
1390.000000	0.375965
1391.000000	0.375217
1392.000000	0.374822
1393.000000	0.374401
1394.000000	0.374177
1395.000000	0.373933
1396.000000	0.373781
1397.000000	0.373410
1398.000000	0.373110
1399.000000	0.372517
1400.000000	0.371566
1401.000000	0.370698
1402.000000	0.369853
1403.000000	0.368795
1404.000000	0.367680
1405.000000	0.366653
1406.000000	0.365488
1407.000000	0.364293
1408.000000	0.363241
1409.000000	0.362254
1410.000000	0.361182
1411.000000	0.360062
1412.000000	0.358907
1413.000000	0.357785
1414.000000	0.356754
1415.000000	0.355822
1416.000000	0.354881
1417.000000	0.353927
1418.000000	0.352948
1419.000000	0.351940
1420.000000	0.350951
1421.000000	0.350130
1422.000000	0.349225
1423.000000	0.348400
1424.000000	0.347484
1425.000000	0.346542
1426.000000	0.345642
1427.000000	0.344839
1428.000000	0.344255
1429.000000	0.343549
1430.000000	0.342785
1431.000000	0.342207
1432.000000	0.341532
1433.000000	0.340762
1434.000000	0.340073
1435.000000	0.339547
1436.000000	0.338913
1437.000000	0.338248
1438.000000	0.337557
1439.000000	0.336804
1440.000000	0.336187
1441.000000	0.335644
1442.000000	0.335122
1443.000000	0.334599
1444.000000	0.334201
1445.000000	0.333805
1446.000000	0.333200
1447.000000	0.332589
1448.000000	0.332128
1449.000000	0.331616
1450.000000	0.331272
1451.000000	0.331157
1452.000000	0.330884
1453.000000	0.330508
1454.000000	0.330135
1455.000000	0.329766
1456.000000	0.329491
1457.000000	0.329250
1458.000000	0.329029
1459.000000	0.328758
1460.000000	0.328441
1461.000000	0.328276
1462.000000	0.328141
1463.000000	0.327935
1464.000000	0.327835
1465.000000	0.327692
1466.000000	0.327462
1467.000000	0.327353
1468.000000	0.327238
1469.000000	0.327270
1470.000000	0.327352
1471.000000	0.327447
1472.000000	0.327583
1473.000000	0.327749
1474.000000	0.327941
1475.000000	0.328212
1476.000000	0.328561
1477.000000	0.328961
1478.000000	0.329359
1479.000000	0.329736
1480.000000	0.330094
1481.000000	0.330445
1482.000000	0.330764
1483.000000	0.331217
1484.000000	0.331781
1485.000000	0.332299
1486.000000	0.332830
1487.000000	0.333414
1488.000000	0.334069
1489.000000	0.334663
1490.000000	0.335152
1491.000000	0.335655
1492.000000	0.336032
1493.000000	0.336440
1494.000000	0.336823
1495.000000	0.337251
1496.000000	0.337733
1497.000000	0.338134
1498.000000	0.338503
1499.000000	0.338915
1500.000000	0.339338
1501.000000	0.339667
1502.000000	0.340062
1503.000000	0.340533
1504.000000	0.340980
1505.000000	0.341314
1506.000000	0.341670
1507.000000	0.342008
1508.000000	0.342340
1509.000000	0.342741
1510.000000	0.343056
1511.000000	0.343372
1512.000000	0.343674
1513.000000	0.343956
1514.000000	0.344268
1515.000000	0.344531
1516.000000	0.344819
1517.000000	0.345044
1518.000000	0.345244
1519.000000	0.345432
1520.000000	0.345609
1521.000000	0.345675
1522.000000	0.345797
1523.000000	0.346035
1524.000000	0.346146
1525.000000	0.346227
1526.000000	0.346320
1527.000000	0.346362
1528.000000	0.346494
1529.000000	0.346634
1530.000000	0.346600
1531.000000	0.346686
1532.000000	0.346823
1533.000000	0.346893
1534.000000	0.347051
1535.000000	0.347254
1536.000000	0.347324
1537.000000	0.347476
1538.000000	0.347754
1539.000000	0.347897
1540.000000	0.347910
1541.000000	0.347945
1542.000000	0.347998
1543.000000	0.348018
1544.000000	0.348163
1545.000000	0.348467
1546.000000	0.348639
1547.000000	0.348721
1548.000000	0.348803
1549.000000	0.348791
1550.000000	0.348782
1551.000000	0.348897
1552.000000	0.349007
1553.000000	0.348961
1554.000000	0.348901
1555.000000	0.348938
1556.000000	0.348915
1557.000000	0.348833
1558.000000	0.348869
1559.000000	0.348901
1560.000000	0.348889
1561.000000	0.348937
1562.000000	0.349019
1563.000000	0.349178
1564.000000	0.349247
1565.000000	0.349371
1566.000000	0.349303
1567.000000	0.349073
1568.000000	0.349054
1569.000000	0.349167
1570.000000	0.349240
1571.000000	0.349478
1572.000000	0.349494
1573.000000	0.349371
1574.000000	0.349286
1575.000000	0.349077
1576.000000	0.349035
1577.000000	0.349034
1578.000000	0.349079
1579.000000	0.349353
1580.000000	0.349466
1581.000000	0.349661
1582.000000	0.349687
1583.000000	0.349527
1584.000000	0.349436
1585.000000	0.349389
1586.000000	0.349343
1587.000000	0.349300
1588.000000	0.349309
1589.000000	0.349328
1590.000000	0.349322
1591.000000	0.349368
1592.000000	0.349451
1593.000000	0.349602
1594.000000	0.349669
1595.000000	0.349796
1596.000000	0.349875
1597.000000	0.349910
1598.000000	0.349904
1599.000000	0.349942
1600.000000	0.349946
1601.000000	0.349918
1602.000000	0.349935
1603.000000	0.350069
1604.000000	0.350073
1605.000000	0.350016
1606.000000	0.350027
1607.000000	0.350043
1608.000000	0.350097
1609.000000	0.350316
1610.000000	0.350445
1611.000000	0.350561
1612.000000	0.350669
1613.000000	0.350877
1614.000000	0.350986
1615.000000	0.351123
1616.000000	0.351283
1617.000000	0.351335
1618.000000	0.351416
1619.000000	0.351509
1620.000000	0.351592
1621.000000	0.351651
1622.000000	0.351903
1623.000000	0.352277
1624.000000	0.352444
1625.000000	0.352456
1626.000000	0.352533
1627.000000	0.352479
1628.000000	0.352603
1629.000000	0.352903
1630.000000	0.353079
1631.000000	0.353129
1632.000000	0.353259
1633.000000	0.353410
1634.000000	0.353611
1635.000000	0.353948
1636.000000	0.354115
1637.000000	0.354259
1638.000000	0.354387
1639.000000	0.354427
1640.000000	0.354611
1641.000000	0.354974
1642.000000	0.355199
1643.000000	0.355534
1644.000000	0.355702
1645.000000	0.355647
1646.000000	0.355737
1647.000000	0.355813
1648.000000	0.355996
1649.000000	0.356470
1650.000000	0.356788
1651.000000	0.357201
1652.000000	0.357420
1653.000000	0.357333
1654.000000	0.357498
1655.000000	0.357613
1656.000000	0.357703
1657.000000	0.358001
1658.000000	0.358241
1659.000000	0.358546
1660.000000	0.358783
1661.000000	0.358978
1662.000000	0.359077
1663.000000	0.358983
1664.000000	0.359047
1665.000000	0.359109
1666.000000	0.359320
1667.000000	0.359546
1668.000000	0.359746
1669.000000	0.360016
1670.000000	0.360132
1671.000000	0.360261
1672.000000	0.360501
1673.000000	0.360704
1674.000000	0.360923
1675.000000	0.361213
1676.000000	0.361512
1677.000000	0.361629
1678.000000	0.361648
1679.000000	0.361691
1680.000000	0.361661
1681.000000	0.361772
1682.000000	0.362008
1683.000000	0.362291
1684.000000	0.362498
1685.000000	0.362589
1686.000000	0.362690
1687.000000	0.362870
1688.000000	0.362979
1689.000000	0.363201
1690.000000	0.363441
1691.000000	0.363520
1692.000000	0.363548
1693.000000	0.363658
1694.000000	0.363675
1695.000000	0.363745
1696.000000	0.363805
1697.000000	0.363806
1698.000000	0.363791
1699.000000	0.363898
1700.000000	0.364106
1701.000000	0.364322
1702.000000	0.364389
1703.000000	0.364469
1704.000000	0.364622
1705.000000	0.364745
1706.000000	0.365009
1707.000000	0.365107
1708.000000	0.364950
1709.000000	0.364933
1710.000000	0.365043
1711.000000	0.365143
1712.000000	0.365371
1713.000000	0.365532
1714.000000	0.365632
1715.000000	0.365824
1716.000000	0.366123
1717.000000	0.366368
1718.000000	0.366666
1719.000000	0.366775
1720.000000	0.366827
1721.000000	0.366848
1722.000000	0.366660
1723.000000	0.366698
1724.000000	0.366909
1725.000000	0.367024
1726.000000	0.367060
1727.000000	0.367169
1728.000000	0.367177
1729.000000	0.367206
1730.000000	0.367538
1731.000000	0.367617
1732.000000	0.367496
1733.000000	0.367678
1734.000000	0.367796
1735.000000	0.367868
1736.000000	0.368052
1737.000000	0.368085
1738.000000	0.367881
1739.000000	0.368007
1740.000000	0.368320
1741.000000	0.368396
1742.000000	0.368515
1743.000000	0.368623
1744.000000	0.368562
1745.000000	0.368558
1746.000000	0.368612
1747.000000	0.368636
1748.000000	0.368674
1749.000000	0.369016
1750.000000	0.369060
1751.000000	0.368901
1752.000000	0.369070
1753.000000	0.369128
1754.000000	0.369195
1755.000000	0.369575
1756.000000	0.369634
1757.000000	0.369255
1758.000000	0.369210
1759.000000	0.369111
1760.000000	0.369213
1761.000000	0.369726
1762.000000	0.369919
1763.000000	0.370095
1764.000000	0.370159
1765.000000	0.369876
1766.000000	0.369856
1767.000000	0.369825
1768.000000	0.369780
1769.000000	0.369991
1770.000000	0.370071
1771.000000	0.369995
1772.000000	0.369996
1773.000000	0.369911
1774.000000	0.369932
1775.000000	0.370042
1776.000000	0.370233
1777.000000	0.370540
1778.000000	0.370632
1779.000000	0.370670
1780.000000	0.370783
1781.000000	0.370724
1782.000000	0.370817
1783.000000	0.371163
1784.000000	0.371306
1785.000000	0.371231
1786.000000	0.371409
1787.000000	0.371558
1788.000000	0.371583
1789.000000	0.371867
1790.000000	0.371683
1791.000000	0.371702
1792.000000	0.372057
1793.000000	0.372211
1794.000000	0.372428
1795.000000	0.372665
1796.000000	0.372710
1797.000000	0.372818
1798.000000	0.373066
1799.000000	0.373197
1800.000000	0.373239
1801.000000	0.372960
1802.000000	0.373172
1803.000000	0.373370
1804.000000	0.373719
1805.000000	0.373754
1806.000000	0.374338
1807.000000	0.376144
1808.000000	0.376657
1809.000000	0.376528
1810.000000	0.376681
1811.000000	0.376570
1812.000000	0.375422
1813.000000	0.375251
1814.000000	0.375889
1815.000000	0.375898
1816.000000	0.375792
1817.000000	0.375682
1818.000000	0.375648
1819.000000	0.375299
1820.000000	0.375471
1821.000000	0.375034
1822.000000	0.374939
1823.000000	0.374913
1824.000000	0.374695
1825.000000	0.374426
1826.000000	0.374139
1827.000000	0.373364
1828.000000	0.372822
1829.000000	0.372819
1830.000000	0.373287
1831.000000	0.373275
1832.000000	0.373494
1833.000000	0.373366
1834.000000	0.372903
1835.000000	0.372264
1836.000000	0.370824
1837.000000	0.370380
1838.000000	0.369807
1839.000000	0.369900
1840.000000	0.370125
1841.000000	0.371355
1842.000000	0.371854
1843.000000	0.371884
1844.000000	0.372149
1845.000000	0.372645
1846.000000	0.372561
1847.000000	0.372038
1848.000000	0.371530
1849.000000	0.370667
1850.000000	0.369611
1851.000000	0.368812
1852.000000	0.367982
1853.000000	0.367364
1854.000000	0.366859
1855.000000	0.366009
1856.000000	0.365078
1857.000000	0.364068
1858.000000	0.362465
1859.000000	0.361025
1860.000000	0.360050
1861.000000	0.358885
1862.000000	0.357866
1863.000000	0.357434
1864.000000	0.356463
1865.000000	0.355425
1866.000000	0.354093
1867.000000	0.352369
1868.000000	0.350623
1869.000000	0.349065
1870.000000	0.346737
1871.000000	0.344275
1872.000000	0.341732
1873.000000	0.339011
1874.000000	0.335320
1875.000000	0.332833
1876.000000	0.331058
1877.000000	0.328201
1878.000000	0.324962
1879.000000	0.322006
1880.000000	0.318178
1881.000000	0.314109
1882.000000	0.310663
1883.000000	0.307410
1884.000000	0.303865
1885.000000	0.300281
1886.000000	0.296177
1887.000000	0.291916
1888.000000	0.286496
1889.000000	0.281267
1890.000000	0.276666
1891.000000	0.272681
1892.000000	0.268874
1893.000000	0.264546
1894.000000	0.260121
1895.000000	0.255659
1896.000000	0.250840
1897.000000	0.246395
1898.000000	0.242124
1899.000000	0.238204
1900.000000	0.235145
1901.000000	0.232026
1902.000000	0.228578
1903.000000	0.225212
1904.000000	0.221275
1905.000000	0.217647
1906.000000	0.214596
1907.000000	0.212415
1908.000000	0.210161
1909.000000	0.208204
1910.000000	0.206033
1911.000000	0.203199
1912.000000	0.201116
1913.000000	0.199673
1914.000000	0.198003
1915.000000	0.196849
1916.000000	0.195977
1917.000000	0.194897
1918.000000	0.193553
1919.000000	0.192751
1920.000000	0.191660
1921.000000	0.190313
1922.000000	0.189304
1923.000000	0.188639
1924.000000	0.188683
1925.000000	0.188853
1926.000000	0.188941
1927.000000	0.188329
1928.000000	0.187818
1929.000000	0.186858
1930.000000	0.186670
1931.000000	0.186741
1932.000000	0.187451
1933.000000	0.188156
1934.000000	0.188165
1935.000000	0.188018
1936.000000	0.187817
1937.000000	0.187763
1938.000000	0.187866
1939.000000	0.187957
1940.000000	0.188322
1941.000000	0.188211
1942.000000	0.187731
1943.000000	0.187365
1944.000000	0.187161
1945.000000	0.187195
1946.000000	0.187076
1947.000000	0.187067
1948.000000	0.186636
1949.000000	0.185695
1950.000000	0.185433
1951.000000	0.185108
1952.000000	0.184897
1953.000000	0.184522
1954.000000	0.184810
1955.000000	0.184677
1956.000000	0.184714
1957.000000	0.185033
1958.000000	0.184592
1959.000000	0.184493
1960.000000	0.184018
1961.000000	0.183094
1962.000000	0.182563
1963.000000	0.182340
1964.000000	0.181910
1965.000000	0.181369
1966.000000	0.181344
1967.000000	0.181605
1968.000000	0.181878
1969.000000	0.182470
1970.000000	0.182817
1971.000000	0.182412
1972.000000	0.182024
1973.000000	0.181866
1974.000000	0.181580
1975.000000	0.181818
1976.000000	0.182693
1977.000000	0.183337
1978.000000	0.183582
1979.000000	0.183839
1980.000000	0.184107
1981.000000	0.184586
1982.000000	0.185741
1983.000000	0.186725
1984.000000	0.187172
1985.000000	0.187093
1986.000000	0.187502
1987.000000	0.187663
1988.000000	0.188194
1989.000000	0.189300
1990.000000	0.190390
1991.000000	0.191167
1992.000000	0.191677
1993.000000	0.192463
1994.000000	0.193093
1995.000000	0.193528
1996.000000	0.194287
1997.000000	0.195093
1998.000000	0.196033
1999.000000	0.196935
2000.000000	0.198001
2001.000000	0.198879
2002.000000	0.199522
2003.000000	0.200778
2004.000000	0.202443
2005.000000	0.203660
2006.000000	0.205367
2007.000000	0.206393
2008.000000	0.207183
2009.000000	0.207392
2010.000000	0.208175
2011.000000	0.208635
2012.000000	0.209496
2013.000000	0.210781
2014.000000	0.211776
2015.000000	0.212710
2016.000000	0.213981
2017.000000	0.214948
2018.000000	0.216133
2019.000000	0.217433
2020.000000	0.218764
2021.000000	0.220047
2022.000000	0.221363
2023.000000	0.222541
2024.000000	0.223745
2025.000000	0.224639
2026.000000	0.225193
2027.000000	0.225762
2028.000000	0.226171
2029.000000	0.227064
2030.000000	0.228273
2031.000000	0.229424
2032.000000	0.230521
2033.000000	0.231730
2034.000000	0.232498
2035.000000	0.232841
2036.000000	0.233391
2037.000000	0.233592
2038.000000	0.234412
2039.000000	0.235683
2040.000000	0.237070
2041.000000	0.238473
2042.000000	0.239785
2043.000000	0.240502
2044.000000	0.241564
2045.000000	0.242382
2046.000000	0.243306
2047.000000	0.244401
2048.000000	0.245590
2049.000000	0.246707
2050.000000	0.247684
2051.000000	0.248561
2052.000000	0.249301
2053.000000	0.249832
2054.000000	0.250424
2055.000000	0.251205
2056.000000	0.250907
2057.000000	0.251235
2058.000000	0.252187
2059.000000	0.252549
2060.000000	0.253401
2061.000000	0.255264
2062.000000	0.255960
2063.000000	0.256290
2064.000000	0.256575
2065.000000	0.256372
2066.000000	0.256512
2067.000000	0.256898
2068.000000	0.257168
2069.000000	0.258245
2070.000000	0.259789
2071.000000	0.261464
2072.000000	0.263258
2073.000000	0.264591
2074.000000	0.265633
2075.000000	0.266295
2076.000000	0.266177
2077.000000	0.266650
2078.000000	0.267218
2079.000000	0.267647
2080.000000	0.268100
2081.000000	0.268972
2082.000000	0.270198
2083.000000	0.270545
2084.000000	0.271838
2085.000000	0.273072
2086.000000	0.273591
2087.000000	0.274107
2088.000000	0.274520
2089.000000	0.275343
2090.000000	0.275805
2091.000000	0.276064
2092.000000	0.276869
2093.000000	0.277641
2094.000000	0.278449
2095.000000	0.280153
2096.000000	0.281149
2097.000000	0.281534
2098.000000	0.281963
2099.000000	0.282826
2100.000000	0.283678
2101.000000	0.285339
2102.000000	0.287410
2103.000000	0.288484
2104.000000	0.289448
2105.000000	0.290106
2106.000000	0.289787
2107.000000	0.290154
2108.000000	0.290941
2109.000000	0.291119
2110.000000	0.290793
2111.000000	0.290955
2112.000000	0.290625
2113.000000	0.290831
2114.000000	0.292210
2115.000000	0.292749
2116.000000	0.293762
2117.000000	0.294474
2118.000000	0.294497
2119.000000	0.294329
2120.000000	0.294432
2121.000000	0.294206
2122.000000	0.294585
2123.000000	0.295724
2124.000000	0.296325
2125.000000	0.296790
2126.000000	0.297216
2127.000000	0.297170
2128.000000	0.297725
2129.000000	0.298703
2130.000000	0.299509
2131.000000	0.300427
2132.000000	0.300947
2133.000000	0.301003
2134.000000	0.302004
2135.000000	0.302197
2136.000000	0.302083
2137.000000	0.302244
2138.000000	0.302208
2139.000000	0.302118
2140.000000	0.302132
2141.000000	0.302353
2142.000000	0.302379
2143.000000	0.302409
2144.000000	0.303214
2145.000000	0.303636
2146.000000	0.303869
2147.000000	0.304254
2148.000000	0.304419
2149.000000	0.304404
2150.000000	0.304467
2151.000000	0.304460
2152.000000	0.304990
2153.000000	0.305049
2154.000000	0.304730
2155.000000	0.303892
2156.000000	0.303741
2157.000000	0.303279
2158.000000	0.303430
2159.000000	0.304693
2160.000000	0.305319
2161.000000	0.305676
2162.000000	0.306249
2163.000000	0.307087
2164.000000	0.307216
2165.000000	0.307304
2166.000000	0.306822
2167.000000	0.305165
2168.000000	0.304077
2169.000000	0.303760
2170.000000	0.303603
2171.000000	0.304116
2172.000000	0.305981
2173.000000	0.306766
2174.000000	0.307947
2175.000000	0.307989
2176.000000	0.307191
2177.000000	0.306407
2178.000000	0.304382
2179.000000	0.303650
2180.000000	0.303008
2181.000000	0.303393
2182.000000	0.304801
2183.000000	0.305260
2184.000000	0.305545
2185.000000	0.306868
2186.000000	0.306585
2187.000000	0.306085
2188.000000	0.305953
2189.000000	0.305083
2190.000000	0.304376
2191.000000	0.304272
2192.000000	0.304602
2193.000000	0.306121
2194.000000	0.305895
2195.000000	0.305063
2196.000000	0.304939
2197.000000	0.303938
2198.000000	0.303355
2199.000000	0.304216
2200.000000	0.304432
2201.000000	0.303799
2202.000000	0.303249
2203.000000	0.302899
2204.000000	0.301781
2205.000000	0.300173
2206.000000	0.299445
2207.000000	0.298373
2208.000000	0.299012
2209.000000	0.300709
2210.000000	0.300726
2211.000000	0.299154
2212.000000	0.299024
2213.000000	0.300166
2214.000000	0.301400
2215.000000	0.302724
2216.000000	0.307105
2217.000000	0.307721
2218.000000	0.305624
2219.000000	0.305227
2220.000000	0.303482
2221.000000	0.304087
2222.000000	0.306877
2223.000000	0.307610
2224.000000	0.307754
2225.000000	0.309834
2226.000000	0.310143
2227.000000	0.309327
2228.000000	0.309403
2229.000000	0.307325
2230.000000	0.304405
2231.000000	0.303901
2232.000000	0.304630
2233.000000	0.305590
2234.000000	0.307592
2235.000000	0.310251
2236.000000	0.310951
2237.000000	0.311261
2238.000000	0.310563
2239.000000	0.307356
2240.000000	0.305513
2241.000000	0.303371
2242.000000	0.302428
2243.000000	0.301383
2244.000000	0.302285
2245.000000	0.306738
2246.000000	0.307995
2247.000000	0.308396
2248.000000	0.309574
2249.000000	0.310620
2250.000000	0.308742
2251.000000	0.308264
2252.000000	0.307735
2253.000000	0.304355
2254.000000	0.299727
2255.000000	0.298875
2256.000000	0.298441
2257.000000	0.298909
2258.000000	0.302251
2259.000000	0.302657
2260.000000	0.302085
2261.000000	0.302809
2262.000000	0.303400
2263.000000	0.303912
2264.000000	0.306835
2265.000000	0.306716
2266.000000	0.304513
2267.000000	0.302643
2268.000000	0.298403
2269.000000	0.296018
2270.000000	0.294187
2271.000000	0.293172
2272.000000	0.293831
2273.000000	0.293974
2274.000000	0.295330
2275.000000	0.294419
2276.000000	0.292159
2277.000000	0.289265
2278.000000	0.287165
2279.000000	0.286127
2280.000000	0.287892
2281.000000	0.288424
2282.000000	0.287091
2283.000000	0.286504
2284.000000	0.283679
2285.000000	0.283032
2286.000000	0.283611
2287.000000	0.282247
2288.000000	0.281421
2289.000000	0.278997
2290.000000	0.276992
2291.000000	0.275614
2292.000000	0.273417
2293.000000	0.272440
2294.000000	0.272259
2295.000000	0.272071
2296.000000	0.272650
2297.000000	0.275961
2298.000000	0.276414
2299.000000	0.275828
2300.000000	0.275247
2301.000000	0.274133
2302.000000	0.271787
2303.000000	0.268240
2304.000000	0.264722
2305.000000	0.258754
2306.000000	0.254829
2307.000000	0.251194
2308.000000	0.250084
2309.000000	0.250588
2310.000000	0.252398
2311.000000	0.253663
2312.000000	0.256099
2313.000000	0.257127
2314.000000	0.255265
2315.000000	0.254263
2316.000000	0.251468
2317.000000	0.248489
2318.000000	0.249694
2319.000000	0.252997
2320.000000	0.255197
2321.000000	0.255903
2322.000000	0.254473
2323.000000	0.251361
2324.000000	0.248088
2325.000000	0.246016
2326.000000	0.245955
2327.000000	0.245569
2328.000000	0.248135
2329.000000	0.250371
2330.000000	0.250707
2331.000000	0.253449
2332.000000	0.252480
2333.000000	0.252315
2334.000000	0.254226
2335.000000	0.253301
2336.000000	0.248900
2337.000000	0.247710
2338.000000	0.245727
2339.000000	0.244767
2340.000000	0.246698
2341.000000	0.246948
2342.000000	0.246334
2343.000000	0.246047
2344.000000	0.246317
2345.000000	0.244885
2346.000000	0.242075
2347.000000	0.241092
2348.000000	0.240091
2349.000000	0.238390
2350.000000	0.239743
2351.000000	0.238555
2352.000000	0.234589
2353.000000	0.232612
2354.000000	0.227430
2355.000000	0.223121
2356.000000	0.221093
2357.000000	0.218147
2358.000000	0.217902
2359.000000	0.217183
2360.000000	0.218759
2361.000000	0.221994
2362.000000	0.219926
2363.000000	0.219188
2364.000000	0.216346
2365.000000	0.208652
2366.000000	0.205333
2367.000000	0.204138
2368.000000	0.205461
2369.000000	0.206967
2370.000000	0.204396
2371.000000	0.208260
2372.000000	0.211574
2373.000000	0.211751
2374.000000	0.215713
2375.000000	0.209708
2376.000000	0.200818
2377.000000	0.198471
2378.000000	0.195600
2379.000000	0.198744
2380.000000	0.201283
2381.000000	0.196882
2382.000000	0.194111
2383.000000	0.191246
2384.000000	0.189307
2385.000000	0.189894
2386.000000	0.186220
2387.000000	0.180911
2388.000000	0.179588
2389.000000	0.172255
2390.000000	0.167597
2391.000000	0.171040
2392.000000	0.170251
2393.000000	0.173332
2394.000000	0.173650
2395.000000	0.168961
2396.000000	0.166740
2397.000000	0.166106
2398.000000	0.176520
2399.000000	0.182244
2400.000000	0.178198
2401.000000	0.180833
2402.000000	0.180059
2403.000000	0.180005
2404.000000	0.190252
2405.000000	0.191274
2406.000000	0.183380
2407.000000	0.182687
2408.000000	0.179699
2409.000000	0.175251
2410.000000	0.176120
2411.000000	0.174833
2412.000000	0.173436
2413.000000	0.174114
2414.000000	0.177084
2415.000000	0.179416
2416.000000	0.178297
2417.000000	0.173679
2418.000000	0.167409
2419.000000	0.164161
2420.000000	0.159211
2421.000000	0.153897
2422.000000	0.149575
2423.000000	0.142418
2424.000000	0.143646
2425.000000	0.148570
2426.000000	0.154829
2427.000000	0.166480
2428.000000	0.172815
2429.000000	0.177122
2430.000000	0.173966
2431.000000	0.169035
2432.000000	0.160755
2433.000000	0.154992
2434.000000	0.156691
2435.000000	0.145031
2436.000000	0.143901
2437.000000	0.148937
2438.000000	0.152496
2439.000000	0.163634
2440.000000	0.166975
2441.000000	0.161257
2442.000000	0.146727
2443.000000	0.133347
2444.000000	0.130480
2445.000000	0.132065
2446.000000	0.135028
2447.000000	0.145611
2448.000000	0.147781
2449.000000	0.144882
2450.000000	0.151406
2451.000000	0.149836
2452.000000	0.150524
2453.000000	0.147261
2454.000000	0.138140
2455.000000	0.147106
2456.000000	0.155686
2457.000000	0.162466
2458.000000	0.165931
2459.000000	0.152391
2460.000000	0.139064
2461.000000	0.122006
2462.000000	0.103997
2463.000000	0.098237
2464.000000	0.078323
2465.000000	0.069990
2466.000000	0.088583
2467.000000	0.083100
2468.000000	0.089201
2469.000000	0.102875
2470.000000	0.099393
2471.000000	0.123288
2472.000000	0.148739
2473.000000	0.162918
2474.000000	0.177477
2475.000000	0.174082
2476.000000	0.164058
2477.000000	0.140015
2478.000000	0.115967
2479.000000	0.099321
2480.000000	0.079775
2481.000000	0.088395
2482.000000	0.104877
2483.000000	0.141808
2484.000000	0.170388
2485.000000	0.164963
2486.000000	0.176786
2487.000000	0.142267
2488.000000	0.119068
2489.000000	0.145177
2490.000000	0.135297
2491.000000	0.085760
2492.000000	0.052572
2493.000000	-0.049530
2494.000000	-0.069996
2495.000000	0.009446
2496.000000	0.050467
2497.000000	0.148616
2498.000000	0.167336
2499.000000	0.087652
2500.000000	0.078979
