# Wavelength	SM1200H-30_HEX-50_FV7-20_00000.asd.rts.txt
350.000000	0.308971
351.000000	0.306684
352.000000	0.293378
353.000000	0.289093
354.000000	0.303460
355.000000	0.323241
356.000000	0.332778
357.000000	0.334574
358.000000	0.337382
359.000000	0.339218
360.000000	0.339453
361.000000	0.336939
362.000000	0.329342
363.000000	0.329971
364.000000	0.340752
365.000000	0.337372
366.000000	0.330746
367.000000	0.328922
368.000000	0.340089
369.000000	0.341598
370.000000	0.336788
371.000000	0.336075
372.000000	0.339818
373.000000	0.344277
374.000000	0.347091
375.000000	0.346727
376.000000	0.347003
377.000000	0.348403
378.000000	0.348786
379.000000	0.346890
380.000000	0.346190
381.000000	0.351184
382.000000	0.348400
383.000000	0.344730
384.000000	0.345712
385.000000	0.345528
386.000000	0.346268
387.000000	0.348458
388.000000	0.350644
389.000000	0.350797
390.000000	0.350285
391.000000	0.351137
392.000000	0.352337
393.000000	0.352825
394.000000	0.352468
395.000000	0.354386
396.000000	0.354950
397.000000	0.353470
398.000000	0.353045
399.000000	0.353942
400.000000	0.355544
401.000000	0.356524
402.000000	0.357039
403.000000	0.357855
404.000000	0.359398
405.000000	0.359152
406.000000	0.358699
407.000000	0.358990
408.000000	0.359618
409.000000	0.360519
410.000000	0.361360
411.000000	0.361598
412.000000	0.360749
413.000000	0.360495
414.000000	0.362227
415.000000	0.362615
416.000000	0.362987
417.000000	0.364134
418.000000	0.365033
419.000000	0.365283
420.000000	0.365161
421.000000	0.365550
422.000000	0.366031
423.000000	0.366422
424.000000	0.366704
425.000000	0.366682
426.000000	0.366704
427.000000	0.367007
428.000000	0.367449
429.000000	0.367811
430.000000	0.368076
431.000000	0.368469
432.000000	0.368784
433.000000	0.369123
434.000000	0.369846
435.000000	0.370200
436.000000	0.370387
437.000000	0.370687
438.000000	0.371044
439.000000	0.371140
440.000000	0.371091
441.000000	0.371403
442.000000	0.371638
443.000000	0.371665
444.000000	0.371788
445.000000	0.372011
446.000000	0.372364
447.000000	0.372587
448.000000	0.372590
449.000000	0.372932
450.000000	0.373794
451.000000	0.374115
452.000000	0.374221
453.000000	0.374343
454.000000	0.375045
455.000000	0.375336
456.000000	0.375354
457.000000	0.375443
458.000000	0.375978
459.000000	0.376426
460.000000	0.376443
461.000000	0.376708
462.000000	0.377220
463.000000	0.377575
464.000000	0.377346
465.000000	0.377589
466.000000	0.378222
467.000000	0.378625
468.000000	0.378806
469.000000	0.378855
470.000000	0.379100
471.000000	0.379155
472.000000	0.379256
473.000000	0.379562
474.000000	0.379704
475.000000	0.379838
476.000000	0.380147
477.000000	0.380326
478.000000	0.380485
479.000000	0.380910
480.000000	0.381406
481.000000	0.381588
482.000000	0.381789
483.000000	0.382004
484.000000	0.382088
485.000000	0.382201
486.000000	0.382567
487.000000	0.382606
488.000000	0.382827
489.000000	0.383262
490.000000	0.383615
491.000000	0.383811
492.000000	0.384076
493.000000	0.384468
494.000000	0.384847
495.000000	0.385216
496.000000	0.385518
497.000000	0.385726
498.000000	0.386065
499.000000	0.386569
500.000000	0.386724
501.000000	0.386837
502.000000	0.387111
503.000000	0.387568
504.000000	0.387742
505.000000	0.387887
506.000000	0.388275
507.000000	0.388524
508.000000	0.388786
509.000000	0.389118
510.000000	0.389591
511.000000	0.389925
512.000000	0.390190
513.000000	0.390659
514.000000	0.390954
515.000000	0.391173
516.000000	0.391453
517.000000	0.391727
518.000000	0.392095
519.000000	0.392481
520.000000	0.392787
521.000000	0.393050
522.000000	0.393317
523.000000	0.393640
524.000000	0.393979
525.000000	0.394292
526.000000	0.394601
527.000000	0.394910
528.000000	0.395217
529.000000	0.395577
530.000000	0.395801
531.000000	0.396034
532.000000	0.396262
533.000000	0.396545
534.000000	0.396845
535.000000	0.397119
536.000000	0.397375
537.000000	0.397662
538.000000	0.397981
539.000000	0.398287
540.000000	0.398523
541.000000	0.398747
542.000000	0.399053
543.000000	0.399328
544.000000	0.399613
545.000000	0.399865
546.000000	0.400238
547.000000	0.400600
548.000000	0.400944
549.000000	0.401200
550.000000	0.401429
551.000000	0.401728
552.000000	0.402098
553.000000	0.402342
554.000000	0.402658
555.000000	0.403151
556.000000	0.403493
557.000000	0.403758
558.000000	0.404135
559.000000	0.404437
560.000000	0.404643
561.000000	0.404926
562.000000	0.405337
563.000000	0.405693
564.000000	0.406029
565.000000	0.406282
566.000000	0.406632
567.000000	0.407003
568.000000	0.407318
569.000000	0.407654
570.000000	0.407948
571.000000	0.408225
572.000000	0.408637
573.000000	0.408966
574.000000	0.409192
575.000000	0.409460
576.000000	0.409855
577.000000	0.410203
578.000000	0.410458
579.000000	0.410712
580.000000	0.410998
581.000000	0.411306
582.000000	0.411580
583.000000	0.411827
584.000000	0.412076
585.000000	0.412385
586.000000	0.412741
587.000000	0.413073
588.000000	0.413331
589.000000	0.413672
590.000000	0.413969
591.000000	0.414166
592.000000	0.414441
593.000000	0.414714
594.000000	0.414957
595.000000	0.415198
596.000000	0.415436
597.000000	0.415670
598.000000	0.415774
599.000000	0.415929
600.000000	0.416175
601.000000	0.416402
602.000000	0.416647
603.000000	0.416816
604.000000	0.416920
605.000000	0.417113
606.000000	0.417255
607.000000	0.417362
608.000000	0.417537
609.000000	0.417698
610.000000	0.417929
611.000000	0.418291
612.000000	0.418458
613.000000	0.418579
614.000000	0.418801
615.000000	0.418947
616.000000	0.419083
617.000000	0.419215
618.000000	0.419440
619.000000	0.419607
620.000000	0.419701
621.000000	0.419844
622.000000	0.419987
623.000000	0.420088
624.000000	0.420142
625.000000	0.420287
626.000000	0.420426
627.000000	0.420524
628.000000	0.420644
629.000000	0.420817
630.000000	0.420940
631.000000	0.421229
632.000000	0.421392
633.000000	0.421522
634.000000	0.421736
635.000000	0.421964
636.000000	0.422156
637.000000	0.422281
638.000000	0.422422
639.000000	0.422558
640.000000	0.422727
641.000000	0.422783
642.000000	0.422936
643.000000	0.423155
644.000000	0.423335
645.000000	0.423451
646.000000	0.423584
647.000000	0.423736
648.000000	0.423789
649.000000	0.423905
650.000000	0.424094
651.000000	0.424265
652.000000	0.424373
653.000000	0.424476
654.000000	0.424566
655.000000	0.424733
656.000000	0.424922
657.000000	0.425000
658.000000	0.425062
659.000000	0.425200
660.000000	0.425407
661.000000	0.425581
662.000000	0.425713
663.000000	0.425901
664.000000	0.426170
665.000000	0.426408
666.000000	0.426586
667.000000	0.426682
668.000000	0.426850
669.000000	0.427037
670.000000	0.427192
671.000000	0.427266
672.000000	0.427387
673.000000	0.427549
674.000000	0.427667
675.000000	0.427821
676.000000	0.427993
677.000000	0.428159
678.000000	0.428258
679.000000	0.428398
680.000000	0.428624
681.000000	0.428712
682.000000	0.428861
683.000000	0.429015
684.000000	0.429180
685.000000	0.429299
686.000000	0.429452
687.000000	0.429676
688.000000	0.429863
689.000000	0.430022
690.000000	0.430222
691.000000	0.430441
692.000000	0.430592
693.000000	0.430759
694.000000	0.430978
695.000000	0.431154
696.000000	0.431318
697.000000	0.431547
698.000000	0.431744
699.000000	0.431913
700.000000	0.432067
701.000000	0.432141
702.000000	0.432252
703.000000	0.432398
704.000000	0.432480
705.000000	0.432641
706.000000	0.432804
707.000000	0.432939
708.000000	0.433073
709.000000	0.433197
710.000000	0.433332
711.000000	0.433495
712.000000	0.433644
713.000000	0.433792
714.000000	0.433948
715.000000	0.434093
716.000000	0.434231
717.000000	0.434337
718.000000	0.434508
719.000000	0.434694
720.000000	0.434853
721.000000	0.434967
722.000000	0.435039
723.000000	0.435159
724.000000	0.435277
725.000000	0.435356
726.000000	0.435491
727.000000	0.435590
728.000000	0.435702
729.000000	0.435804
730.000000	0.435818
731.000000	0.435872
732.000000	0.435964
733.000000	0.436113
734.000000	0.436198
735.000000	0.436210
736.000000	0.436322
737.000000	0.436417
738.000000	0.436492
739.000000	0.436648
740.000000	0.436723
741.000000	0.436835
742.000000	0.436955
743.000000	0.437031
744.000000	0.437101
745.000000	0.437117
746.000000	0.437152
747.000000	0.437175
748.000000	0.437283
749.000000	0.437448
750.000000	0.437577
751.000000	0.437645
752.000000	0.437654
753.000000	0.437643
754.000000	0.437651
755.000000	0.437712
756.000000	0.437773
757.000000	0.437716
758.000000	0.437729
759.000000	0.437860
760.000000	0.438013
761.000000	0.438219
762.000000	0.438355
763.000000	0.438416
764.000000	0.438576
765.000000	0.438647
766.000000	0.438694
767.000000	0.438789
768.000000	0.438859
769.000000	0.438921
770.000000	0.438964
771.000000	0.438896
772.000000	0.439028
773.000000	0.439197
774.000000	0.439240
775.000000	0.439231
776.000000	0.439265
777.000000	0.439358
778.000000	0.439392
779.000000	0.439396
780.000000	0.439405
781.000000	0.439435
782.000000	0.439471
783.000000	0.439580
784.000000	0.439597
785.000000	0.439640
786.000000	0.439706
787.000000	0.439774
788.000000	0.439821
789.000000	0.439891
790.000000	0.439937
791.000000	0.439936
792.000000	0.439946
793.000000	0.439995
794.000000	0.440084
795.000000	0.440126
796.000000	0.440078
797.000000	0.439986
798.000000	0.440009
799.000000	0.440029
800.000000	0.440002
801.000000	0.439922
802.000000	0.439836
803.000000	0.439795
804.000000	0.439845
805.000000	0.439825
806.000000	0.439855
807.000000	0.439991
808.000000	0.440043
809.000000	0.440070
810.000000	0.440095
811.000000	0.440110
812.000000	0.440091
813.000000	0.440121
814.000000	0.440181
815.000000	0.440192
816.000000	0.440150
817.000000	0.440133
818.000000	0.440102
819.000000	0.440096
820.000000	0.440128
821.000000	0.440128
822.000000	0.440132
823.000000	0.440091
824.000000	0.440002
825.000000	0.440037
826.000000	0.440043
827.000000	0.440050
828.000000	0.440124
829.000000	0.440160
830.000000	0.440105
831.000000	0.440067
832.000000	0.439995
833.000000	0.439874
834.000000	0.439754
835.000000	0.439713
836.000000	0.439694
837.000000	0.439632
838.000000	0.439558
839.000000	0.439518
840.000000	0.439494
841.000000	0.439475
842.000000	0.439389
843.000000	0.439238
844.000000	0.439170
845.000000	0.439183
846.000000	0.439220
847.000000	0.439235
848.000000	0.439168
849.000000	0.439048
850.000000	0.439006
851.000000	0.438958
852.000000	0.438920
853.000000	0.438885
854.000000	0.438762
855.000000	0.438696
856.000000	0.438617
857.000000	0.438515
858.000000	0.438440
859.000000	0.438283
860.000000	0.437990
861.000000	0.437893
862.000000	0.437945
863.000000	0.437864
864.000000	0.437827
865.000000	0.437782
866.000000	0.437738
867.000000	0.437738
868.000000	0.437655
869.000000	0.437473
870.000000	0.437370
871.000000	0.437169
872.000000	0.437026
873.000000	0.436960
874.000000	0.436984
875.000000	0.436886
876.000000	0.436712
877.000000	0.436528
878.000000	0.436416
879.000000	0.436343
880.000000	0.436106
881.000000	0.435918
882.000000	0.435737
883.000000	0.435581
884.000000	0.435399
885.000000	0.435334
886.000000	0.435194
887.000000	0.434948
888.000000	0.434775
889.000000	0.434712
890.000000	0.434591
891.000000	0.434489
892.000000	0.434349
893.000000	0.434084
894.000000	0.433856
895.000000	0.433663
896.000000	0.433376
897.000000	0.433096
898.000000	0.432965
899.000000	0.432832
900.000000	0.432739
901.000000	0.432661
902.000000	0.432666
903.000000	0.432561
904.000000	0.432441
905.000000	0.432297
906.000000	0.432154
907.000000	0.431909
908.000000	0.431638
909.000000	0.431362
910.000000	0.431168
911.000000	0.430989
912.000000	0.430773
913.000000	0.430558
914.000000	0.430256
915.000000	0.430004
916.000000	0.429846
917.000000	0.429446
918.000000	0.429129
919.000000	0.429067
920.000000	0.428887
921.000000	0.428672
922.000000	0.428527
923.000000	0.428483
924.000000	0.428130
925.000000	0.427820
926.000000	0.427779
927.000000	0.427701
928.000000	0.427558
929.000000	0.427351
930.000000	0.427102
931.000000	0.426737
932.000000	0.426486
933.000000	0.426364
934.000000	0.425993
935.000000	0.425542
936.000000	0.425268
937.000000	0.425133
938.000000	0.424746
939.000000	0.424567
940.000000	0.424486
941.000000	0.424285
942.000000	0.424016
943.000000	0.423784
944.000000	0.423444
945.000000	0.422975
946.000000	0.422603
947.000000	0.422427
948.000000	0.422313
949.000000	0.421861
950.000000	0.421557
951.000000	0.421377
952.000000	0.420971
953.000000	0.420802
954.000000	0.420849
955.000000	0.420807
956.000000	0.420280
957.000000	0.419879
958.000000	0.419691
959.000000	0.419678
960.000000	0.419377
961.000000	0.418897
962.000000	0.418438
963.000000	0.418300
964.000000	0.418008
965.000000	0.417840
966.000000	0.417826
967.000000	0.417529
968.000000	0.417045
969.000000	0.416573
970.000000	0.416492
971.000000	0.416551
972.000000	0.416487
973.000000	0.416158
974.000000	0.415856
975.000000	0.415758
976.000000	0.415639
977.000000	0.415334
978.000000	0.415158
979.000000	0.415256
980.000000	0.415194
981.000000	0.414988
982.000000	0.414474
983.000000	0.414034
984.000000	0.413958
985.000000	0.414137
986.000000	0.413942
987.000000	0.413718
988.000000	0.413546
989.000000	0.413035
990.000000	0.412906
991.000000	0.412747
992.000000	0.412153
993.000000	0.412415
994.000000	0.412248
995.000000	0.411927
996.000000	0.412239
997.000000	0.412280
998.000000	0.411794
999.000000	0.411259
1000.000000	0.411679
1001.000000	0.411117
1002.000000	0.411703
1003.000000	0.411911
1004.000000	0.412023
1005.000000	0.411275
1006.000000	0.410746
1007.000000	0.410182
1008.000000	0.410495
1009.000000	0.410487
1010.000000	0.409999
1011.000000	0.409653
1012.000000	0.409098
1013.000000	0.408401
1014.000000	0.408106
1015.000000	0.407931
1016.000000	0.408248
1017.000000	0.408574
1018.000000	0.408396
1019.000000	0.408326
1020.000000	0.408546
1021.000000	0.408165
1022.000000	0.407557
1023.000000	0.407631
1024.000000	0.407692
1025.000000	0.408029
1026.000000	0.408267
1027.000000	0.407605
1028.000000	0.407458
1029.000000	0.407764
1030.000000	0.407471
1031.000000	0.407484
1032.000000	0.407607
1033.000000	0.407334
1034.000000	0.407514
1035.000000	0.408498
1036.000000	0.408860
1037.000000	0.409002
1038.000000	0.409047
1039.000000	0.409032
1040.000000	0.408867
1041.000000	0.408920
1042.000000	0.409175
1043.000000	0.409490
1044.000000	0.409925
1045.000000	0.409746
1046.000000	0.409218
1047.000000	0.409235
1048.000000	0.408996
1049.000000	0.409071
1050.000000	0.409851
1051.000000	0.410172
1052.000000	0.410205
1053.000000	0.410228
1054.000000	0.410351
1055.000000	0.410623
1056.000000	0.411026
1057.000000	0.411331
1058.000000	0.411307
1059.000000	0.411332
1060.000000	0.411270
1061.000000	0.410872
1062.000000	0.410751
1063.000000	0.411039
1064.000000	0.411325
1065.000000	0.411583
1066.000000	0.412022
1067.000000	0.412834
1068.000000	0.413148
1069.000000	0.413261
1070.000000	0.413406
1071.000000	0.413322
1072.000000	0.413390
1073.000000	0.413558
1074.000000	0.413852
1075.000000	0.414213
1076.000000	0.414504
1077.000000	0.414558
1078.000000	0.414698
1079.000000	0.414841
1080.000000	0.414932
1081.000000	0.415007
1082.000000	0.415270
1083.000000	0.415434
1084.000000	0.415439
1085.000000	0.415659
1086.000000	0.416093
1087.000000	0.416358
1088.000000	0.416424
1089.000000	0.416622
1090.000000	0.416772
1091.000000	0.416889
1092.000000	0.417261
1093.000000	0.417566
1094.000000	0.417629
1095.000000	0.417283
1096.000000	0.417466
1097.000000	0.417787
1098.000000	0.418046
1099.000000	0.418486
1100.000000	0.418846
1101.000000	0.418990
1102.000000	0.419137
1103.000000	0.419430
1104.000000	0.419610
1105.000000	0.419513
1106.000000	0.419588
1107.000000	0.419804
1108.000000	0.419760
1109.000000	0.419529
1110.000000	0.419478
1111.000000	0.419704
1112.000000	0.420044
1113.000000	0.420210
1114.000000	0.420654
1115.000000	0.420911
1116.000000	0.420814
1117.000000	0.420962
1118.000000	0.421423
1119.000000	0.421515
1120.000000	0.421295
1121.000000	0.421337
1122.000000	0.421438
1123.000000	0.421867
1124.000000	0.422481
1125.000000	0.422804
1126.000000	0.422869
1127.000000	0.422983
1128.000000	0.423031
1129.000000	0.422899
1130.000000	0.423010
1131.000000	0.423423
1132.000000	0.423352
1133.000000	0.423049
1134.000000	0.423113
1135.000000	0.423050
1136.000000	0.423050
1137.000000	0.423436
1138.000000	0.423443
1139.000000	0.423240
1140.000000	0.423241
1141.000000	0.423045
1142.000000	0.423114
1143.000000	0.423426
1144.000000	0.423653
1145.000000	0.423785
1146.000000	0.423721
1147.000000	0.423684
1148.000000	0.423313
1149.000000	0.423206
1150.000000	0.423310
1151.000000	0.423239
1152.000000	0.422964
1153.000000	0.422892
1154.000000	0.422857
1155.000000	0.422701
1156.000000	0.422537
1157.000000	0.422484
1158.000000	0.422283
1159.000000	0.422189
1160.000000	0.422328
1161.000000	0.422310
1162.000000	0.422292
1163.000000	0.422384
1164.000000	0.422258
1165.000000	0.422142
1166.000000	0.422084
1167.000000	0.421931
1168.000000	0.421797
1169.000000	0.421729
1170.000000	0.421739
1171.000000	0.421836
1172.000000	0.421924
1173.000000	0.422115
1174.000000	0.422100
1175.000000	0.421769
1176.000000	0.421707
1177.000000	0.421873
1178.000000	0.421935
1179.000000	0.422148
1180.000000	0.422154
1181.000000	0.422086
1182.000000	0.421936
1183.000000	0.421934
1184.000000	0.422191
1185.000000	0.422251
1186.000000	0.422380
1187.000000	0.422331
1188.000000	0.422105
1189.000000	0.421932
1190.000000	0.421753
1191.000000	0.421665
1192.000000	0.421768
1193.000000	0.421870
1194.000000	0.421859
1195.000000	0.421882
1196.000000	0.421789
1197.000000	0.421789
1198.000000	0.421997
1199.000000	0.422003
1200.000000	0.421887
1201.000000	0.421757
1202.000000	0.421630
1203.000000	0.421719
1204.000000	0.421956
1205.000000	0.422027
1206.000000	0.421966
1207.000000	0.421862
1208.000000	0.421734
1209.000000	0.421560
1210.000000	0.421524
1211.000000	0.421514
1212.000000	0.421504
1213.000000	0.421659
1214.000000	0.421718
1215.000000	0.421703
1216.000000	0.421714
1217.000000	0.421648
1218.000000	0.421580
1219.000000	0.421519
1220.000000	0.421608
1221.000000	0.421526
1222.000000	0.421469
1223.000000	0.421447
1224.000000	0.421293
1225.000000	0.421280
1226.000000	0.421441
1227.000000	0.421539
1228.000000	0.421688
1229.000000	0.421638
1230.000000	0.421359
1231.000000	0.421252
1232.000000	0.421250
1233.000000	0.421372
1234.000000	0.421752
1235.000000	0.421773
1236.000000	0.421449
1237.000000	0.421400
1238.000000	0.421276
1239.000000	0.421147
1240.000000	0.421142
1241.000000	0.421075
1242.000000	0.420990
1243.000000	0.420815
1244.000000	0.420709
1245.000000	0.420911
1246.000000	0.421016
1247.000000	0.421147
1248.000000	0.421301
1249.000000	0.421269
1250.000000	0.421090
1251.000000	0.420904
1252.000000	0.420822
1253.000000	0.420814
1254.000000	0.420827
1255.000000	0.420966
1256.000000	0.420980
1257.000000	0.420966
1258.000000	0.421033
1259.000000	0.421053
1260.000000	0.421072
1261.000000	0.420980
1262.000000	0.420964
1263.000000	0.420946
1264.000000	0.420973
1265.000000	0.421083
1266.000000	0.421088
1267.000000	0.421010
1268.000000	0.420883
1269.000000	0.420715
1270.000000	0.420636
1271.000000	0.420620
1272.000000	0.420606
1273.000000	0.420499
1274.000000	0.420466
1275.000000	0.420455
1276.000000	0.420456
1277.000000	0.420531
1278.000000	0.420616
1279.000000	0.420649
1280.000000	0.420530
1281.000000	0.420458
1282.000000	0.420531
1283.000000	0.420595
1284.000000	0.420520
1285.000000	0.420608
1286.000000	0.420830
1287.000000	0.420731
1288.000000	0.420815
1289.000000	0.420821
1290.000000	0.420527
1291.000000	0.420405
1292.000000	0.420358
1293.000000	0.420201
1294.000000	0.420055
1295.000000	0.419957
1296.000000	0.419906
1297.000000	0.419992
1298.000000	0.420122
1299.000000	0.420143
1300.000000	0.420124
1301.000000	0.420089
1302.000000	0.419899
1303.000000	0.419698
1304.000000	0.419588
1305.000000	0.419556
1306.000000	0.419453
1307.000000	0.419542
1308.000000	0.419586
1309.000000	0.419508
1310.000000	0.419451
1311.000000	0.419495
1312.000000	0.419434
1313.000000	0.419196
1314.000000	0.418952
1315.000000	0.418605
1316.000000	0.418347
1317.000000	0.418334
1318.000000	0.418247
1319.000000	0.418100
1320.000000	0.417938
1321.000000	0.417559
1322.000000	0.417259
1323.000000	0.417150
1324.000000	0.416974
1325.000000	0.416586
1326.000000	0.416221
1327.000000	0.415957
1328.000000	0.415865
1329.000000	0.415701
1330.000000	0.415807
1331.000000	0.415657
1332.000000	0.415353
1333.000000	0.415060
1334.000000	0.414799
1335.000000	0.414663
1336.000000	0.414517
1337.000000	0.414388
1338.000000	0.414320
1339.000000	0.414143
1340.000000	0.413879
1341.000000	0.413672
1342.000000	0.413406
1343.000000	0.412960
1344.000000	0.412527
1345.000000	0.412182
1346.000000	0.412023
1347.000000	0.411844
1348.000000	0.411664
1349.000000	0.411424
1350.000000	0.411147
1351.000000	0.410843
1352.000000	0.410619
1353.000000	0.410321
1354.000000	0.410085
1355.000000	0.409890
1356.000000	0.409659
1357.000000	0.409418
1358.000000	0.409194
1359.000000	0.408874
1360.000000	0.408598
1361.000000	0.408427
1362.000000	0.408155
1363.000000	0.407767
1364.000000	0.407516
1365.000000	0.407282
1366.000000	0.407057
1367.000000	0.406925
1368.000000	0.406616
1369.000000	0.406413
1370.000000	0.405942
1371.000000	0.405313
1372.000000	0.404773
1373.000000	0.404126
1374.000000	0.403487
1375.000000	0.402755
1376.000000	0.402069
1377.000000	0.401334
1378.000000	0.400280
1379.000000	0.399071
1380.000000	0.397665
1381.000000	0.395941
1382.000000	0.394082
1383.000000	0.392142
1384.000000	0.390096
1385.000000	0.388149
1386.000000	0.386263
1387.000000	0.384514
1388.000000	0.383052
1389.000000	0.381823
1390.000000	0.380883
1391.000000	0.380209
1392.000000	0.379796
1393.000000	0.379413
1394.000000	0.379353
1395.000000	0.379156
1396.000000	0.378990
1397.000000	0.378621
1398.000000	0.378222
1399.000000	0.377630
1400.000000	0.376864
1401.000000	0.376017
1402.000000	0.375127
1403.000000	0.373963
1404.000000	0.372930
1405.000000	0.371854
1406.000000	0.370708
1407.000000	0.369636
1408.000000	0.368445
1409.000000	0.367181
1410.000000	0.366099
1411.000000	0.365114
1412.000000	0.363899
1413.000000	0.362769
1414.000000	0.361696
1415.000000	0.360533
1416.000000	0.359539
1417.000000	0.358654
1418.000000	0.357608
1419.000000	0.356592
1420.000000	0.355623
1421.000000	0.354795
1422.000000	0.353969
1423.000000	0.353156
1424.000000	0.352330
1425.000000	0.351555
1426.000000	0.350780
1427.000000	0.350105
1428.000000	0.349390
1429.000000	0.348586
1430.000000	0.347888
1431.000000	0.347175
1432.000000	0.346493
1433.000000	0.345923
1434.000000	0.345310
1435.000000	0.344784
1436.000000	0.344258
1437.000000	0.343742
1438.000000	0.343125
1439.000000	0.342510
1440.000000	0.341917
1441.000000	0.341264
1442.000000	0.340706
1443.000000	0.340134
1444.000000	0.339633
1445.000000	0.339170
1446.000000	0.338702
1447.000000	0.338320
1448.000000	0.337911
1449.000000	0.337411
1450.000000	0.337065
1451.000000	0.336719
1452.000000	0.336286
1453.000000	0.335966
1454.000000	0.335548
1455.000000	0.335180
1456.000000	0.334900
1457.000000	0.334630
1458.000000	0.334508
1459.000000	0.334282
1460.000000	0.334075
1461.000000	0.333931
1462.000000	0.333680
1463.000000	0.333459
1464.000000	0.333376
1465.000000	0.333322
1466.000000	0.333251
1467.000000	0.333226
1468.000000	0.333107
1469.000000	0.333113
1470.000000	0.333212
1471.000000	0.333357
1472.000000	0.333591
1473.000000	0.333794
1474.000000	0.333809
1475.000000	0.333915
1476.000000	0.334155
1477.000000	0.334487
1478.000000	0.334896
1479.000000	0.335315
1480.000000	0.335776
1481.000000	0.336146
1482.000000	0.336476
1483.000000	0.336911
1484.000000	0.337314
1485.000000	0.337812
1486.000000	0.338466
1487.000000	0.338996
1488.000000	0.339514
1489.000000	0.340051
1490.000000	0.340381
1491.000000	0.340895
1492.000000	0.341519
1493.000000	0.342040
1494.000000	0.342477
1495.000000	0.342927
1496.000000	0.343392
1497.000000	0.343781
1498.000000	0.344117
1499.000000	0.344553
1500.000000	0.345074
1501.000000	0.345428
1502.000000	0.345818
1503.000000	0.346340
1504.000000	0.346741
1505.000000	0.347102
1506.000000	0.347625
1507.000000	0.348016
1508.000000	0.348298
1509.000000	0.348679
1510.000000	0.349028
1511.000000	0.349370
1512.000000	0.349666
1513.000000	0.349841
1514.000000	0.350034
1515.000000	0.350266
1516.000000	0.350496
1517.000000	0.350747
1518.000000	0.350966
1519.000000	0.351024
1520.000000	0.351138
1521.000000	0.351183
1522.000000	0.351239
1523.000000	0.351426
1524.000000	0.351615
1525.000000	0.351827
1526.000000	0.351920
1527.000000	0.351995
1528.000000	0.352043
1529.000000	0.352038
1530.000000	0.352150
1531.000000	0.352346
1532.000000	0.352593
1533.000000	0.352861
1534.000000	0.352963
1535.000000	0.353096
1536.000000	0.353139
1537.000000	0.353168
1538.000000	0.353425
1539.000000	0.353533
1540.000000	0.353579
1541.000000	0.353774
1542.000000	0.353885
1543.000000	0.354002
1544.000000	0.354181
1545.000000	0.354374
1546.000000	0.354551
1547.000000	0.354677
1548.000000	0.354737
1549.000000	0.354723
1550.000000	0.354697
1551.000000	0.354747
1552.000000	0.354860
1553.000000	0.354955
1554.000000	0.355047
1555.000000	0.355104
1556.000000	0.355123
1557.000000	0.355142
1558.000000	0.355171
1559.000000	0.355088
1560.000000	0.355072
1561.000000	0.355132
1562.000000	0.355193
1563.000000	0.355333
1564.000000	0.355428
1565.000000	0.355551
1566.000000	0.355515
1567.000000	0.355481
1568.000000	0.355459
1569.000000	0.355440
1570.000000	0.355410
1571.000000	0.355379
1572.000000	0.355332
1573.000000	0.355310
1574.000000	0.355248
1575.000000	0.355163
1576.000000	0.355115
1577.000000	0.354982
1578.000000	0.354939
1579.000000	0.355099
1580.000000	0.355095
1581.000000	0.355108
1582.000000	0.355130
1583.000000	0.355048
1584.000000	0.354981
1585.000000	0.355047
1586.000000	0.355128
1587.000000	0.355274
1588.000000	0.355295
1589.000000	0.355239
1590.000000	0.355302
1591.000000	0.355297
1592.000000	0.355387
1593.000000	0.355782
1594.000000	0.355929
1595.000000	0.355972
1596.000000	0.356062
1597.000000	0.356173
1598.000000	0.356210
1599.000000	0.356260
1600.000000	0.356229
1601.000000	0.356156
1602.000000	0.356115
1603.000000	0.356101
1604.000000	0.356096
1605.000000	0.356144
1606.000000	0.356145
1607.000000	0.356192
1608.000000	0.356227
1609.000000	0.356314
1610.000000	0.356319
1611.000000	0.356209
1612.000000	0.356319
1613.000000	0.356682
1614.000000	0.356851
1615.000000	0.357215
1616.000000	0.357384
1617.000000	0.357160
1618.000000	0.357228
1619.000000	0.357423
1620.000000	0.357510
1621.000000	0.357660
1622.000000	0.357910
1623.000000	0.358082
1624.000000	0.358265
1625.000000	0.358427
1626.000000	0.358515
1627.000000	0.358534
1628.000000	0.358645
1629.000000	0.358776
1630.000000	0.358946
1631.000000	0.359027
1632.000000	0.359173
1633.000000	0.359445
1634.000000	0.359618
1635.000000	0.359828
1636.000000	0.360014
1637.000000	0.360154
1638.000000	0.360299
1639.000000	0.360523
1640.000000	0.360661
1641.000000	0.360802
1642.000000	0.360988
1643.000000	0.361224
1644.000000	0.361453
1645.000000	0.361704
1646.000000	0.361892
1647.000000	0.362071
1648.000000	0.362213
1649.000000	0.362496
1650.000000	0.362667
1651.000000	0.362804
1652.000000	0.362948
1653.000000	0.362892
1654.000000	0.363076
1655.000000	0.363372
1656.000000	0.363455
1657.000000	0.363611
1658.000000	0.363743
1659.000000	0.363834
1660.000000	0.364068
1661.000000	0.364377
1662.000000	0.364600
1663.000000	0.364746
1664.000000	0.364930
1665.000000	0.365097
1666.000000	0.365393
1667.000000	0.365695
1668.000000	0.365870
1669.000000	0.366006
1670.000000	0.366077
1671.000000	0.366167
1672.000000	0.366335
1673.000000	0.366492
1674.000000	0.366707
1675.000000	0.366859
1676.000000	0.367039
1677.000000	0.367174
1678.000000	0.367338
1679.000000	0.367596
1680.000000	0.367611
1681.000000	0.367683
1682.000000	0.367686
1683.000000	0.367516
1684.000000	0.367659
1685.000000	0.367860
1686.000000	0.367906
1687.000000	0.368071
1688.000000	0.368176
1689.000000	0.368336
1690.000000	0.368629
1691.000000	0.368942
1692.000000	0.369016
1693.000000	0.368966
1694.000000	0.368801
1695.000000	0.368685
1696.000000	0.368794
1697.000000	0.368802
1698.000000	0.368929
1699.000000	0.369105
1700.000000	0.369243
1701.000000	0.369457
1702.000000	0.369583
1703.000000	0.369675
1704.000000	0.369831
1705.000000	0.369971
1706.000000	0.370187
1707.000000	0.370350
1708.000000	0.370360
1709.000000	0.370445
1710.000000	0.370726
1711.000000	0.370906
1712.000000	0.371159
1713.000000	0.371294
1714.000000	0.371297
1715.000000	0.371410
1716.000000	0.371576
1717.000000	0.371687
1718.000000	0.371782
1719.000000	0.371851
1720.000000	0.371935
1721.000000	0.371996
1722.000000	0.372090
1723.000000	0.372122
1724.000000	0.372018
1725.000000	0.372174
1726.000000	0.372391
1727.000000	0.372491
1728.000000	0.372657
1729.000000	0.372629
1730.000000	0.372517
1731.000000	0.372498
1732.000000	0.372523
1733.000000	0.372575
1734.000000	0.372373
1735.000000	0.372528
1736.000000	0.372885
1737.000000	0.373015
1738.000000	0.373279
1739.000000	0.373416
1740.000000	0.373363
1741.000000	0.373239
1742.000000	0.373057
1743.000000	0.373177
1744.000000	0.373234
1745.000000	0.373306
1746.000000	0.373652
1747.000000	0.373722
1748.000000	0.373733
1749.000000	0.373832
1750.000000	0.373927
1751.000000	0.374071
1752.000000	0.374309
1753.000000	0.374545
1754.000000	0.374719
1755.000000	0.374788
1756.000000	0.374823
1757.000000	0.374786
1758.000000	0.374824
1759.000000	0.374808
1760.000000	0.374860
1761.000000	0.374989
1762.000000	0.375043
1763.000000	0.375126
1764.000000	0.375165
1765.000000	0.375057
1766.000000	0.375084
1767.000000	0.375016
1768.000000	0.375052
1769.000000	0.375467
1770.000000	0.375538
1771.000000	0.375404
1772.000000	0.375352
1773.000000	0.375005
1774.000000	0.374924
1775.000000	0.375151
1776.000000	0.375207
1777.000000	0.375220
1778.000000	0.375173
1779.000000	0.374950
1780.000000	0.375114
1781.000000	0.375409
1782.000000	0.375532
1783.000000	0.375903
1784.000000	0.375927
1785.000000	0.375871
1786.000000	0.376144
1787.000000	0.376448
1788.000000	0.376742
1789.000000	0.377078
1790.000000	0.377199
1791.000000	0.377247
1792.000000	0.377211
1793.000000	0.377262
1794.000000	0.377351
1795.000000	0.377524
1796.000000	0.377773
1797.000000	0.377943
1798.000000	0.378057
1799.000000	0.378271
1800.000000	0.378674
1801.000000	0.377834
1802.000000	0.378174
1803.000000	0.378994
1804.000000	0.379186
1805.000000	0.379267
1806.000000	0.379518
1807.000000	0.379721
1808.000000	0.379733
1809.000000	0.379806
1810.000000	0.379956
1811.000000	0.379654
1812.000000	0.378449
1813.000000	0.378300
1814.000000	0.378682
1815.000000	0.378606
1816.000000	0.378882
1817.000000	0.378873
1818.000000	0.378350
1819.000000	0.378389
1820.000000	0.378487
1821.000000	0.377811
1822.000000	0.377874
1823.000000	0.377819
1824.000000	0.377840
1825.000000	0.378334
1826.000000	0.378859
1827.000000	0.378955
1828.000000	0.379660
1829.000000	0.380865
1830.000000	0.380925
1831.000000	0.380833
1832.000000	0.380237
1833.000000	0.379773
1834.000000	0.379135
1835.000000	0.378226
1836.000000	0.376887
1837.000000	0.376038
1838.000000	0.374940
1839.000000	0.373606
1840.000000	0.373718
1841.000000	0.373292
1842.000000	0.373035
1843.000000	0.372958
1844.000000	0.372892
1845.000000	0.372668
1846.000000	0.372834
1847.000000	0.373188
1848.000000	0.373220
1849.000000	0.373858
1850.000000	0.373550
1851.000000	0.372936
1852.000000	0.371486
1853.000000	0.371061
1854.000000	0.370341
1855.000000	0.369713
1856.000000	0.369436
1857.000000	0.369375
1858.000000	0.368529
1859.000000	0.367868
1860.000000	0.367396
1861.000000	0.366721
1862.000000	0.365560
1863.000000	0.363982
1864.000000	0.362508
1865.000000	0.360872
1866.000000	0.359017
1867.000000	0.356923
1868.000000	0.355124
1869.000000	0.352903
1870.000000	0.350329
1871.000000	0.347410
1872.000000	0.344724
1873.000000	0.342331
1874.000000	0.339782
1875.000000	0.337476
1876.000000	0.335831
1877.000000	0.333078
1878.000000	0.329193
1879.000000	0.325996
1880.000000	0.322357
1881.000000	0.318266
1882.000000	0.314372
1883.000000	0.310059
1884.000000	0.305812
1885.000000	0.300727
1886.000000	0.296368
1887.000000	0.292340
1888.000000	0.288271
1889.000000	0.284305
1890.000000	0.280266
1891.000000	0.276509
1892.000000	0.272289
1893.000000	0.267475
1894.000000	0.262666
1895.000000	0.257656
1896.000000	0.252152
1897.000000	0.247159
1898.000000	0.242871
1899.000000	0.238962
1900.000000	0.235467
1901.000000	0.232014
1902.000000	0.228162
1903.000000	0.224340
1904.000000	0.221448
1905.000000	0.218531
1906.000000	0.215697
1907.000000	0.213183
1908.000000	0.211138
1909.000000	0.208737
1910.000000	0.206656
1911.000000	0.204892
1912.000000	0.202910
1913.000000	0.201166
1914.000000	0.199828
1915.000000	0.198262
1916.000000	0.196981
1917.000000	0.195811
1918.000000	0.195015
1919.000000	0.193583
1920.000000	0.192209
1921.000000	0.191117
1922.000000	0.189263
1923.000000	0.187719
1924.000000	0.187295
1925.000000	0.186826
1926.000000	0.186743
1927.000000	0.187221
1928.000000	0.187587
1929.000000	0.187893
1930.000000	0.188518
1931.000000	0.189070
1932.000000	0.189748
1933.000000	0.190399
1934.000000	0.190415
1935.000000	0.190571
1936.000000	0.190384
1937.000000	0.189571
1938.000000	0.189260
1939.000000	0.189009
1940.000000	0.188793
1941.000000	0.188594
1942.000000	0.188779
1943.000000	0.188465
1944.000000	0.188419
1945.000000	0.188317
1946.000000	0.187920
1947.000000	0.188045
1948.000000	0.187885
1949.000000	0.187418
1950.000000	0.187279
1951.000000	0.187134
1952.000000	0.186938
1953.000000	0.186654
1954.000000	0.186856
1955.000000	0.187056
1956.000000	0.187120
1957.000000	0.186635
1958.000000	0.185624
1959.000000	0.184995
1960.000000	0.184213
1961.000000	0.183788
1962.000000	0.183796
1963.000000	0.184639
1964.000000	0.184939
1965.000000	0.185166
1966.000000	0.185419
1967.000000	0.184916
1968.000000	0.184945
1969.000000	0.185305
1970.000000	0.185618
1971.000000	0.186356
1972.000000	0.186083
1973.000000	0.185794
1974.000000	0.185056
1975.000000	0.184840
1976.000000	0.184408
1977.000000	0.184798
1978.000000	0.185433
1979.000000	0.185959
1980.000000	0.186589
1981.000000	0.187818
1982.000000	0.189047
1983.000000	0.189205
1984.000000	0.189547
1985.000000	0.189465
1986.000000	0.189721
1987.000000	0.189621
1988.000000	0.191030
1989.000000	0.192285
1990.000000	0.193309
1991.000000	0.194515
1992.000000	0.195095
1993.000000	0.196114
1994.000000	0.196963
1995.000000	0.197707
1996.000000	0.198817
1997.000000	0.199340
1998.000000	0.199292
1999.000000	0.199800
2000.000000	0.200285
2001.000000	0.200486
2002.000000	0.201747
2003.000000	0.202937
2004.000000	0.204382
2005.000000	0.205852
2006.000000	0.206924
2007.000000	0.208022
2008.000000	0.208969
2009.000000	0.209463
2010.000000	0.210421
2011.000000	0.211336
2012.000000	0.212516
2013.000000	0.213951
2014.000000	0.215528
2015.000000	0.216632
2016.000000	0.217237
2017.000000	0.217910
2018.000000	0.218263
2019.000000	0.219042
2020.000000	0.220469
2021.000000	0.221791
2022.000000	0.223247
2023.000000	0.224685
2024.000000	0.226428
2025.000000	0.227771
2026.000000	0.228749
2027.000000	0.229952
2028.000000	0.230935
2029.000000	0.231634
2030.000000	0.232322
2031.000000	0.232896
2032.000000	0.233525
2033.000000	0.234503
2034.000000	0.235620
2035.000000	0.237472
2036.000000	0.238377
2037.000000	0.239313
2038.000000	0.239929
2039.000000	0.240027
2040.000000	0.239881
2041.000000	0.240450
2042.000000	0.241064
2043.000000	0.242083
2044.000000	0.244149
2045.000000	0.245782
2046.000000	0.246497
2047.000000	0.247365
2048.000000	0.247601
2049.000000	0.248456
2050.000000	0.249266
2051.000000	0.250300
2052.000000	0.251824
2053.000000	0.252775
2054.000000	0.253907
2055.000000	0.254572
2056.000000	0.254945
2057.000000	0.254483
2058.000000	0.254113
2059.000000	0.254266
2060.000000	0.254969
2061.000000	0.256537
2062.000000	0.257486
2063.000000	0.259034
2064.000000	0.259708
2065.000000	0.259540
2066.000000	0.259997
2067.000000	0.260732
2068.000000	0.261344
2069.000000	0.262663
2070.000000	0.264050
2071.000000	0.264969
2072.000000	0.266242
2073.000000	0.266908
2074.000000	0.267286
2075.000000	0.267962
2076.000000	0.268636
2077.000000	0.269283
2078.000000	0.269992
2079.000000	0.270768
2080.000000	0.271527
2081.000000	0.272399
2082.000000	0.273256
2083.000000	0.274652
2084.000000	0.275814
2085.000000	0.276853
2086.000000	0.277741
2087.000000	0.278011
2088.000000	0.277959
2089.000000	0.277470
2090.000000	0.277905
2091.000000	0.278841
2092.000000	0.279492
2093.000000	0.281191
2094.000000	0.281803
2095.000000	0.281232
2096.000000	0.281596
2097.000000	0.281947
2098.000000	0.282017
2099.000000	0.283683
2100.000000	0.284942
2101.000000	0.285592
2102.000000	0.286698
2103.000000	0.287669
2104.000000	0.288479
2105.000000	0.289428
2106.000000	0.290958
2107.000000	0.291972
2108.000000	0.292494
2109.000000	0.293167
2110.000000	0.293774
2111.000000	0.294184
2112.000000	0.294114
2113.000000	0.294442
2114.000000	0.294752
2115.000000	0.294814
2116.000000	0.295144
2117.000000	0.295384
2118.000000	0.296576
2119.000000	0.297132
2120.000000	0.297723
2121.000000	0.298717
2122.000000	0.299041
2123.000000	0.298590
2124.000000	0.299003
2125.000000	0.299666
2126.000000	0.300162
2127.000000	0.300569
2128.000000	0.301380
2129.000000	0.302535
2130.000000	0.303115
2131.000000	0.303767
2132.000000	0.304806
2133.000000	0.304771
2134.000000	0.304757
2135.000000	0.305785
2136.000000	0.306559
2137.000000	0.307030
2138.000000	0.308000
2139.000000	0.308116
2140.000000	0.307216
2141.000000	0.306689
2142.000000	0.305534
2143.000000	0.304880
2144.000000	0.304592
2145.000000	0.304673
2146.000000	0.305346
2147.000000	0.306352
2148.000000	0.307496
2149.000000	0.308168
2150.000000	0.307594
2151.000000	0.307202
2152.000000	0.305996
2153.000000	0.305421
2154.000000	0.305792
2155.000000	0.307585
2156.000000	0.308067
2157.000000	0.308968
2158.000000	0.309236
2159.000000	0.308392
2160.000000	0.308492
2161.000000	0.309265
2162.000000	0.309432
2163.000000	0.309406
2164.000000	0.309282
2165.000000	0.309009
2166.000000	0.307949
2167.000000	0.307863
2168.000000	0.307405
2169.000000	0.306668
2170.000000	0.306754
2171.000000	0.307054
2172.000000	0.307803
2173.000000	0.308057
2174.000000	0.308847
2175.000000	0.308882
2176.000000	0.307849
2177.000000	0.307480
2178.000000	0.307506
2179.000000	0.307129
2180.000000	0.306185
2181.000000	0.306390
2182.000000	0.306447
2183.000000	0.306344
2184.000000	0.307835
2185.000000	0.308887
2186.000000	0.308984
2187.000000	0.309061
2188.000000	0.308055
2189.000000	0.307191
2190.000000	0.307076
2191.000000	0.307887
2192.000000	0.307885
2193.000000	0.308416
2194.000000	0.307575
2195.000000	0.304372
2196.000000	0.303560
2197.000000	0.303699
2198.000000	0.303813
2199.000000	0.306328
2200.000000	0.307375
2201.000000	0.307346
2202.000000	0.307108
2203.000000	0.306773
2204.000000	0.304117
2205.000000	0.302899
2206.000000	0.300193
2207.000000	0.298915
2208.000000	0.300546
2209.000000	0.302699
2210.000000	0.306179
2211.000000	0.306874
2212.000000	0.309406
2213.000000	0.311370
2214.000000	0.312686
2215.000000	0.312914
2216.000000	0.313499
2217.000000	0.312667
2218.000000	0.308451
2219.000000	0.307929
2220.000000	0.309593
2221.000000	0.310003
2222.000000	0.311683
2223.000000	0.312424
2224.000000	0.312176
2225.000000	0.311530
2226.000000	0.312054
2227.000000	0.310759
2228.000000	0.308433
2229.000000	0.305222
2230.000000	0.302604
2231.000000	0.301535
2232.000000	0.301408
2233.000000	0.304675
2234.000000	0.308770
2235.000000	0.311598
2236.000000	0.313246
2237.000000	0.314213
2238.000000	0.315119
2239.000000	0.314656
2240.000000	0.314516
2241.000000	0.314997
2242.000000	0.314166
2243.000000	0.312048
2244.000000	0.311136
2245.000000	0.309615
2246.000000	0.309631
2247.000000	0.311309
2248.000000	0.311176
2249.000000	0.311097
2250.000000	0.311421
2251.000000	0.308086
2252.000000	0.304691
2253.000000	0.301772
2254.000000	0.299274
2255.000000	0.301534
2256.000000	0.303932
2257.000000	0.306330
2258.000000	0.307982
2259.000000	0.305730
2260.000000	0.303694
2261.000000	0.302468
2262.000000	0.300370
2263.000000	0.300381
2264.000000	0.303106
2265.000000	0.303209
2266.000000	0.302637
2267.000000	0.302740
2268.000000	0.300960
2269.000000	0.301016
2270.000000	0.304249
2271.000000	0.304372
2272.000000	0.303231
2273.000000	0.303031
2274.000000	0.301301
2275.000000	0.299981
2276.000000	0.299074
2277.000000	0.299295
2278.000000	0.298095
2279.000000	0.298119
2280.000000	0.298087
2281.000000	0.295228
2282.000000	0.292263
2283.000000	0.289157
2284.000000	0.288226
2285.000000	0.287493
2286.000000	0.286722
2287.000000	0.287317
2288.000000	0.283511
2289.000000	0.281001
2290.000000	0.280046
2291.000000	0.275706
2292.000000	0.274011
2293.000000	0.272756
2294.000000	0.272494
2295.000000	0.272722
2296.000000	0.274516
2297.000000	0.279059
2298.000000	0.280620
2299.000000	0.282267
2300.000000	0.282749
2301.000000	0.281211
2302.000000	0.279818
2303.000000	0.278849
2304.000000	0.275506
2305.000000	0.268731
2306.000000	0.265274
2307.000000	0.262134
2308.000000	0.258741
2309.000000	0.259716
2310.000000	0.258976
2311.000000	0.258362
2312.000000	0.260283
2313.000000	0.259524
2314.000000	0.259559
2315.000000	0.257776
2316.000000	0.255037
2317.000000	0.255104
2318.000000	0.255653
2319.000000	0.257755
2320.000000	0.259181
2321.000000	0.260577
2322.000000	0.261607
2323.000000	0.260852
2324.000000	0.261484
2325.000000	0.260254
2326.000000	0.258724
2327.000000	0.259493
2328.000000	0.258538
2329.000000	0.256414
2330.000000	0.255200
2331.000000	0.253960
2332.000000	0.252674
2333.000000	0.252369
2334.000000	0.250929
2335.000000	0.250769
2336.000000	0.251039
2337.000000	0.251317
2338.000000	0.253156
2339.000000	0.252810
2340.000000	0.250365
2341.000000	0.248032
2342.000000	0.243657
2343.000000	0.242342
2344.000000	0.243398
2345.000000	0.242371
2346.000000	0.242466
2347.000000	0.241896
2348.000000	0.239086
2349.000000	0.238212
2350.000000	0.238290
2351.000000	0.235719
2352.000000	0.235676
2353.000000	0.236681
2354.000000	0.235064
2355.000000	0.236680
2356.000000	0.235200
2357.000000	0.230885
2358.000000	0.230223
2359.000000	0.225939
2360.000000	0.223004
2361.000000	0.220247
2362.000000	0.215600
2363.000000	0.214523
2364.000000	0.213671
2365.000000	0.214628
2366.000000	0.217529
2367.000000	0.219978
2368.000000	0.220891
2369.000000	0.221795
2370.000000	0.221041
2371.000000	0.219625
2372.000000	0.216174
2373.000000	0.209340
2374.000000	0.205447
2375.000000	0.202611
2376.000000	0.203349
2377.000000	0.205584
2378.000000	0.206010
2379.000000	0.208932
2380.000000	0.207001
2381.000000	0.205453
2382.000000	0.205983
2383.000000	0.198115
2384.000000	0.194601
2385.000000	0.197701
2386.000000	0.196890
2387.000000	0.195499
2388.000000	0.193277
2389.000000	0.190293
2390.000000	0.188091
2391.000000	0.184923
2392.000000	0.183766
2393.000000	0.181714
2394.000000	0.180082
2395.000000	0.179056
2396.000000	0.178907
2397.000000	0.181263
2398.000000	0.179567
2399.000000	0.184007
2400.000000	0.194419
2401.000000	0.201328
2402.000000	0.203227
2403.000000	0.202166
2404.000000	0.199223
2405.000000	0.193044
2406.000000	0.189509
2407.000000	0.183632
2408.000000	0.172198
2409.000000	0.166996
2410.000000	0.166906
2411.000000	0.169319
2412.000000	0.178934
2413.000000	0.178672
2414.000000	0.174081
2415.000000	0.172618
2416.000000	0.164168
2417.000000	0.161699
2418.000000	0.165110
2419.000000	0.167621
2420.000000	0.176591
2421.000000	0.180181
2422.000000	0.172614
2423.000000	0.172072
2424.000000	0.162532
2425.000000	0.154175
2426.000000	0.159157
2427.000000	0.153787
2428.000000	0.160835
2429.000000	0.171802
2430.000000	0.165491
2431.000000	0.166242
2432.000000	0.163514
2433.000000	0.156502
2434.000000	0.162538
2435.000000	0.165416
2436.000000	0.172593
2437.000000	0.181236
2438.000000	0.178333
2439.000000	0.177260
2440.000000	0.170047
2441.000000	0.167044
2442.000000	0.172877
2443.000000	0.169826
2444.000000	0.168998
2445.000000	0.166265
2446.000000	0.160069
2447.000000	0.160828
2448.000000	0.166367
2449.000000	0.175308
2450.000000	0.185431
2451.000000	0.192723
2452.000000	0.188901
2453.000000	0.188027
2454.000000	0.177574
2455.000000	0.168898
2456.000000	0.177580
2457.000000	0.165526
2458.000000	0.158910
2459.000000	0.160553
2460.000000	0.146864
2461.000000	0.150184
2462.000000	0.158833
2463.000000	0.162968
2464.000000	0.178044
2465.000000	0.183070
2466.000000	0.183335
2467.000000	0.159336
2468.000000	0.129010
2469.000000	0.119076
2470.000000	0.102510
2471.000000	0.125737
2472.000000	0.145673
2473.000000	0.131858
2474.000000	0.137474
2475.000000	0.110869
2476.000000	0.086533
2477.000000	0.108946
2478.000000	0.110548
2479.000000	0.115979
2480.000000	0.141022
2481.000000	0.133796
2482.000000	0.134184
2483.000000	0.141076
2484.000000	0.141011
2485.000000	0.139137
2486.000000	0.129436
2487.000000	0.120755
2488.000000	0.099245
2489.000000	0.094443
2490.000000	0.115447
2491.000000	0.180380
2492.000000	0.198483
2493.000000	0.228002
2494.000000	0.235524
2495.000000	0.177394
2496.000000	0.154534
2497.000000	0.159470
2498.000000	0.126688
2499.000000	0.082483
2500.000000	0.054916
