# Wavelength	SM1200H-10_HEX-80_FV7-10_00001.asd.rts.txt
350.000000	0.382653
351.000000	0.387817
352.000000	0.384352
353.000000	0.392132
354.000000	0.412859
355.000000	0.389879
356.000000	0.382117
357.000000	0.397403
358.000000	0.403166
359.000000	0.398332
360.000000	0.392411
361.000000	0.394831
362.000000	0.396548
363.000000	0.398203
364.000000	0.398953
365.000000	0.394724
366.000000	0.394015
367.000000	0.396733
368.000000	0.396806
369.000000	0.397810
370.000000	0.399311
371.000000	0.400197
372.000000	0.402949
373.000000	0.404864
374.000000	0.405724
375.000000	0.410315
376.000000	0.412257
377.000000	0.410506
378.000000	0.409226
379.000000	0.410204
380.000000	0.411524
381.000000	0.411556
382.000000	0.409655
383.000000	0.409466
384.000000	0.412452
385.000000	0.411643
386.000000	0.410554
387.000000	0.411098
388.000000	0.413074
389.000000	0.415637
390.000000	0.417455
391.000000	0.416847
392.000000	0.416583
393.000000	0.415929
394.000000	0.414845
395.000000	0.417693
396.000000	0.419365
397.000000	0.418489
398.000000	0.418564
399.000000	0.419048
400.000000	0.419882
401.000000	0.420778
402.000000	0.420893
403.000000	0.421376
404.000000	0.423109
405.000000	0.423127
406.000000	0.423228
407.000000	0.424154
408.000000	0.424426
409.000000	0.424720
410.000000	0.425069
411.000000	0.425134
412.000000	0.426233
413.000000	0.427156
414.000000	0.426736
415.000000	0.427191
416.000000	0.427689
417.000000	0.427979
418.000000	0.429872
419.000000	0.430577
420.000000	0.430039
421.000000	0.430491
422.000000	0.430585
423.000000	0.430615
424.000000	0.431302
425.000000	0.431219
426.000000	0.431294
427.000000	0.432104
428.000000	0.432411
429.000000	0.432615
430.000000	0.432891
431.000000	0.433051
432.000000	0.433598
433.000000	0.434270
434.000000	0.434629
435.000000	0.434553
436.000000	0.434588
437.000000	0.435082
438.000000	0.435078
439.000000	0.435092
440.000000	0.435484
441.000000	0.435584
442.000000	0.435873
443.000000	0.436189
444.000000	0.436213
445.000000	0.436721
446.000000	0.437573
447.000000	0.438055
448.000000	0.438107
449.000000	0.438108
450.000000	0.438368
451.000000	0.438829
452.000000	0.439342
453.000000	0.439645
454.000000	0.439695
455.000000	0.439919
456.000000	0.440526
457.000000	0.441254
458.000000	0.441446
459.000000	0.441586
460.000000	0.442150
461.000000	0.442153
462.000000	0.442377
463.000000	0.442844
464.000000	0.443094
465.000000	0.443216
466.000000	0.443270
467.000000	0.443567
468.000000	0.443997
469.000000	0.444236
470.000000	0.444300
471.000000	0.444568
472.000000	0.444864
473.000000	0.445109
474.000000	0.445456
475.000000	0.445535
476.000000	0.445609
477.000000	0.446053
478.000000	0.446247
479.000000	0.446468
480.000000	0.446717
481.000000	0.446930
482.000000	0.447239
483.000000	0.447410
484.000000	0.447730
485.000000	0.448015
486.000000	0.448441
487.000000	0.448867
488.000000	0.449152
489.000000	0.449353
490.000000	0.449631
491.000000	0.449862
492.000000	0.450200
493.000000	0.450594
494.000000	0.450987
495.000000	0.451340
496.000000	0.451582
497.000000	0.451870
498.000000	0.452154
499.000000	0.452527
500.000000	0.452924
501.000000	0.453170
502.000000	0.453400
503.000000	0.453731
504.000000	0.454124
505.000000	0.454394
506.000000	0.454458
507.000000	0.454782
508.000000	0.455181
509.000000	0.455494
510.000000	0.455951
511.000000	0.456251
512.000000	0.456426
513.000000	0.456673
514.000000	0.457017
515.000000	0.457423
516.000000	0.457724
517.000000	0.458024
518.000000	0.458398
519.000000	0.458729
520.000000	0.458973
521.000000	0.459262
522.000000	0.459624
523.000000	0.459899
524.000000	0.460173
525.000000	0.460429
526.000000	0.460694
527.000000	0.461097
528.000000	0.461466
529.000000	0.461706
530.000000	0.461998
531.000000	0.462347
532.000000	0.462613
533.000000	0.462952
534.000000	0.463235
535.000000	0.463471
536.000000	0.463900
537.000000	0.464157
538.000000	0.464344
539.000000	0.464701
540.000000	0.464980
541.000000	0.465202
542.000000	0.465478
543.000000	0.465755
544.000000	0.466035
545.000000	0.466246
546.000000	0.466584
547.000000	0.467000
548.000000	0.467442
549.000000	0.467685
550.000000	0.467925
551.000000	0.468259
552.000000	0.468637
553.000000	0.468883
554.000000	0.469148
555.000000	0.469543
556.000000	0.469904
557.000000	0.470149
558.000000	0.470468
559.000000	0.470784
560.000000	0.471066
561.000000	0.471417
562.000000	0.471750
563.000000	0.472072
564.000000	0.472398
565.000000	0.472599
566.000000	0.472971
567.000000	0.473374
568.000000	0.473687
569.000000	0.474045
570.000000	0.474344
571.000000	0.474569
572.000000	0.474819
573.000000	0.475122
574.000000	0.475418
575.000000	0.475720
576.000000	0.476098
577.000000	0.476456
578.000000	0.476807
579.000000	0.477116
580.000000	0.477400
581.000000	0.477672
582.000000	0.477931
583.000000	0.478245
584.000000	0.478599
585.000000	0.478935
586.000000	0.479195
587.000000	0.479446
588.000000	0.479766
589.000000	0.480096
590.000000	0.480448
591.000000	0.480796
592.000000	0.480963
593.000000	0.481222
594.000000	0.481593
595.000000	0.481860
596.000000	0.482054
597.000000	0.482295
598.000000	0.482566
599.000000	0.482706
600.000000	0.482873
601.000000	0.483089
602.000000	0.483345
603.000000	0.483532
604.000000	0.483664
605.000000	0.483947
606.000000	0.484169
607.000000	0.484313
608.000000	0.484471
609.000000	0.484666
610.000000	0.484897
611.000000	0.485137
612.000000	0.485301
613.000000	0.485467
614.000000	0.485700
615.000000	0.485722
616.000000	0.485828
617.000000	0.486024
618.000000	0.486190
619.000000	0.486418
620.000000	0.486604
621.000000	0.486691
622.000000	0.486805
623.000000	0.486924
624.000000	0.487013
625.000000	0.487100
626.000000	0.487228
627.000000	0.487419
628.000000	0.487671
629.000000	0.487892
630.000000	0.487950
631.000000	0.488164
632.000000	0.488380
633.000000	0.488583
634.000000	0.488760
635.000000	0.488933
636.000000	0.489085
637.000000	0.489202
638.000000	0.489403
639.000000	0.489575
640.000000	0.489739
641.000000	0.489748
642.000000	0.489798
643.000000	0.489948
644.000000	0.490193
645.000000	0.490315
646.000000	0.490452
647.000000	0.490652
648.000000	0.490756
649.000000	0.490897
650.000000	0.491063
651.000000	0.491142
652.000000	0.491213
653.000000	0.491348
654.000000	0.491475
655.000000	0.491650
656.000000	0.491882
657.000000	0.492079
658.000000	0.492319
659.000000	0.492483
660.000000	0.492554
661.000000	0.492799
662.000000	0.492995
663.000000	0.493175
664.000000	0.493338
665.000000	0.493519
666.000000	0.493706
667.000000	0.493833
668.000000	0.493940
669.000000	0.494040
670.000000	0.494168
671.000000	0.494393
672.000000	0.494566
673.000000	0.494688
674.000000	0.494909
675.000000	0.495073
676.000000	0.495232
677.000000	0.495497
678.000000	0.495680
679.000000	0.495813
680.000000	0.495942
681.000000	0.495997
682.000000	0.496192
683.000000	0.496413
684.000000	0.496591
685.000000	0.496696
686.000000	0.496844
687.000000	0.497087
688.000000	0.497267
689.000000	0.497424
690.000000	0.497642
691.000000	0.497793
692.000000	0.497885
693.000000	0.498035
694.000000	0.498204
695.000000	0.498345
696.000000	0.498476
697.000000	0.498647
698.000000	0.498838
699.000000	0.499035
700.000000	0.499229
701.000000	0.499363
702.000000	0.499519
703.000000	0.499678
704.000000	0.499760
705.000000	0.499884
706.000000	0.500021
707.000000	0.500227
708.000000	0.500411
709.000000	0.500545
710.000000	0.500664
711.000000	0.500804
712.000000	0.500979
713.000000	0.501187
714.000000	0.501289
715.000000	0.501409
716.000000	0.501573
717.000000	0.501727
718.000000	0.501920
719.000000	0.502101
720.000000	0.502255
721.000000	0.502452
722.000000	0.502533
723.000000	0.502572
724.000000	0.502657
725.000000	0.502743
726.000000	0.502907
727.000000	0.502993
728.000000	0.502997
729.000000	0.503042
730.000000	0.503138
731.000000	0.503267
732.000000	0.503399
733.000000	0.503553
734.000000	0.503624
735.000000	0.503617
736.000000	0.503736
737.000000	0.503834
738.000000	0.503854
739.000000	0.503955
740.000000	0.503989
741.000000	0.504092
742.000000	0.504182
743.000000	0.504239
744.000000	0.504457
745.000000	0.504516
746.000000	0.504559
747.000000	0.504693
748.000000	0.504818
749.000000	0.504965
750.000000	0.505099
751.000000	0.505185
752.000000	0.505281
753.000000	0.505402
754.000000	0.505485
755.000000	0.505613
756.000000	0.505740
757.000000	0.505735
758.000000	0.505731
759.000000	0.505819
760.000000	0.505915
761.000000	0.506034
762.000000	0.506120
763.000000	0.506166
764.000000	0.506323
765.000000	0.506367
766.000000	0.506346
767.000000	0.506348
768.000000	0.506433
769.000000	0.506473
770.000000	0.506448
771.000000	0.506474
772.000000	0.506620
773.000000	0.506730
774.000000	0.506780
775.000000	0.506854
776.000000	0.506972
777.000000	0.507102
778.000000	0.507208
779.000000	0.507309
780.000000	0.507401
781.000000	0.507427
782.000000	0.507431
783.000000	0.507530
784.000000	0.507551
785.000000	0.507574
786.000000	0.507602
787.000000	0.507611
788.000000	0.507562
789.000000	0.507567
790.000000	0.507605
791.000000	0.507659
792.000000	0.507662
793.000000	0.507701
794.000000	0.507825
795.000000	0.507815
796.000000	0.507813
797.000000	0.507875
798.000000	0.507986
799.000000	0.508135
800.000000	0.508254
801.000000	0.508288
802.000000	0.508284
803.000000	0.508295
804.000000	0.508380
805.000000	0.508391
806.000000	0.508329
807.000000	0.508315
808.000000	0.508284
809.000000	0.508238
810.000000	0.508267
811.000000	0.508366
812.000000	0.508278
813.000000	0.508283
814.000000	0.508380
815.000000	0.508364
816.000000	0.508379
817.000000	0.508415
818.000000	0.508324
819.000000	0.508403
820.000000	0.508480
821.000000	0.508426
822.000000	0.508442
823.000000	0.508558
824.000000	0.508631
825.000000	0.508662
826.000000	0.508614
827.000000	0.508523
828.000000	0.508485
829.000000	0.508460
830.000000	0.508351
831.000000	0.508278
832.000000	0.508203
833.000000	0.508155
834.000000	0.508120
835.000000	0.508121
836.000000	0.508093
837.000000	0.508014
838.000000	0.507939
839.000000	0.507907
840.000000	0.507895
841.000000	0.507930
842.000000	0.507964
843.000000	0.507988
844.000000	0.508026
845.000000	0.508015
846.000000	0.507925
847.000000	0.507874
848.000000	0.507846
849.000000	0.507837
850.000000	0.507764
851.000000	0.507659
852.000000	0.507615
853.000000	0.507613
854.000000	0.507506
855.000000	0.507536
856.000000	0.507670
857.000000	0.507547
858.000000	0.507416
859.000000	0.507285
860.000000	0.507101
861.000000	0.506964
862.000000	0.506975
863.000000	0.507056
864.000000	0.506965
865.000000	0.506856
866.000000	0.506847
867.000000	0.506803
868.000000	0.506756
869.000000	0.506640
870.000000	0.506550
871.000000	0.506475
872.000000	0.506363
873.000000	0.506133
874.000000	0.506015
875.000000	0.505885
876.000000	0.505772
877.000000	0.505628
878.000000	0.505339
879.000000	0.505148
880.000000	0.504964
881.000000	0.504813
882.000000	0.504709
883.000000	0.504605
884.000000	0.504364
885.000000	0.504378
886.000000	0.504324
887.000000	0.504107
888.000000	0.504013
889.000000	0.504041
890.000000	0.503960
891.000000	0.503828
892.000000	0.503511
893.000000	0.503185
894.000000	0.503095
895.000000	0.502904
896.000000	0.502636
897.000000	0.502463
898.000000	0.502524
899.000000	0.502367
900.000000	0.502227
901.000000	0.502149
902.000000	0.502073
903.000000	0.501776
904.000000	0.501471
905.000000	0.501272
906.000000	0.501212
907.000000	0.501108
908.000000	0.501002
909.000000	0.500891
910.000000	0.500569
911.000000	0.500224
912.000000	0.500077
913.000000	0.499969
914.000000	0.499844
915.000000	0.499735
916.000000	0.499487
917.000000	0.499322
918.000000	0.499195
919.000000	0.499024
920.000000	0.498930
921.000000	0.498663
922.000000	0.498368
923.000000	0.498278
924.000000	0.497925
925.000000	0.497544
926.000000	0.497356
927.000000	0.497248
928.000000	0.496934
929.000000	0.496518
930.000000	0.496244
931.000000	0.496175
932.000000	0.496081
933.000000	0.495904
934.000000	0.495623
935.000000	0.495391
936.000000	0.495211
937.000000	0.494888
938.000000	0.494458
939.000000	0.494302
940.000000	0.494215
941.000000	0.493941
942.000000	0.493708
943.000000	0.493529
944.000000	0.493226
945.000000	0.493028
946.000000	0.492699
947.000000	0.492389
948.000000	0.492187
949.000000	0.491915
950.000000	0.491569
951.000000	0.491180
952.000000	0.490988
953.000000	0.490724
954.000000	0.490443
955.000000	0.490132
956.000000	0.489912
957.000000	0.489779
958.000000	0.489542
959.000000	0.489201
960.000000	0.488986
961.000000	0.488811
962.000000	0.488535
963.000000	0.488089
964.000000	0.487771
965.000000	0.487674
966.000000	0.487547
967.000000	0.487187
968.000000	0.486751
969.000000	0.486268
970.000000	0.485901
971.000000	0.485473
972.000000	0.485326
973.000000	0.485311
974.000000	0.484975
975.000000	0.485063
976.000000	0.485031
977.000000	0.484456
978.000000	0.484092
979.000000	0.483895
980.000000	0.483590
981.000000	0.483542
982.000000	0.483323
983.000000	0.483017
984.000000	0.482899
985.000000	0.483106
986.000000	0.483181
987.000000	0.482902
988.000000	0.482211
989.000000	0.481939
990.000000	0.481765
991.000000	0.481614
992.000000	0.481553
993.000000	0.481591
994.000000	0.481361
995.000000	0.481140
996.000000	0.481043
997.000000	0.481393
998.000000	0.481384
999.000000	0.480971
1000.000000	0.480982
1001.000000	0.481058
1002.000000	0.481104
1003.000000	0.481175
1004.000000	0.481170
1005.000000	0.481769
1006.000000	0.481714
1007.000000	0.481268
1008.000000	0.480508
1009.000000	0.480234
1010.000000	0.479724
1011.000000	0.479381
1012.000000	0.479409
1013.000000	0.478738
1014.000000	0.477856
1015.000000	0.477725
1016.000000	0.478093
1017.000000	0.478593
1018.000000	0.479549
1019.000000	0.480287
1020.000000	0.481545
1021.000000	0.481155
1022.000000	0.479721
1023.000000	0.479845
1024.000000	0.479639
1025.000000	0.479685
1026.000000	0.480739
1027.000000	0.481163
1028.000000	0.480909
1029.000000	0.480517
1030.000000	0.479761
1031.000000	0.479568
1032.000000	0.479231
1033.000000	0.478570
1034.000000	0.478567
1035.000000	0.479271
1036.000000	0.479571
1037.000000	0.480050
1038.000000	0.480396
1039.000000	0.480837
1040.000000	0.481264
1041.000000	0.481196
1042.000000	0.480468
1043.000000	0.480028
1044.000000	0.479903
1045.000000	0.479843
1046.000000	0.480344
1047.000000	0.480936
1048.000000	0.481599
1049.000000	0.481946
1050.000000	0.482680
1051.000000	0.482878
1052.000000	0.482248
1053.000000	0.482149
1054.000000	0.482496
1055.000000	0.482740
1056.000000	0.483018
1057.000000	0.483607
1058.000000	0.483900
1059.000000	0.483941
1060.000000	0.484509
1061.000000	0.484410
1062.000000	0.483766
1063.000000	0.484011
1064.000000	0.484196
1065.000000	0.484388
1066.000000	0.484502
1067.000000	0.484671
1068.000000	0.484897
1069.000000	0.484919
1070.000000	0.485107
1071.000000	0.485920
1072.000000	0.486234
1073.000000	0.486248
1074.000000	0.486375
1075.000000	0.486538
1076.000000	0.486421
1077.000000	0.486669
1078.000000	0.487280
1079.000000	0.487602
1080.000000	0.488066
1081.000000	0.488333
1082.000000	0.488503
1083.000000	0.488724
1084.000000	0.489064
1085.000000	0.489283
1086.000000	0.489427
1087.000000	0.489504
1088.000000	0.489122
1089.000000	0.489135
1090.000000	0.489380
1091.000000	0.489419
1092.000000	0.489590
1093.000000	0.489908
1094.000000	0.490028
1095.000000	0.489793
1096.000000	0.489897
1097.000000	0.490233
1098.000000	0.490336
1099.000000	0.490274
1100.000000	0.490381
1101.000000	0.490241
1102.000000	0.490383
1103.000000	0.490803
1104.000000	0.491136
1105.000000	0.491673
1106.000000	0.491954
1107.000000	0.491882
1108.000000	0.491947
1109.000000	0.492220
1110.000000	0.492143
1111.000000	0.492219
1112.000000	0.492396
1113.000000	0.492566
1114.000000	0.492634
1115.000000	0.492853
1116.000000	0.493359
1117.000000	0.493482
1118.000000	0.493501
1119.000000	0.493350
1120.000000	0.492541
1121.000000	0.492543
1122.000000	0.493380
1123.000000	0.493797
1124.000000	0.493975
1125.000000	0.494273
1126.000000	0.493982
1127.000000	0.493878
1128.000000	0.493911
1129.000000	0.494390
1130.000000	0.494584
1131.000000	0.494699
1132.000000	0.494758
1133.000000	0.495038
1134.000000	0.494971
1135.000000	0.494450
1136.000000	0.494268
1137.000000	0.494056
1138.000000	0.493839
1139.000000	0.493957
1140.000000	0.494025
1141.000000	0.493911
1142.000000	0.493858
1143.000000	0.493644
1144.000000	0.493789
1145.000000	0.493911
1146.000000	0.493925
1147.000000	0.493777
1148.000000	0.493481
1149.000000	0.493257
1150.000000	0.492801
1151.000000	0.492666
1152.000000	0.492711
1153.000000	0.492681
1154.000000	0.492667
1155.000000	0.492519
1156.000000	0.492346
1157.000000	0.492149
1158.000000	0.491796
1159.000000	0.491473
1160.000000	0.490978
1161.000000	0.490705
1162.000000	0.490626
1163.000000	0.490770
1164.000000	0.490602
1165.000000	0.490484
1166.000000	0.490439
1167.000000	0.490179
1168.000000	0.489998
1169.000000	0.490078
1170.000000	0.490006
1171.000000	0.489821
1172.000000	0.489787
1173.000000	0.489824
1174.000000	0.489743
1175.000000	0.489496
1176.000000	0.489387
1177.000000	0.489568
1178.000000	0.489475
1179.000000	0.489255
1180.000000	0.489051
1181.000000	0.488834
1182.000000	0.488549
1183.000000	0.488412
1184.000000	0.488549
1185.000000	0.488583
1186.000000	0.488665
1187.000000	0.488513
1188.000000	0.488298
1189.000000	0.488063
1190.000000	0.487707
1191.000000	0.487455
1192.000000	0.487392
1193.000000	0.487460
1194.000000	0.487411
1195.000000	0.487353
1196.000000	0.487323
1197.000000	0.487287
1198.000000	0.487212
1199.000000	0.487120
1200.000000	0.486946
1201.000000	0.486975
1202.000000	0.486985
1203.000000	0.486900
1204.000000	0.486964
1205.000000	0.486928
1206.000000	0.486766
1207.000000	0.486593
1208.000000	0.486466
1209.000000	0.486366
1210.000000	0.486323
1211.000000	0.486403
1212.000000	0.486262
1213.000000	0.486009
1214.000000	0.485988
1215.000000	0.486002
1216.000000	0.485954
1217.000000	0.485949
1218.000000	0.485923
1219.000000	0.485828
1220.000000	0.485820
1221.000000	0.485817
1222.000000	0.485794
1223.000000	0.485747
1224.000000	0.485652
1225.000000	0.485550
1226.000000	0.485542
1227.000000	0.485393
1228.000000	0.485228
1229.000000	0.485084
1230.000000	0.484900
1231.000000	0.484770
1232.000000	0.484948
1233.000000	0.484996
1234.000000	0.484952
1235.000000	0.484983
1236.000000	0.484802
1237.000000	0.484781
1238.000000	0.484856
1239.000000	0.484892
1240.000000	0.484980
1241.000000	0.484920
1242.000000	0.484866
1243.000000	0.484898
1244.000000	0.484773
1245.000000	0.484796
1246.000000	0.484845
1247.000000	0.484900
1248.000000	0.485014
1249.000000	0.485191
1250.000000	0.485305
1251.000000	0.485295
1252.000000	0.485297
1253.000000	0.485222
1254.000000	0.485290
1255.000000	0.485424
1256.000000	0.485510
1257.000000	0.485847
1258.000000	0.485907
1259.000000	0.485593
1260.000000	0.485579
1261.000000	0.485384
1262.000000	0.485277
1263.000000	0.485351
1264.000000	0.485487
1265.000000	0.485489
1266.000000	0.485477
1267.000000	0.485438
1268.000000	0.485428
1269.000000	0.485413
1270.000000	0.485587
1271.000000	0.485727
1272.000000	0.485824
1273.000000	0.485884
1274.000000	0.485665
1275.000000	0.485560
1276.000000	0.485487
1277.000000	0.485479
1278.000000	0.485378
1279.000000	0.485341
1280.000000	0.485168
1281.000000	0.485065
1282.000000	0.485086
1283.000000	0.485236
1284.000000	0.485457
1285.000000	0.485589
1286.000000	0.485706
1287.000000	0.485796
1288.000000	0.485795
1289.000000	0.485758
1290.000000	0.485719
1291.000000	0.485555
1292.000000	0.485485
1293.000000	0.485468
1294.000000	0.485356
1295.000000	0.485309
1296.000000	0.485193
1297.000000	0.484986
1298.000000	0.484952
1299.000000	0.484908
1300.000000	0.484903
1301.000000	0.484967
1302.000000	0.484827
1303.000000	0.484729
1304.000000	0.484539
1305.000000	0.484330
1306.000000	0.484085
1307.000000	0.483849
1308.000000	0.483725
1309.000000	0.483739
1310.000000	0.483584
1311.000000	0.483509
1312.000000	0.483101
1313.000000	0.482619
1314.000000	0.482240
1315.000000	0.481936
1316.000000	0.481839
1317.000000	0.481744
1318.000000	0.481556
1319.000000	0.481286
1320.000000	0.480970
1321.000000	0.480663
1322.000000	0.480355
1323.000000	0.479968
1324.000000	0.479680
1325.000000	0.479300
1326.000000	0.478768
1327.000000	0.478354
1328.000000	0.478036
1329.000000	0.477616
1330.000000	0.477222
1331.000000	0.476846
1332.000000	0.476531
1333.000000	0.476197
1334.000000	0.475971
1335.000000	0.475744
1336.000000	0.475559
1337.000000	0.475168
1338.000000	0.474608
1339.000000	0.474053
1340.000000	0.473466
1341.000000	0.473016
1342.000000	0.472499
1343.000000	0.472035
1344.000000	0.471571
1345.000000	0.470988
1346.000000	0.470729
1347.000000	0.470262
1348.000000	0.469687
1349.000000	0.469034
1350.000000	0.468323
1351.000000	0.467691
1352.000000	0.467203
1353.000000	0.466729
1354.000000	0.466314
1355.000000	0.466026
1356.000000	0.465588
1357.000000	0.464907
1358.000000	0.464261
1359.000000	0.463708
1360.000000	0.463218
1361.000000	0.463002
1362.000000	0.462496
1363.000000	0.461893
1364.000000	0.461271
1365.000000	0.460382
1366.000000	0.459802
1367.000000	0.459382
1368.000000	0.458822
1369.000000	0.458485
1370.000000	0.457994
1371.000000	0.457345
1372.000000	0.456657
1373.000000	0.455905
1374.000000	0.455167
1375.000000	0.454531
1376.000000	0.453923
1377.000000	0.453094
1378.000000	0.452093
1379.000000	0.450644
1380.000000	0.449089
1381.000000	0.447601
1382.000000	0.445873
1383.000000	0.444202
1384.000000	0.442456
1385.000000	0.440431
1386.000000	0.438690
1387.000000	0.437278
1388.000000	0.435779
1389.000000	0.434358
1390.000000	0.432975
1391.000000	0.431508
1392.000000	0.430245
1393.000000	0.429036
1394.000000	0.428127
1395.000000	0.427003
1396.000000	0.425934
1397.000000	0.424598
1398.000000	0.423034
1399.000000	0.421519
1400.000000	0.419972
1401.000000	0.418104
1402.000000	0.416156
1403.000000	0.414074
1404.000000	0.411871
1405.000000	0.409621
1406.000000	0.407491
1407.000000	0.405364
1408.000000	0.402984
1409.000000	0.400720
1410.000000	0.398670
1411.000000	0.396351
1412.000000	0.393867
1413.000000	0.391529
1414.000000	0.389068
1415.000000	0.386668
1416.000000	0.384521
1417.000000	0.382377
1418.000000	0.380069
1419.000000	0.377829
1420.000000	0.375641
1421.000000	0.373492
1422.000000	0.371328
1423.000000	0.369336
1424.000000	0.367305
1425.000000	0.365242
1426.000000	0.363176
1427.000000	0.361258
1428.000000	0.359418
1429.000000	0.357586
1430.000000	0.355952
1431.000000	0.354286
1432.000000	0.352667
1433.000000	0.351173
1434.000000	0.349651
1435.000000	0.348212
1436.000000	0.346777
1437.000000	0.345328
1438.000000	0.343907
1439.000000	0.342540
1440.000000	0.341239
1441.000000	0.339995
1442.000000	0.338749
1443.000000	0.337424
1444.000000	0.336326
1445.000000	0.335246
1446.000000	0.334234
1447.000000	0.333242
1448.000000	0.332254
1449.000000	0.331386
1450.000000	0.330556
1451.000000	0.329769
1452.000000	0.328959
1453.000000	0.328070
1454.000000	0.327208
1455.000000	0.326574
1456.000000	0.326179
1457.000000	0.325817
1458.000000	0.325326
1459.000000	0.324782
1460.000000	0.324279
1461.000000	0.323802
1462.000000	0.323476
1463.000000	0.323197
1464.000000	0.322885
1465.000000	0.322676
1466.000000	0.322423
1467.000000	0.322119
1468.000000	0.321915
1469.000000	0.321835
1470.000000	0.321762
1471.000000	0.321755
1472.000000	0.321760
1473.000000	0.321869
1474.000000	0.322015
1475.000000	0.322271
1476.000000	0.322704
1477.000000	0.323133
1478.000000	0.323497
1479.000000	0.323952
1480.000000	0.324467
1481.000000	0.325029
1482.000000	0.325752
1483.000000	0.326442
1484.000000	0.327114
1485.000000	0.327887
1486.000000	0.328743
1487.000000	0.329519
1488.000000	0.330346
1489.000000	0.331123
1490.000000	0.331648
1491.000000	0.332376
1492.000000	0.333224
1493.000000	0.333985
1494.000000	0.334725
1495.000000	0.335365
1496.000000	0.335807
1497.000000	0.336446
1498.000000	0.337164
1499.000000	0.337932
1500.000000	0.338724
1501.000000	0.339459
1502.000000	0.340011
1503.000000	0.340481
1504.000000	0.341031
1505.000000	0.341571
1506.000000	0.342063
1507.000000	0.342606
1508.000000	0.343086
1509.000000	0.343490
1510.000000	0.343966
1511.000000	0.344479
1512.000000	0.344808
1513.000000	0.345097
1514.000000	0.345543
1515.000000	0.345867
1516.000000	0.346334
1517.000000	0.346813
1518.000000	0.347127
1519.000000	0.347401
1520.000000	0.347606
1521.000000	0.347812
1522.000000	0.348076
1523.000000	0.348326
1524.000000	0.348524
1525.000000	0.348799
1526.000000	0.349164
1527.000000	0.349488
1528.000000	0.349764
1529.000000	0.350033
1530.000000	0.350096
1531.000000	0.350213
1532.000000	0.350549
1533.000000	0.350725
1534.000000	0.350807
1535.000000	0.350979
1536.000000	0.351050
1537.000000	0.351286
1538.000000	0.351596
1539.000000	0.351685
1540.000000	0.351836
1541.000000	0.352000
1542.000000	0.352084
1543.000000	0.352272
1544.000000	0.352358
1545.000000	0.352361
1546.000000	0.352477
1547.000000	0.352607
1548.000000	0.352748
1549.000000	0.352882
1550.000000	0.352873
1551.000000	0.352878
1552.000000	0.352974
1553.000000	0.352972
1554.000000	0.352932
1555.000000	0.353012
1556.000000	0.353080
1557.000000	0.353019
1558.000000	0.352975
1559.000000	0.352885
1560.000000	0.352815
1561.000000	0.352709
1562.000000	0.352646
1563.000000	0.352706
1564.000000	0.352709
1565.000000	0.352685
1566.000000	0.352564
1567.000000	0.352508
1568.000000	0.352476
1569.000000	0.352465
1570.000000	0.352466
1571.000000	0.352527
1572.000000	0.352468
1573.000000	0.352342
1574.000000	0.352270
1575.000000	0.352198
1576.000000	0.352203
1577.000000	0.352214
1578.000000	0.352198
1579.000000	0.352320
1580.000000	0.352298
1581.000000	0.352254
1582.000000	0.352267
1583.000000	0.352238
1584.000000	0.352178
1585.000000	0.352231
1586.000000	0.352276
1587.000000	0.352281
1588.000000	0.352313
1589.000000	0.352402
1590.000000	0.352434
1591.000000	0.352454
1592.000000	0.352514
1593.000000	0.352651
1594.000000	0.352669
1595.000000	0.352664
1596.000000	0.352721
1597.000000	0.352764
1598.000000	0.352840
1599.000000	0.353076
1600.000000	0.353154
1601.000000	0.353188
1602.000000	0.353256
1603.000000	0.353373
1604.000000	0.353371
1605.000000	0.353361
1606.000000	0.353375
1607.000000	0.353376
1608.000000	0.353428
1609.000000	0.353553
1610.000000	0.353652
1611.000000	0.353764
1612.000000	0.353877
1613.000000	0.354182
1614.000000	0.354349
1615.000000	0.354460
1616.000000	0.354718
1617.000000	0.354974
1618.000000	0.355164
1619.000000	0.355361
1620.000000	0.355611
1621.000000	0.355817
1622.000000	0.356166
1623.000000	0.356659
1624.000000	0.357041
1625.000000	0.357255
1626.000000	0.357508
1627.000000	0.357766
1628.000000	0.358092
1629.000000	0.358424
1630.000000	0.358745
1631.000000	0.359045
1632.000000	0.359278
1633.000000	0.359422
1634.000000	0.359753
1635.000000	0.360172
1636.000000	0.360550
1637.000000	0.361113
1638.000000	0.361486
1639.000000	0.361757
1640.000000	0.362116
1641.000000	0.362539
1642.000000	0.362946
1643.000000	0.363471
1644.000000	0.363854
1645.000000	0.364139
1646.000000	0.364410
1647.000000	0.364619
1648.000000	0.364932
1649.000000	0.365352
1650.000000	0.365847
1651.000000	0.366526
1652.000000	0.367055
1653.000000	0.367565
1654.000000	0.368004
1655.000000	0.368214
1656.000000	0.368544
1657.000000	0.369018
1658.000000	0.369368
1659.000000	0.369812
1660.000000	0.370238
1661.000000	0.370438
1662.000000	0.370891
1663.000000	0.371500
1664.000000	0.371978
1665.000000	0.372467
1666.000000	0.373010
1667.000000	0.373427
1668.000000	0.373858
1669.000000	0.374369
1670.000000	0.374622
1671.000000	0.374819
1672.000000	0.375130
1673.000000	0.375296
1674.000000	0.375853
1675.000000	0.376341
1676.000000	0.376690
1677.000000	0.377003
1678.000000	0.377120
1679.000000	0.377283
1680.000000	0.377478
1681.000000	0.377717
1682.000000	0.378089
1683.000000	0.378394
1684.000000	0.378684
1685.000000	0.379045
1686.000000	0.379318
1687.000000	0.379526
1688.000000	0.379594
1689.000000	0.379827
1690.000000	0.380041
1691.000000	0.380290
1692.000000	0.380836
1693.000000	0.381285
1694.000000	0.381520
1695.000000	0.381772
1696.000000	0.381788
1697.000000	0.381898
1698.000000	0.382230
1699.000000	0.382510
1700.000000	0.382830
1701.000000	0.383137
1702.000000	0.383111
1703.000000	0.383173
1704.000000	0.383375
1705.000000	0.383530
1706.000000	0.383769
1707.000000	0.383992
1708.000000	0.384110
1709.000000	0.384229
1710.000000	0.384537
1711.000000	0.384728
1712.000000	0.384854
1713.000000	0.385018
1714.000000	0.385165
1715.000000	0.385425
1716.000000	0.385834
1717.000000	0.386128
1718.000000	0.386412
1719.000000	0.386590
1720.000000	0.386660
1721.000000	0.386878
1722.000000	0.387099
1723.000000	0.387398
1724.000000	0.387905
1725.000000	0.388288
1726.000000	0.388554
1727.000000	0.388809
1728.000000	0.388916
1729.000000	0.389044
1730.000000	0.389291
1731.000000	0.389564
1732.000000	0.389848
1733.000000	0.390302
1734.000000	0.390793
1735.000000	0.391069
1736.000000	0.391302
1737.000000	0.391471
1738.000000	0.391398
1739.000000	0.391609
1740.000000	0.391937
1741.000000	0.392217
1742.000000	0.392585
1743.000000	0.392944
1744.000000	0.393329
1745.000000	0.393467
1746.000000	0.393467
1747.000000	0.393603
1748.000000	0.393718
1749.000000	0.394110
1750.000000	0.394329
1751.000000	0.394554
1752.000000	0.394838
1753.000000	0.394821
1754.000000	0.395011
1755.000000	0.395315
1756.000000	0.395493
1757.000000	0.395771
1758.000000	0.395973
1759.000000	0.395925
1760.000000	0.396030
1761.000000	0.396176
1762.000000	0.396317
1763.000000	0.396551
1764.000000	0.396731
1765.000000	0.396776
1766.000000	0.396995
1767.000000	0.397180
1768.000000	0.397388
1769.000000	0.397843
1770.000000	0.398253
1771.000000	0.398672
1772.000000	0.398895
1773.000000	0.398939
1774.000000	0.399082
1775.000000	0.399202
1776.000000	0.399309
1777.000000	0.399480
1778.000000	0.399525
1779.000000	0.399306
1780.000000	0.399433
1781.000000	0.399681
1782.000000	0.399850
1783.000000	0.400204
1784.000000	0.400551
1785.000000	0.400639
1786.000000	0.401032
1787.000000	0.401466
1788.000000	0.401731
1789.000000	0.401936
1790.000000	0.402484
1791.000000	0.402781
1792.000000	0.403277
1793.000000	0.403615
1794.000000	0.403599
1795.000000	0.403749
1796.000000	0.403888
1797.000000	0.404099
1798.000000	0.404444
1799.000000	0.404682
1800.000000	0.404951
1801.000000	0.404262
1802.000000	0.404607
1803.000000	0.405208
1804.000000	0.406131
1805.000000	0.408665
1806.000000	0.409479
1807.000000	0.409544
1808.000000	0.409640
1809.000000	0.408395
1810.000000	0.408308
1811.000000	0.408415
1812.000000	0.408924
1813.000000	0.409205
1814.000000	0.410060
1815.000000	0.410341
1816.000000	0.410488
1817.000000	0.410362
1818.000000	0.409969
1819.000000	0.409528
1820.000000	0.409872
1821.000000	0.409371
1822.000000	0.408999
1823.000000	0.408635
1824.000000	0.408281
1825.000000	0.407256
1826.000000	0.407118
1827.000000	0.407383
1828.000000	0.407670
1829.000000	0.408359
1830.000000	0.408705
1831.000000	0.409013
1832.000000	0.409429
1833.000000	0.409281
1834.000000	0.409068
1835.000000	0.408491
1836.000000	0.406986
1837.000000	0.406024
1838.000000	0.405241
1839.000000	0.403530
1840.000000	0.402145
1841.000000	0.401866
1842.000000	0.401562
1843.000000	0.401686
1844.000000	0.401562
1845.000000	0.401658
1846.000000	0.401513
1847.000000	0.401023
1848.000000	0.400203
1849.000000	0.399733
1850.000000	0.399603
1851.000000	0.399055
1852.000000	0.398330
1853.000000	0.397688
1854.000000	0.396778
1855.000000	0.395487
1856.000000	0.394106
1857.000000	0.392375
1858.000000	0.389885
1859.000000	0.387631
1860.000000	0.385623
1861.000000	0.383493
1862.000000	0.381451
1863.000000	0.380051
1864.000000	0.377937
1865.000000	0.375570
1866.000000	0.373059
1867.000000	0.370214
1868.000000	0.366907
1869.000000	0.364401
1870.000000	0.361522
1871.000000	0.358201
1872.000000	0.355564
1873.000000	0.352379
1874.000000	0.348314
1875.000000	0.344679
1876.000000	0.341299
1877.000000	0.336927
1878.000000	0.332286
1879.000000	0.328474
1880.000000	0.324381
1881.000000	0.320217
1882.000000	0.315582
1883.000000	0.310551
1884.000000	0.305806
1885.000000	0.300843
1886.000000	0.295314
1887.000000	0.289834
1888.000000	0.283899
1889.000000	0.276616
1890.000000	0.270446
1891.000000	0.264869
1892.000000	0.259416
1893.000000	0.254407
1894.000000	0.248924
1895.000000	0.243411
1896.000000	0.237700
1897.000000	0.232306
1898.000000	0.226800
1899.000000	0.221602
1900.000000	0.216499
1901.000000	0.211153
1902.000000	0.206451
1903.000000	0.201771
1904.000000	0.197175
1905.000000	0.193183
1906.000000	0.188883
1907.000000	0.184428
1908.000000	0.180168
1909.000000	0.176585
1910.000000	0.172808
1911.000000	0.169303
1912.000000	0.166192
1913.000000	0.162608
1914.000000	0.159391
1915.000000	0.156557
1916.000000	0.153633
1917.000000	0.151256
1918.000000	0.149646
1919.000000	0.147853
1920.000000	0.145579
1921.000000	0.144228
1922.000000	0.142929
1923.000000	0.141570
1924.000000	0.140866
1925.000000	0.140171
1926.000000	0.139252
1927.000000	0.139042
1928.000000	0.138635
1929.000000	0.138446
1930.000000	0.137742
1931.000000	0.137374
1932.000000	0.136741
1933.000000	0.135892
1934.000000	0.136227
1935.000000	0.136622
1936.000000	0.136390
1937.000000	0.136538
1938.000000	0.136294
1939.000000	0.136084
1940.000000	0.135794
1941.000000	0.135604
1942.000000	0.135014
1943.000000	0.134794
1944.000000	0.133971
1945.000000	0.133559
1946.000000	0.133975
1947.000000	0.133603
1948.000000	0.133646
1949.000000	0.133626
1950.000000	0.132791
1951.000000	0.132330
1952.000000	0.132133
1953.000000	0.131685
1954.000000	0.131101
1955.000000	0.130884
1956.000000	0.130290
1957.000000	0.129450
1958.000000	0.128599
1959.000000	0.127886
1960.000000	0.127072
1961.000000	0.126601
1962.000000	0.126392
1963.000000	0.126702
1964.000000	0.126539
1965.000000	0.126482
1966.000000	0.126473
1967.000000	0.126060
1968.000000	0.126450
1969.000000	0.126832
1970.000000	0.126943
1971.000000	0.126965
1972.000000	0.126467
1973.000000	0.126182
1974.000000	0.125567
1975.000000	0.125702
1976.000000	0.126202
1977.000000	0.126943
1978.000000	0.128264
1979.000000	0.129590
1980.000000	0.130207
1981.000000	0.130792
1982.000000	0.130597
1983.000000	0.130287
1984.000000	0.130821
1985.000000	0.132033
1986.000000	0.132789
1987.000000	0.133945
1988.000000	0.135125
1989.000000	0.135286
1990.000000	0.135496
1991.000000	0.135710
1992.000000	0.135927
1993.000000	0.136340
1994.000000	0.136521
1995.000000	0.137106
1996.000000	0.138089
1997.000000	0.138967
1998.000000	0.140159
1999.000000	0.141032
2000.000000	0.141783
2001.000000	0.142429
2002.000000	0.142861
2003.000000	0.144547
2004.000000	0.146468
2005.000000	0.147932
2006.000000	0.150018
2007.000000	0.151469
2008.000000	0.152732
2009.000000	0.153747
2010.000000	0.154844
2011.000000	0.155513
2012.000000	0.156552
2013.000000	0.157631
2014.000000	0.158643
2015.000000	0.160444
2016.000000	0.161840
2017.000000	0.163122
2018.000000	0.164837
2019.000000	0.166478
2020.000000	0.167833
2021.000000	0.169128
2022.000000	0.170707
2023.000000	0.171646
2024.000000	0.171815
2025.000000	0.172709
2026.000000	0.173515
2027.000000	0.174474
2028.000000	0.176012
2029.000000	0.177090
2030.000000	0.178762
2031.000000	0.180647
2032.000000	0.181591
2033.000000	0.182828
2034.000000	0.183946
2035.000000	0.184281
2036.000000	0.185263
2037.000000	0.187170
2038.000000	0.188354
2039.000000	0.189295
2040.000000	0.190520
2041.000000	0.190961
2042.000000	0.191481
2043.000000	0.192765
2044.000000	0.193613
2045.000000	0.194796
2046.000000	0.196418
2047.000000	0.197864
2048.000000	0.199117
2049.000000	0.200557
2050.000000	0.201954
2051.000000	0.203376
2052.000000	0.204940
2053.000000	0.206187
2054.000000	0.207663
2055.000000	0.208659
2056.000000	0.209416
2057.000000	0.210090
2058.000000	0.210958
2059.000000	0.212433
2060.000000	0.213490
2061.000000	0.214497
2062.000000	0.215674
2063.000000	0.216867
2064.000000	0.217813
2065.000000	0.219130
2066.000000	0.220075
2067.000000	0.220941
2068.000000	0.221556
2069.000000	0.222225
2070.000000	0.222932
2071.000000	0.223261
2072.000000	0.223845
2073.000000	0.224678
2074.000000	0.225928
2075.000000	0.227193
2076.000000	0.228863
2077.000000	0.230178
2078.000000	0.231270
2079.000000	0.232564
2080.000000	0.234292
2081.000000	0.235655
2082.000000	0.236923
2083.000000	0.238082
2084.000000	0.239372
2085.000000	0.239684
2086.000000	0.240445
2087.000000	0.241623
2088.000000	0.243135
2089.000000	0.245025
2090.000000	0.246521
2091.000000	0.248315
2092.000000	0.249893
2093.000000	0.251067
2094.000000	0.252367
2095.000000	0.253863
2096.000000	0.255114
2097.000000	0.256039
2098.000000	0.256936
2099.000000	0.258211
2100.000000	0.260012
2101.000000	0.261405
2102.000000	0.262143
2103.000000	0.262452
2104.000000	0.262077
2105.000000	0.262457
2106.000000	0.263175
2107.000000	0.263907
2108.000000	0.264756
2109.000000	0.265957
2110.000000	0.267105
2111.000000	0.268337
2112.000000	0.270142
2113.000000	0.271384
2114.000000	0.271942
2115.000000	0.272761
2116.000000	0.272908
2117.000000	0.273151
2118.000000	0.273754
2119.000000	0.273811
2120.000000	0.274383
2121.000000	0.275151
2122.000000	0.275957
2123.000000	0.277353
2124.000000	0.277993
2125.000000	0.278044
2126.000000	0.278534
2127.000000	0.279008
2128.000000	0.279425
2129.000000	0.280057
2130.000000	0.280508
2131.000000	0.280485
2132.000000	0.280259
2133.000000	0.280570
2134.000000	0.281058
2135.000000	0.280944
2136.000000	0.280565
2137.000000	0.280860
2138.000000	0.281031
2139.000000	0.281783
2140.000000	0.283926
2141.000000	0.284736
2142.000000	0.285038
2143.000000	0.285223
2144.000000	0.284751
2145.000000	0.284939
2146.000000	0.285774
2147.000000	0.286099
2148.000000	0.286652
2149.000000	0.287130
2150.000000	0.287226
2151.000000	0.287756
2152.000000	0.288403
2153.000000	0.288226
2154.000000	0.288130
2155.000000	0.287988
2156.000000	0.287687
2157.000000	0.286739
2158.000000	0.286725
2159.000000	0.287309
2160.000000	0.287546
2161.000000	0.288068
2162.000000	0.288813
2163.000000	0.289707
2164.000000	0.289630
2165.000000	0.289392
2166.000000	0.288873
2167.000000	0.287352
2168.000000	0.287143
2169.000000	0.288157
2170.000000	0.288961
2171.000000	0.289479
2172.000000	0.290449
2173.000000	0.290527
2174.000000	0.289468
2175.000000	0.289576
2176.000000	0.289716
2177.000000	0.290135
2178.000000	0.291565
2179.000000	0.292558
2180.000000	0.293446
2181.000000	0.294153
2182.000000	0.294390
2183.000000	0.294392
2184.000000	0.293589
2185.000000	0.292810
2186.000000	0.291693
2187.000000	0.290884
2188.000000	0.291058
2189.000000	0.291501
2190.000000	0.292131
2191.000000	0.293039
2192.000000	0.292929
2193.000000	0.291654
2194.000000	0.291336
2195.000000	0.290582
2196.000000	0.290422
2197.000000	0.291130
2198.000000	0.291192
2199.000000	0.291599
2200.000000	0.291737
2201.000000	0.291352
2202.000000	0.291367
2203.000000	0.291284
2204.000000	0.290639
2205.000000	0.291160
2206.000000	0.291175
2207.000000	0.291450
2208.000000	0.293539
2209.000000	0.295408
2210.000000	0.297910
2211.000000	0.299567
2212.000000	0.299821
2213.000000	0.299535
2214.000000	0.297875
2215.000000	0.296284
2216.000000	0.293200
2217.000000	0.292216
2218.000000	0.291490
2219.000000	0.291881
2220.000000	0.294735
2221.000000	0.296152
2222.000000	0.297275
2223.000000	0.298047
2224.000000	0.298076
2225.000000	0.298444
2226.000000	0.299841
2227.000000	0.301648
2228.000000	0.302572
2229.000000	0.301674
2230.000000	0.298662
2231.000000	0.295368
2232.000000	0.293192
2233.000000	0.293693
2234.000000	0.295802
2235.000000	0.295701
2236.000000	0.294876
2237.000000	0.291884
2238.000000	0.291470
2239.000000	0.291425
2240.000000	0.292533
2241.000000	0.296485
2242.000000	0.297638
2243.000000	0.297244
2244.000000	0.297190
2245.000000	0.296246
2246.000000	0.296097
2247.000000	0.296028
2248.000000	0.296587
2249.000000	0.298105
2250.000000	0.298852
2251.000000	0.299281
2252.000000	0.298251
2253.000000	0.295679
2254.000000	0.294850
2255.000000	0.294335
2256.000000	0.293045
2257.000000	0.292343
2258.000000	0.289930
2259.000000	0.289761
2260.000000	0.292624
2261.000000	0.293133
2262.000000	0.295076
2263.000000	0.295017
2264.000000	0.291800
2265.000000	0.291006
2266.000000	0.290854
2267.000000	0.290110
2268.000000	0.289215
2269.000000	0.289201
2270.000000	0.290024
2271.000000	0.290143
2272.000000	0.291543
2273.000000	0.291334
2274.000000	0.288997
2275.000000	0.287488
2276.000000	0.284971
2277.000000	0.284129
2278.000000	0.284968
2279.000000	0.285156
2280.000000	0.284802
2281.000000	0.284368
2282.000000	0.283052
2283.000000	0.281012
2284.000000	0.280222
2285.000000	0.278463
2286.000000	0.275559
2287.000000	0.274170
2288.000000	0.274667
2289.000000	0.274868
2290.000000	0.274408
2291.000000	0.273461
2292.000000	0.270991
2293.000000	0.268659
2294.000000	0.267129
2295.000000	0.266892
2296.000000	0.265396
2297.000000	0.263895
2298.000000	0.261880
2299.000000	0.257977
2300.000000	0.256435
2301.000000	0.255752
2302.000000	0.255468
2303.000000	0.258237
2304.000000	0.257729
2305.000000	0.255661
2306.000000	0.253369
2307.000000	0.248894
2308.000000	0.245228
2309.000000	0.244134
2310.000000	0.242635
2311.000000	0.242518
2312.000000	0.242965
2313.000000	0.242512
2314.000000	0.243049
2315.000000	0.242684
2316.000000	0.241382
2317.000000	0.240562
2318.000000	0.241267
2319.000000	0.241974
2320.000000	0.241612
2321.000000	0.240339
2322.000000	0.236649
2323.000000	0.233341
2324.000000	0.232940
2325.000000	0.234187
2326.000000	0.234613
2327.000000	0.236075
2328.000000	0.236435
2329.000000	0.233751
2330.000000	0.231442
2331.000000	0.227886
2332.000000	0.224689
2333.000000	0.224824
2334.000000	0.224703
2335.000000	0.223128
2336.000000	0.220219
2337.000000	0.217165
2338.000000	0.212482
2339.000000	0.210047
2340.000000	0.209577
2341.000000	0.208525
2342.000000	0.207268
2343.000000	0.205218
2344.000000	0.201713
2345.000000	0.199429
2346.000000	0.198791
2347.000000	0.196572
2348.000000	0.192809
2349.000000	0.193335
2350.000000	0.193370
2351.000000	0.192528
2352.000000	0.197081
2353.000000	0.199173
2354.000000	0.197175
2355.000000	0.197782
2356.000000	0.195327
2357.000000	0.190878
2358.000000	0.189058
2359.000000	0.185687
2360.000000	0.184904
2361.000000	0.186518
2362.000000	0.186472
2363.000000	0.185883
2364.000000	0.182335
2365.000000	0.176038
2366.000000	0.169619
2367.000000	0.166320
2368.000000	0.164995
2369.000000	0.164141
2370.000000	0.163073
2371.000000	0.162856
2372.000000	0.159942
2373.000000	0.156722
2374.000000	0.159514
2375.000000	0.157558
2376.000000	0.157244
2377.000000	0.160493
2378.000000	0.158602
2379.000000	0.161577
2380.000000	0.163911
2381.000000	0.163815
2382.000000	0.165595
2383.000000	0.164562
2384.000000	0.159802
2385.000000	0.154892
2386.000000	0.154255
2387.000000	0.151806
2388.000000	0.151851
2389.000000	0.152856
2390.000000	0.150285
2391.000000	0.150094
2392.000000	0.149547
2393.000000	0.150687
2394.000000	0.151759
2395.000000	0.153022
2396.000000	0.154391
2397.000000	0.154532
2398.000000	0.152197
2399.000000	0.142361
2400.000000	0.131721
2401.000000	0.122807
2402.000000	0.117802
2403.000000	0.115267
2404.000000	0.115317
2405.000000	0.119738
2406.000000	0.122274
2407.000000	0.122290
2408.000000	0.122067
2409.000000	0.121211
2410.000000	0.113385
2411.000000	0.113453
2412.000000	0.119133
2413.000000	0.117475
2414.000000	0.124537
2415.000000	0.126033
2416.000000	0.118742
2417.000000	0.114707
2418.000000	0.113817
2419.000000	0.119819
2420.000000	0.122300
2421.000000	0.129026
2422.000000	0.137838
2423.000000	0.137746
2424.000000	0.142786
2425.000000	0.143576
2426.000000	0.132391
2427.000000	0.123403
2428.000000	0.117235
2429.000000	0.119340
2430.000000	0.126874
2431.000000	0.133608
2432.000000	0.142323
2433.000000	0.139478
2434.000000	0.136903
2435.000000	0.131446
2436.000000	0.111718
2437.000000	0.107506
2438.000000	0.115427
2439.000000	0.123510
2440.000000	0.135303
2441.000000	0.141877
2442.000000	0.139054
2443.000000	0.129258
2444.000000	0.131696
2445.000000	0.144300
2446.000000	0.145160
2447.000000	0.146141
2448.000000	0.151175
2449.000000	0.140655
2450.000000	0.125523
2451.000000	0.120080
2452.000000	0.116344
2453.000000	0.122002
2454.000000	0.130604
2455.000000	0.137451
2456.000000	0.139711
2457.000000	0.130944
2458.000000	0.121315
2459.000000	0.115575
2460.000000	0.103511
2461.000000	0.100532
2462.000000	0.122973
2463.000000	0.128165
2464.000000	0.137492
2465.000000	0.147725
2466.000000	0.133427
2467.000000	0.114574
2468.000000	0.095660
2469.000000	0.073606
2470.000000	0.052511
2471.000000	0.050673
2472.000000	0.055651
2473.000000	0.060277
2474.000000	0.061041
2475.000000	0.052453
2476.000000	0.049952
2477.000000	0.051110
2478.000000	0.059631
2479.000000	0.078114
2480.000000	0.101976
2481.000000	0.117628
2482.000000	0.120546
2483.000000	0.122520
2484.000000	0.112983
2485.000000	0.099765
2486.000000	0.094376
2487.000000	0.099011
2488.000000	0.090755
2489.000000	0.072168
2490.000000	0.062749
2491.000000	0.047013
2492.000000	0.048028
2493.000000	0.069508
2494.000000	0.100608
2495.000000	0.168409
2496.000000	0.190493
2497.000000	0.188839
2498.000000	0.191662
2499.000000	0.162309
2500.000000	0.147213
