# Wavelength	SM1200H-75-100_00002.asd.rts.txt
350.000000	0.567343
351.000000	0.568127
352.000000	0.558389
353.000000	0.554022
354.000000	0.563249
355.000000	0.561783
356.000000	0.560711
357.000000	0.564746
358.000000	0.565104
359.000000	0.568850
360.000000	0.572236
361.000000	0.569860
362.000000	0.570735
363.000000	0.574294
364.000000	0.577587
365.000000	0.579666
366.000000	0.579404
367.000000	0.577932
368.000000	0.580021
369.000000	0.585628
370.000000	0.590079
371.000000	0.588801
372.000000	0.591889
373.000000	0.595327
374.000000	0.597278
375.000000	0.600943
376.000000	0.601630
377.000000	0.600043
378.000000	0.602939
379.000000	0.606366
380.000000	0.608411
381.000000	0.610040
382.000000	0.611085
383.000000	0.612010
384.000000	0.613598
385.000000	0.614959
386.000000	0.616150
387.000000	0.617938
388.000000	0.621115
389.000000	0.623118
390.000000	0.624242
391.000000	0.625062
392.000000	0.626327
393.000000	0.627934
394.000000	0.629657
395.000000	0.631573
396.000000	0.633042
397.000000	0.633851
398.000000	0.634602
399.000000	0.635342
400.000000	0.636557
401.000000	0.638401
402.000000	0.638948
403.000000	0.639337
404.000000	0.640918
405.000000	0.641581
406.000000	0.642255
407.000000	0.643416
408.000000	0.644250
409.000000	0.645219
410.000000	0.646141
411.000000	0.646388
412.000000	0.646924
413.000000	0.647847
414.000000	0.649037
415.000000	0.650062
416.000000	0.650774
417.000000	0.651361
418.000000	0.652750
419.000000	0.653620
420.000000	0.654164
421.000000	0.655858
422.000000	0.657136
423.000000	0.658002
424.000000	0.659163
425.000000	0.660761
426.000000	0.662117
427.000000	0.662840
428.000000	0.663853
429.000000	0.665105
430.000000	0.666479
431.000000	0.667705
432.000000	0.669011
433.000000	0.670268
434.000000	0.671500
435.000000	0.672827
436.000000	0.674145
437.000000	0.675320
438.000000	0.676653
439.000000	0.677828
440.000000	0.678968
441.000000	0.680167
442.000000	0.681239
443.000000	0.682185
444.000000	0.683603
445.000000	0.684732
446.000000	0.685896
447.000000	0.687131
448.000000	0.688287
449.000000	0.689472
450.000000	0.690742
451.000000	0.691786
452.000000	0.692890
453.000000	0.693960
454.000000	0.695132
455.000000	0.696058
456.000000	0.696960
457.000000	0.697786
458.000000	0.698733
459.000000	0.699615
460.000000	0.700361
461.000000	0.700815
462.000000	0.701631
463.000000	0.702508
464.000000	0.702868
465.000000	0.703321
466.000000	0.703844
467.000000	0.704424
468.000000	0.705175
469.000000	0.705752
470.000000	0.706256
471.000000	0.706860
472.000000	0.707352
473.000000	0.707731
474.000000	0.708311
475.000000	0.708755
476.000000	0.709345
477.000000	0.710057
478.000000	0.710376
479.000000	0.710972
480.000000	0.711930
481.000000	0.712518
482.000000	0.713269
483.000000	0.714096
484.000000	0.714985
485.000000	0.715545
486.000000	0.716164
487.000000	0.717004
488.000000	0.717713
489.000000	0.718422
490.000000	0.719516
491.000000	0.720449
492.000000	0.721299
493.000000	0.721941
494.000000	0.722747
495.000000	0.723690
496.000000	0.724601
497.000000	0.725575
498.000000	0.726450
499.000000	0.727407
500.000000	0.728514
501.000000	0.729496
502.000000	0.730464
503.000000	0.731446
504.000000	0.732453
505.000000	0.733405
506.000000	0.734279
507.000000	0.735289
508.000000	0.736372
509.000000	0.737366
510.000000	0.738350
511.000000	0.739347
512.000000	0.740376
513.000000	0.741282
514.000000	0.742299
515.000000	0.743341
516.000000	0.744085
517.000000	0.744997
518.000000	0.746050
519.000000	0.746929
520.000000	0.747766
521.000000	0.748587
522.000000	0.749435
523.000000	0.750342
524.000000	0.751275
525.000000	0.752172
526.000000	0.753093
527.000000	0.754002
528.000000	0.754798
529.000000	0.755558
530.000000	0.756357
531.000000	0.757267
532.000000	0.758082
533.000000	0.758920
534.000000	0.759854
535.000000	0.760795
536.000000	0.761581
537.000000	0.762346
538.000000	0.763138
539.000000	0.763937
540.000000	0.764774
541.000000	0.765558
542.000000	0.766334
543.000000	0.767222
544.000000	0.768167
545.000000	0.768968
546.000000	0.769847
547.000000	0.770739
548.000000	0.771665
549.000000	0.772427
550.000000	0.773300
551.000000	0.774271
552.000000	0.775100
553.000000	0.775831
554.000000	0.776591
555.000000	0.777492
556.000000	0.778544
557.000000	0.779383
558.000000	0.780245
559.000000	0.781095
560.000000	0.781804
561.000000	0.782603
562.000000	0.783453
563.000000	0.784083
564.000000	0.784790
565.000000	0.785586
566.000000	0.786383
567.000000	0.787207
568.000000	0.787995
569.000000	0.788681
570.000000	0.789426
571.000000	0.790176
572.000000	0.790746
573.000000	0.791397
574.000000	0.792020
575.000000	0.792575
576.000000	0.793242
577.000000	0.793918
578.000000	0.794647
579.000000	0.795258
580.000000	0.795878
581.000000	0.796537
582.000000	0.797134
583.000000	0.797684
584.000000	0.798224
585.000000	0.798820
586.000000	0.799457
587.000000	0.800068
588.000000	0.800593
589.000000	0.801101
590.000000	0.801599
591.000000	0.802085
592.000000	0.802540
593.000000	0.802944
594.000000	0.803314
595.000000	0.803737
596.000000	0.804077
597.000000	0.804460
598.000000	0.804821
599.000000	0.805070
600.000000	0.805430
601.000000	0.805854
602.000000	0.806259
603.000000	0.806590
604.000000	0.806874
605.000000	0.807188
606.000000	0.807425
607.000000	0.807582
608.000000	0.807708
609.000000	0.807865
610.000000	0.808076
611.000000	0.808344
612.000000	0.808628
613.000000	0.808942
614.000000	0.809392
615.000000	0.809898
616.000000	0.810418
617.000000	0.810891
618.000000	0.811527
619.000000	0.812129
620.000000	0.812608
621.000000	0.813096
622.000000	0.813675
623.000000	0.814233
624.000000	0.814667
625.000000	0.815032
626.000000	0.815372
627.000000	0.815735
628.000000	0.816176
629.000000	0.816685
630.000000	0.816977
631.000000	0.817417
632.000000	0.817844
633.000000	0.818195
634.000000	0.818389
635.000000	0.818407
636.000000	0.818434
637.000000	0.818502
638.000000	0.818488
639.000000	0.818550
640.000000	0.818762
641.000000	0.818666
642.000000	0.818662
643.000000	0.818794
644.000000	0.818993
645.000000	0.819118
646.000000	0.819271
647.000000	0.819445
648.000000	0.819535
649.000000	0.819695
650.000000	0.819919
651.000000	0.820172
652.000000	0.820298
653.000000	0.820467
654.000000	0.820750
655.000000	0.821001
656.000000	0.821302
657.000000	0.821573
658.000000	0.821768
659.000000	0.822020
660.000000	0.822300
661.000000	0.822414
662.000000	0.822518
663.000000	0.822723
664.000000	0.822824
665.000000	0.822977
666.000000	0.823165
667.000000	0.823270
668.000000	0.823454
669.000000	0.823635
670.000000	0.823773
671.000000	0.823889
672.000000	0.824032
673.000000	0.824205
674.000000	0.824434
675.000000	0.824610
676.000000	0.824764
677.000000	0.824996
678.000000	0.825191
679.000000	0.825340
680.000000	0.825476
681.000000	0.825584
682.000000	0.825758
683.000000	0.825845
684.000000	0.826059
685.000000	0.826220
686.000000	0.826398
687.000000	0.826582
688.000000	0.826720
689.000000	0.826845
690.000000	0.827060
691.000000	0.827245
692.000000	0.827353
693.000000	0.827562
694.000000	0.827827
695.000000	0.828128
696.000000	0.828359
697.000000	0.828414
698.000000	0.828548
699.000000	0.828749
700.000000	0.828957
701.000000	0.828972
702.000000	0.829081
703.000000	0.829269
704.000000	0.829252
705.000000	0.829329
706.000000	0.829430
707.000000	0.829591
708.000000	0.829752
709.000000	0.829897
710.000000	0.830060
711.000000	0.830129
712.000000	0.830218
713.000000	0.830390
714.000000	0.830459
715.000000	0.830525
716.000000	0.830645
717.000000	0.830787
718.000000	0.830959
719.000000	0.831053
720.000000	0.831048
721.000000	0.831105
722.000000	0.831078
723.000000	0.831052
724.000000	0.830909
725.000000	0.830634
726.000000	0.830506
727.000000	0.830468
728.000000	0.830568
729.000000	0.830780
730.000000	0.830931
731.000000	0.831157
732.000000	0.831290
733.000000	0.831378
734.000000	0.831420
735.000000	0.831329
736.000000	0.831484
737.000000	0.831701
738.000000	0.831621
739.000000	0.831655
740.000000	0.831691
741.000000	0.831877
742.000000	0.832160
743.000000	0.832386
744.000000	0.832509
745.000000	0.832585
746.000000	0.832749
747.000000	0.832871
748.000000	0.832971
749.000000	0.833071
750.000000	0.833112
751.000000	0.833177
752.000000	0.833316
753.000000	0.833569
754.000000	0.833890
755.000000	0.834163
756.000000	0.834346
757.000000	0.834327
758.000000	0.834377
759.000000	0.834509
760.000000	0.834577
761.000000	0.834940
762.000000	0.835222
763.000000	0.835308
764.000000	0.835454
765.000000	0.835632
766.000000	0.835790
767.000000	0.835863
768.000000	0.835870
769.000000	0.835841
770.000000	0.835842
771.000000	0.835957
772.000000	0.836187
773.000000	0.836320
774.000000	0.836437
775.000000	0.836536
776.000000	0.836601
777.000000	0.836609
778.000000	0.836718
779.000000	0.836936
780.000000	0.837199
781.000000	0.837313
782.000000	0.837425
783.000000	0.837675
784.000000	0.837716
785.000000	0.837834
786.000000	0.837946
787.000000	0.837996
788.000000	0.838077
789.000000	0.838167
790.000000	0.838185
791.000000	0.838155
792.000000	0.838084
793.000000	0.838046
794.000000	0.838107
795.000000	0.838205
796.000000	0.838318
797.000000	0.838383
798.000000	0.838331
799.000000	0.838309
800.000000	0.838334
801.000000	0.838390
802.000000	0.838496
803.000000	0.838581
804.000000	0.838688
805.000000	0.838716
806.000000	0.838726
807.000000	0.838910
808.000000	0.839085
809.000000	0.839205
810.000000	0.839329
811.000000	0.839459
812.000000	0.839528
813.000000	0.839575
814.000000	0.839604
815.000000	0.839649
816.000000	0.839607
817.000000	0.839515
818.000000	0.839248
819.000000	0.839180
820.000000	0.839214
821.000000	0.839169
822.000000	0.839202
823.000000	0.839244
824.000000	0.839197
825.000000	0.839283
826.000000	0.839358
827.000000	0.839321
828.000000	0.839282
829.000000	0.839347
830.000000	0.839277
831.000000	0.839176
832.000000	0.838884
833.000000	0.838747
834.000000	0.838716
835.000000	0.838751
836.000000	0.838663
837.000000	0.838521
838.000000	0.838402
839.000000	0.838272
840.000000	0.838257
841.000000	0.838411
842.000000	0.838585
843.000000	0.838521
844.000000	0.838541
845.000000	0.838692
846.000000	0.838936
847.000000	0.839164
848.000000	0.839316
849.000000	0.839444
850.000000	0.839463
851.000000	0.839374
852.000000	0.839328
853.000000	0.839363
854.000000	0.839242
855.000000	0.839272
856.000000	0.839353
857.000000	0.839339
858.000000	0.839525
859.000000	0.839774
860.000000	0.839890
861.000000	0.840090
862.000000	0.840349
863.000000	0.840359
864.000000	0.840320
865.000000	0.840416
866.000000	0.840688
867.000000	0.840704
868.000000	0.840699
869.000000	0.840536
870.000000	0.840290
871.000000	0.840099
872.000000	0.839900
873.000000	0.839589
874.000000	0.839646
875.000000	0.839536
876.000000	0.839463
877.000000	0.839652
878.000000	0.839498
879.000000	0.839411
880.000000	0.839289
881.000000	0.839244
882.000000	0.839386
883.000000	0.839661
884.000000	0.839741
885.000000	0.839592
886.000000	0.839438
887.000000	0.839432
888.000000	0.839298
889.000000	0.839262
890.000000	0.839091
891.000000	0.839033
892.000000	0.839018
893.000000	0.838968
894.000000	0.839103
895.000000	0.839004
896.000000	0.839112
897.000000	0.839423
898.000000	0.839747
899.000000	0.839840
900.000000	0.839882
901.000000	0.839888
902.000000	0.839987
903.000000	0.840007
904.000000	0.840016
905.000000	0.839879
906.000000	0.839998
907.000000	0.840020
908.000000	0.840037
909.000000	0.840140
910.000000	0.840048
911.000000	0.839905
912.000000	0.839876
913.000000	0.839594
914.000000	0.839327
915.000000	0.839335
916.000000	0.839368
917.000000	0.839220
918.000000	0.839137
919.000000	0.839238
920.000000	0.839365
921.000000	0.839323
922.000000	0.839137
923.000000	0.838893
924.000000	0.838730
925.000000	0.838533
926.000000	0.838306
927.000000	0.837961
928.000000	0.837674
929.000000	0.837417
930.000000	0.837121
931.000000	0.836826
932.000000	0.836555
933.000000	0.836346
934.000000	0.835961
935.000000	0.835431
936.000000	0.834964
937.000000	0.834364
938.000000	0.833351
939.000000	0.832378
940.000000	0.831072
941.000000	0.829027
942.000000	0.826053
943.000000	0.822483
944.000000	0.818337
945.000000	0.814077
946.000000	0.810368
947.000000	0.808172
948.000000	0.807969
949.000000	0.808929
950.000000	0.811028
951.000000	0.813723
952.000000	0.816301
953.000000	0.818186
954.000000	0.819145
955.000000	0.819072
956.000000	0.818600
957.000000	0.818047
958.000000	0.817506
959.000000	0.817269
960.000000	0.817193
961.000000	0.817349
962.000000	0.817694
963.000000	0.818208
964.000000	0.818690
965.000000	0.819127
966.000000	0.819292
967.000000	0.819622
968.000000	0.820035
969.000000	0.820480
970.000000	0.821202
971.000000	0.821630
972.000000	0.822099
973.000000	0.822544
974.000000	0.822873
975.000000	0.823333
976.000000	0.823833
977.000000	0.824254
978.000000	0.824688
979.000000	0.825499
980.000000	0.826024
981.000000	0.826569
982.000000	0.826958
983.000000	0.827234
984.000000	0.827648
985.000000	0.828193
986.000000	0.828804
987.000000	0.829545
988.000000	0.830063
989.000000	0.830206
990.000000	0.830694
991.000000	0.831225
992.000000	0.831477
993.000000	0.832232
994.000000	0.832656
995.000000	0.833006
996.000000	0.833248
997.000000	0.833770
998.000000	0.834373
999.000000	0.835064
1000.000000	0.835541
1001.000000	0.834822
1002.000000	0.835111
1003.000000	0.835046
1004.000000	0.835183
1005.000000	0.835037
1006.000000	0.834899
1007.000000	0.834676
1008.000000	0.835641
1009.000000	0.836274
1010.000000	0.836064
1011.000000	0.836691
1012.000000	0.836981
1013.000000	0.836696
1014.000000	0.837033
1015.000000	0.837295
1016.000000	0.837816
1017.000000	0.838128
1018.000000	0.838721
1019.000000	0.839318
1020.000000	0.840451
1021.000000	0.840201
1022.000000	0.839954
1023.000000	0.840319
1024.000000	0.839856
1025.000000	0.840217
1026.000000	0.841127
1027.000000	0.840881
1028.000000	0.840532
1029.000000	0.840907
1030.000000	0.841076
1031.000000	0.841473
1032.000000	0.842002
1033.000000	0.841948
1034.000000	0.842225
1035.000000	0.842579
1036.000000	0.842864
1037.000000	0.843422
1038.000000	0.843439
1039.000000	0.843317
1040.000000	0.843310
1041.000000	0.843344
1042.000000	0.843492
1043.000000	0.844115
1044.000000	0.844604
1045.000000	0.844619
1046.000000	0.844808
1047.000000	0.845107
1048.000000	0.845241
1049.000000	0.845160
1050.000000	0.845155
1051.000000	0.845086
1052.000000	0.844317
1053.000000	0.844245
1054.000000	0.845361
1055.000000	0.845935
1056.000000	0.846733
1057.000000	0.847279
1058.000000	0.847135
1059.000000	0.846498
1060.000000	0.846282
1061.000000	0.846296
1062.000000	0.846222
1063.000000	0.846662
1064.000000	0.847011
1065.000000	0.847229
1066.000000	0.847501
1067.000000	0.847982
1068.000000	0.848032
1069.000000	0.847649
1070.000000	0.847507
1071.000000	0.847350
1072.000000	0.847295
1073.000000	0.847507
1074.000000	0.847896
1075.000000	0.847752
1076.000000	0.847666
1077.000000	0.847558
1078.000000	0.847034
1079.000000	0.846783
1080.000000	0.846755
1081.000000	0.846704
1082.000000	0.846989
1083.000000	0.846952
1084.000000	0.846842
1085.000000	0.846907
1086.000000	0.846822
1087.000000	0.846830
1088.000000	0.846871
1089.000000	0.846825
1090.000000	0.846618
1091.000000	0.846204
1092.000000	0.846278
1093.000000	0.846729
1094.000000	0.846498
1095.000000	0.845790
1096.000000	0.845740
1097.000000	0.845554
1098.000000	0.845541
1099.000000	0.846006
1100.000000	0.846260
1101.000000	0.846288
1102.000000	0.846099
1103.000000	0.845608
1104.000000	0.845560
1105.000000	0.845425
1106.000000	0.845351
1107.000000	0.845787
1108.000000	0.845754
1109.000000	0.845623
1110.000000	0.845149
1111.000000	0.844823
1112.000000	0.844370
1113.000000	0.844118
1114.000000	0.843986
1115.000000	0.843758
1116.000000	0.843657
1117.000000	0.843347
1118.000000	0.842846
1119.000000	0.842294
1120.000000	0.841565
1121.000000	0.841025
1122.000000	0.840799
1123.000000	0.840896
1124.000000	0.840849
1125.000000	0.840538
1126.000000	0.839904
1127.000000	0.839144
1128.000000	0.838214
1129.000000	0.837149
1130.000000	0.836041
1131.000000	0.834967
1132.000000	0.833551
1133.000000	0.832039
1134.000000	0.830534
1135.000000	0.828767
1136.000000	0.826972
1137.000000	0.825264
1138.000000	0.823172
1139.000000	0.820980
1140.000000	0.819019
1141.000000	0.816822
1142.000000	0.814707
1143.000000	0.812505
1144.000000	0.810641
1145.000000	0.808454
1146.000000	0.806104
1147.000000	0.804153
1148.000000	0.802006
1149.000000	0.800495
1150.000000	0.799398
1151.000000	0.798380
1152.000000	0.797390
1153.000000	0.796878
1154.000000	0.796495
1155.000000	0.796296
1156.000000	0.796569
1157.000000	0.796803
1158.000000	0.796859
1159.000000	0.797219
1160.000000	0.797788
1161.000000	0.798404
1162.000000	0.799299
1163.000000	0.800609
1164.000000	0.801459
1165.000000	0.802131
1166.000000	0.802960
1167.000000	0.803568
1168.000000	0.804165
1169.000000	0.804973
1170.000000	0.805648
1171.000000	0.806253
1172.000000	0.806935
1173.000000	0.807609
1174.000000	0.808155
1175.000000	0.808567
1176.000000	0.808876
1177.000000	0.809348
1178.000000	0.809638
1179.000000	0.809771
1180.000000	0.809754
1181.000000	0.809721
1182.000000	0.809690
1183.000000	0.809961
1184.000000	0.810215
1185.000000	0.810392
1186.000000	0.810675
1187.000000	0.810793
1188.000000	0.810786
1189.000000	0.810693
1190.000000	0.810636
1191.000000	0.810586
1192.000000	0.810603
1193.000000	0.810931
1194.000000	0.811175
1195.000000	0.811403
1196.000000	0.811558
1197.000000	0.811754
1198.000000	0.812048
1199.000000	0.812266
1200.000000	0.812422
1201.000000	0.812616
1202.000000	0.812808
1203.000000	0.813004
1204.000000	0.813200
1205.000000	0.813481
1206.000000	0.813599
1207.000000	0.813851
1208.000000	0.813926
1209.000000	0.814039
1210.000000	0.814196
1211.000000	0.814322
1212.000000	0.814432
1213.000000	0.814644
1214.000000	0.814904
1215.000000	0.815192
1216.000000	0.815334
1217.000000	0.815401
1218.000000	0.815438
1219.000000	0.815390
1220.000000	0.815374
1221.000000	0.815580
1222.000000	0.815720
1223.000000	0.815897
1224.000000	0.816060
1225.000000	0.816015
1226.000000	0.816088
1227.000000	0.816026
1228.000000	0.816102
1229.000000	0.816065
1230.000000	0.815906
1231.000000	0.815803
1232.000000	0.816022
1233.000000	0.816299
1234.000000	0.816673
1235.000000	0.816825
1236.000000	0.816612
1237.000000	0.816701
1238.000000	0.816723
1239.000000	0.816718
1240.000000	0.816842
1241.000000	0.816875
1242.000000	0.816739
1243.000000	0.816610
1244.000000	0.816641
1245.000000	0.816836
1246.000000	0.816831
1247.000000	0.816997
1248.000000	0.817243
1249.000000	0.817283
1250.000000	0.817323
1251.000000	0.817407
1252.000000	0.817384
1253.000000	0.817277
1254.000000	0.817204
1255.000000	0.817142
1256.000000	0.817039
1257.000000	0.816969
1258.000000	0.816930
1259.000000	0.816733
1260.000000	0.816625
1261.000000	0.816419
1262.000000	0.816116
1263.000000	0.815823
1264.000000	0.815474
1265.000000	0.815073
1266.000000	0.814584
1267.000000	0.813960
1268.000000	0.813222
1269.000000	0.812319
1270.000000	0.811562
1271.000000	0.810798
1272.000000	0.810203
1273.000000	0.809770
1274.000000	0.809221
1275.000000	0.808828
1276.000000	0.808660
1277.000000	0.808603
1278.000000	0.808386
1279.000000	0.808311
1280.000000	0.808216
1281.000000	0.808088
1282.000000	0.808216
1283.000000	0.808378
1284.000000	0.808447
1285.000000	0.808402
1286.000000	0.808234
1287.000000	0.808026
1288.000000	0.807901
1289.000000	0.807498
1290.000000	0.806867
1291.000000	0.806200
1292.000000	0.805418
1293.000000	0.804617
1294.000000	0.803882
1295.000000	0.803374
1296.000000	0.802878
1297.000000	0.802310
1298.000000	0.801953
1299.000000	0.801568
1300.000000	0.801156
1301.000000	0.800691
1302.000000	0.800106
1303.000000	0.799755
1304.000000	0.799157
1305.000000	0.798695
1306.000000	0.798068
1307.000000	0.797399
1308.000000	0.796749
1309.000000	0.796084
1310.000000	0.795268
1311.000000	0.794469
1312.000000	0.793407
1313.000000	0.792336
1314.000000	0.791179
1315.000000	0.789914
1316.000000	0.788934
1317.000000	0.787818
1318.000000	0.786502
1319.000000	0.785114
1320.000000	0.783619
1321.000000	0.782066
1322.000000	0.780489
1323.000000	0.778952
1324.000000	0.777502
1325.000000	0.775868
1326.000000	0.774127
1327.000000	0.772437
1328.000000	0.770838
1329.000000	0.769052
1330.000000	0.767277
1331.000000	0.765515
1332.000000	0.763755
1333.000000	0.761963
1334.000000	0.760335
1335.000000	0.758741
1336.000000	0.757102
1337.000000	0.755498
1338.000000	0.753864
1339.000000	0.752126
1340.000000	0.750453
1341.000000	0.748850
1342.000000	0.747267
1343.000000	0.745812
1344.000000	0.744373
1345.000000	0.742862
1346.000000	0.741605
1347.000000	0.740022
1348.000000	0.738489
1349.000000	0.737030
1350.000000	0.735572
1351.000000	0.734255
1352.000000	0.732869
1353.000000	0.731385
1354.000000	0.730005
1355.000000	0.728388
1356.000000	0.726821
1357.000000	0.725237
1358.000000	0.723506
1359.000000	0.721752
1360.000000	0.719887
1361.000000	0.718060
1362.000000	0.715997
1363.000000	0.713833
1364.000000	0.711455
1365.000000	0.708948
1366.000000	0.706078
1367.000000	0.702958
1368.000000	0.699413
1369.000000	0.695736
1370.000000	0.691429
1371.000000	0.686648
1372.000000	0.681380
1373.000000	0.675343
1374.000000	0.668652
1375.000000	0.660982
1376.000000	0.652132
1377.000000	0.641927
1378.000000	0.629825
1379.000000	0.616214
1380.000000	0.601081
1381.000000	0.583994
1382.000000	0.566264
1383.000000	0.547827
1384.000000	0.528731
1385.000000	0.510618
1386.000000	0.493787
1387.000000	0.478990
1388.000000	0.466777
1389.000000	0.457302
1390.000000	0.450833
1391.000000	0.446855
1392.000000	0.445220
1393.000000	0.444947
1394.000000	0.447549
1395.000000	0.449528
1396.000000	0.453083
1397.000000	0.455184
1398.000000	0.457353
1399.000000	0.458236
1400.000000	0.458323
1401.000000	0.457568
1402.000000	0.456021
1403.000000	0.453710
1404.000000	0.451069
1405.000000	0.448072
1406.000000	0.445045
1407.000000	0.442333
1408.000000	0.439794
1409.000000	0.437659
1410.000000	0.436085
1411.000000	0.434793
1412.000000	0.433774
1413.000000	0.433231
1414.000000	0.433042
1415.000000	0.433248
1416.000000	0.433859
1417.000000	0.434761
1418.000000	0.435826
1419.000000	0.437201
1420.000000	0.438684
1421.000000	0.440425
1422.000000	0.442315
1423.000000	0.444262
1424.000000	0.446241
1425.000000	0.448369
1426.000000	0.450484
1427.000000	0.452725
1428.000000	0.455011
1429.000000	0.457134
1430.000000	0.459298
1431.000000	0.461437
1432.000000	0.463484
1433.000000	0.465548
1434.000000	0.467578
1435.000000	0.469710
1436.000000	0.471649
1437.000000	0.473529
1438.000000	0.475209
1439.000000	0.476747
1440.000000	0.478264
1441.000000	0.479721
1442.000000	0.481146
1443.000000	0.482454
1444.000000	0.483669
1445.000000	0.484765
1446.000000	0.485758
1447.000000	0.486565
1448.000000	0.487226
1449.000000	0.487805
1450.000000	0.488241
1451.000000	0.488560
1452.000000	0.488769
1453.000000	0.488887
1454.000000	0.488905
1455.000000	0.488995
1456.000000	0.489197
1457.000000	0.489395
1458.000000	0.489655
1459.000000	0.489978
1460.000000	0.490394
1461.000000	0.490855
1462.000000	0.491467
1463.000000	0.492199
1464.000000	0.493054
1465.000000	0.494257
1466.000000	0.495615
1467.000000	0.497139
1468.000000	0.498880
1469.000000	0.500693
1470.000000	0.502524
1471.000000	0.504614
1472.000000	0.506705
1473.000000	0.508962
1474.000000	0.511259
1475.000000	0.513434
1476.000000	0.515719
1477.000000	0.517973
1478.000000	0.520139
1479.000000	0.522339
1480.000000	0.524405
1481.000000	0.526484
1482.000000	0.528642
1483.000000	0.530825
1484.000000	0.533055
1485.000000	0.535177
1486.000000	0.537207
1487.000000	0.539245
1488.000000	0.541256
1489.000000	0.543281
1490.000000	0.545157
1491.000000	0.547090
1492.000000	0.548907
1493.000000	0.550773
1494.000000	0.552580
1495.000000	0.554381
1496.000000	0.556165
1497.000000	0.557988
1498.000000	0.559893
1499.000000	0.561697
1500.000000	0.563475
1501.000000	0.565236
1502.000000	0.566853
1503.000000	0.568482
1504.000000	0.570113
1505.000000	0.571713
1506.000000	0.573384
1507.000000	0.575035
1508.000000	0.576746
1509.000000	0.578428
1510.000000	0.579883
1511.000000	0.581378
1512.000000	0.582899
1513.000000	0.584336
1514.000000	0.585923
1515.000000	0.587464
1516.000000	0.589008
1517.000000	0.590496
1518.000000	0.591854
1519.000000	0.593156
1520.000000	0.594466
1521.000000	0.595625
1522.000000	0.596951
1523.000000	0.598405
1524.000000	0.599698
1525.000000	0.601080
1526.000000	0.602375
1527.000000	0.603633
1528.000000	0.605000
1529.000000	0.606281
1530.000000	0.607457
1531.000000	0.608804
1532.000000	0.610137
1533.000000	0.611348
1534.000000	0.612599
1535.000000	0.613806
1536.000000	0.614919
1537.000000	0.616234
1538.000000	0.617549
1539.000000	0.618734
1540.000000	0.619923
1541.000000	0.621112
1542.000000	0.622287
1543.000000	0.623466
1544.000000	0.624661
1545.000000	0.625881
1546.000000	0.627033
1547.000000	0.628181
1548.000000	0.629360
1549.000000	0.630405
1550.000000	0.631373
1551.000000	0.632447
1552.000000	0.633542
1553.000000	0.634539
1554.000000	0.635530
1555.000000	0.636483
1556.000000	0.637355
1557.000000	0.638209
1558.000000	0.639095
1559.000000	0.639931
1560.000000	0.640693
1561.000000	0.641465
1562.000000	0.642172
1563.000000	0.642885
1564.000000	0.643623
1565.000000	0.644348
1566.000000	0.644963
1567.000000	0.645741
1568.000000	0.646456
1569.000000	0.647259
1570.000000	0.647979
1571.000000	0.648639
1572.000000	0.649269
1573.000000	0.649849
1574.000000	0.650464
1575.000000	0.651113
1576.000000	0.651799
1577.000000	0.652497
1578.000000	0.653080
1579.000000	0.653785
1580.000000	0.654362
1581.000000	0.654934
1582.000000	0.655501
1583.000000	0.655990
1584.000000	0.656474
1585.000000	0.657147
1586.000000	0.657760
1587.000000	0.658362
1588.000000	0.658870
1589.000000	0.659302
1590.000000	0.659808
1591.000000	0.660337
1592.000000	0.660918
1593.000000	0.661639
1594.000000	0.662241
1595.000000	0.662928
1596.000000	0.663527
1597.000000	0.664153
1598.000000	0.664695
1599.000000	0.665204
1600.000000	0.665615
1601.000000	0.666089
1602.000000	0.666523
1603.000000	0.666984
1604.000000	0.667378
1605.000000	0.667812
1606.000000	0.668122
1607.000000	0.668423
1608.000000	0.668715
1609.000000	0.669071
1610.000000	0.669326
1611.000000	0.669549
1612.000000	0.669794
1613.000000	0.670198
1614.000000	0.670511
1615.000000	0.670975
1616.000000	0.671406
1617.000000	0.671677
1618.000000	0.671965
1619.000000	0.672212
1620.000000	0.672465
1621.000000	0.672750
1622.000000	0.673167
1623.000000	0.673571
1624.000000	0.673961
1625.000000	0.674143
1626.000000	0.674267
1627.000000	0.674321
1628.000000	0.674625
1629.000000	0.675020
1630.000000	0.675365
1631.000000	0.675690
1632.000000	0.675929
1633.000000	0.676053
1634.000000	0.676306
1635.000000	0.676737
1636.000000	0.677032
1637.000000	0.677355
1638.000000	0.677559
1639.000000	0.677830
1640.000000	0.677960
1641.000000	0.678083
1642.000000	0.678235
1643.000000	0.678377
1644.000000	0.678516
1645.000000	0.678691
1646.000000	0.678754
1647.000000	0.678851
1648.000000	0.678865
1649.000000	0.679013
1650.000000	0.679110
1651.000000	0.679165
1652.000000	0.679364
1653.000000	0.679543
1654.000000	0.679739
1655.000000	0.679896
1656.000000	0.679845
1657.000000	0.679790
1658.000000	0.679825
1659.000000	0.680084
1660.000000	0.680326
1661.000000	0.680448
1662.000000	0.680610
1663.000000	0.680666
1664.000000	0.680823
1665.000000	0.681090
1666.000000	0.681384
1667.000000	0.681552
1668.000000	0.681663
1669.000000	0.681679
1670.000000	0.681643
1671.000000	0.681776
1672.000000	0.681912
1673.000000	0.681950
1674.000000	0.682110
1675.000000	0.682283
1676.000000	0.682289
1677.000000	0.682253
1678.000000	0.682145
1679.000000	0.681995
1680.000000	0.681868
1681.000000	0.681896
1682.000000	0.681878
1683.000000	0.681855
1684.000000	0.681843
1685.000000	0.681795
1686.000000	0.681613
1687.000000	0.681446
1688.000000	0.681281
1689.000000	0.681117
1690.000000	0.680886
1691.000000	0.680761
1692.000000	0.680447
1693.000000	0.680134
1694.000000	0.679947
1695.000000	0.679825
1696.000000	0.679646
1697.000000	0.679333
1698.000000	0.679012
1699.000000	0.678753
1700.000000	0.678431
1701.000000	0.678358
1702.000000	0.678075
1703.000000	0.677720
1704.000000	0.677652
1705.000000	0.677438
1706.000000	0.677093
1707.000000	0.676904
1708.000000	0.676725
1709.000000	0.676407
1710.000000	0.676373
1711.000000	0.676215
1712.000000	0.675931
1713.000000	0.675681
1714.000000	0.675568
1715.000000	0.675321
1716.000000	0.675020
1717.000000	0.674713
1718.000000	0.674230
1719.000000	0.673815
1720.000000	0.673624
1721.000000	0.673232
1722.000000	0.672736
1723.000000	0.672295
1724.000000	0.671824
1725.000000	0.671411
1726.000000	0.670902
1727.000000	0.670390
1728.000000	0.669710
1729.000000	0.669018
1730.000000	0.668614
1731.000000	0.668081
1732.000000	0.667532
1733.000000	0.667088
1734.000000	0.666340
1735.000000	0.665776
1736.000000	0.665273
1737.000000	0.664669
1738.000000	0.664074
1739.000000	0.663544
1740.000000	0.662998
1741.000000	0.662309
1742.000000	0.661643
1743.000000	0.661076
1744.000000	0.660370
1745.000000	0.659676
1746.000000	0.659106
1747.000000	0.658254
1748.000000	0.657390
1749.000000	0.656659
1750.000000	0.655746
1751.000000	0.654938
1752.000000	0.654320
1753.000000	0.653383
1754.000000	0.652550
1755.000000	0.651799
1756.000000	0.650947
1757.000000	0.650078
1758.000000	0.649189
1759.000000	0.648157
1760.000000	0.647225
1761.000000	0.646188
1762.000000	0.645265
1763.000000	0.644526
1764.000000	0.643732
1765.000000	0.642903
1766.000000	0.642114
1767.000000	0.641099
1768.000000	0.640239
1769.000000	0.639689
1770.000000	0.639114
1771.000000	0.638577
1772.000000	0.637927
1773.000000	0.637053
1774.000000	0.636385
1775.000000	0.635845
1776.000000	0.635363
1777.000000	0.634946
1778.000000	0.634499
1779.000000	0.634085
1780.000000	0.633601
1781.000000	0.632991
1782.000000	0.632534
1783.000000	0.632173
1784.000000	0.631934
1785.000000	0.631573
1786.000000	0.631239
1787.000000	0.630958
1788.000000	0.630678
1789.000000	0.630372
1790.000000	0.630080
1791.000000	0.629656
1792.000000	0.629283
1793.000000	0.628979
1794.000000	0.628699
1795.000000	0.628498
1796.000000	0.628451
1797.000000	0.628233
1798.000000	0.627844
1799.000000	0.627589
1800.000000	0.627447
1801.000000	0.628161
1802.000000	0.627793
1803.000000	0.626926
1804.000000	0.626720
1805.000000	0.626723
1806.000000	0.626763
1807.000000	0.627455
1808.000000	0.627485
1809.000000	0.627358
1810.000000	0.626572
1811.000000	0.626338
1812.000000	0.626103
1813.000000	0.625896
1814.000000	0.626098
1815.000000	0.625925
1816.000000	0.625337
1817.000000	0.624729
1818.000000	0.623946
1819.000000	0.623940
1820.000000	0.623436
1821.000000	0.622893
1822.000000	0.622745
1823.000000	0.622823
1824.000000	0.622338
1825.000000	0.621787
1826.000000	0.621439
1827.000000	0.620599
1828.000000	0.619699
1829.000000	0.619626
1830.000000	0.619205
1831.000000	0.618430
1832.000000	0.617214
1833.000000	0.616294
1834.000000	0.615298
1835.000000	0.614255
1836.000000	0.613339
1837.000000	0.612171
1838.000000	0.610653
1839.000000	0.608607
1840.000000	0.606700
1841.000000	0.605452
1842.000000	0.604303
1843.000000	0.603524
1844.000000	0.602635
1845.000000	0.601906
1846.000000	0.600882
1847.000000	0.599782
1848.000000	0.597905
1849.000000	0.595805
1850.000000	0.593753
1851.000000	0.591637
1852.000000	0.589268
1853.000000	0.586845
1854.000000	0.584147
1855.000000	0.581058
1856.000000	0.577239
1857.000000	0.573994
1858.000000	0.570124
1859.000000	0.566275
1860.000000	0.563158
1861.000000	0.558624
1862.000000	0.553889
1863.000000	0.549400
1864.000000	0.544078
1865.000000	0.537649
1866.000000	0.531516
1867.000000	0.525339
1868.000000	0.518290
1869.000000	0.511108
1870.000000	0.503980
1871.000000	0.496034
1872.000000	0.488184
1873.000000	0.479583
1874.000000	0.470274
1875.000000	0.460741
1876.000000	0.450774
1877.000000	0.439451
1878.000000	0.428287
1879.000000	0.417178
1880.000000	0.405201
1881.000000	0.393291
1882.000000	0.381455
1883.000000	0.369364
1884.000000	0.357028
1885.000000	0.343999
1886.000000	0.331419
1887.000000	0.318647
1888.000000	0.305745
1889.000000	0.293115
1890.000000	0.281608
1891.000000	0.270109
1892.000000	0.258407
1893.000000	0.247462
1894.000000	0.237155
1895.000000	0.227722
1896.000000	0.219099
1897.000000	0.211304
1898.000000	0.204249
1899.000000	0.198158
1900.000000	0.192525
1901.000000	0.187764
1902.000000	0.183882
1903.000000	0.180807
1904.000000	0.178692
1905.000000	0.177235
1906.000000	0.176316
1907.000000	0.176252
1908.000000	0.176622
1909.000000	0.177285
1910.000000	0.178312
1911.000000	0.179904
1912.000000	0.181930
1913.000000	0.184041
1914.000000	0.186549
1915.000000	0.188814
1916.000000	0.190943
1917.000000	0.193214
1918.000000	0.195599
1919.000000	0.197987
1920.000000	0.200634
1921.000000	0.203418
1922.000000	0.206062
1923.000000	0.208628
1924.000000	0.211216
1925.000000	0.213791
1926.000000	0.216228
1927.000000	0.218637
1928.000000	0.220919
1929.000000	0.223164
1930.000000	0.225051
1931.000000	0.226910
1932.000000	0.228867
1933.000000	0.230454
1934.000000	0.231766
1935.000000	0.232870
1936.000000	0.234070
1937.000000	0.235459
1938.000000	0.236855
1939.000000	0.238249
1940.000000	0.239915
1941.000000	0.241204
1942.000000	0.242358
1943.000000	0.243485
1944.000000	0.244380
1945.000000	0.245460
1946.000000	0.246750
1947.000000	0.247989
1948.000000	0.249196
1949.000000	0.250806
1950.000000	0.251915
1951.000000	0.252770
1952.000000	0.253394
1953.000000	0.254230
1954.000000	0.254892
1955.000000	0.255965
1956.000000	0.256911
1957.000000	0.258224
1958.000000	0.259676
1959.000000	0.260826
1960.000000	0.262617
1961.000000	0.264048
1962.000000	0.265275
1963.000000	0.266252
1964.000000	0.267516
1965.000000	0.268294
1966.000000	0.269287
1967.000000	0.270755
1968.000000	0.271998
1969.000000	0.273497
1970.000000	0.275240
1971.000000	0.276583
1972.000000	0.277880
1973.000000	0.279277
1974.000000	0.280813
1975.000000	0.282373
1976.000000	0.284086
1977.000000	0.285860
1978.000000	0.287428
1979.000000	0.289013
1980.000000	0.290605
1981.000000	0.292412
1982.000000	0.294226
1983.000000	0.295700
1984.000000	0.297373
1985.000000	0.299136
1986.000000	0.300872
1987.000000	0.302585
1988.000000	0.304811
1989.000000	0.306945
1990.000000	0.308771
1991.000000	0.310565
1992.000000	0.312121
1993.000000	0.313749
1994.000000	0.315556
1995.000000	0.317175
1996.000000	0.319048
1997.000000	0.321108
1998.000000	0.323470
1999.000000	0.325636
2000.000000	0.328082
2001.000000	0.330135
2002.000000	0.331939
2003.000000	0.333796
2004.000000	0.335764
2005.000000	0.337938
2006.000000	0.340260
2007.000000	0.342525
2008.000000	0.344815
2009.000000	0.347211
2010.000000	0.349455
2011.000000	0.351544
2012.000000	0.353387
2013.000000	0.354918
2014.000000	0.356340
2015.000000	0.357684
2016.000000	0.359543
2017.000000	0.361765
2018.000000	0.363684
2019.000000	0.365784
2020.000000	0.367607
2021.000000	0.369424
2022.000000	0.370992
2023.000000	0.372830
2024.000000	0.374896
2025.000000	0.376769
2026.000000	0.378516
2027.000000	0.379951
2028.000000	0.381586
2029.000000	0.383314
2030.000000	0.384925
2031.000000	0.386857
2032.000000	0.388674
2033.000000	0.390517
2034.000000	0.392196
2035.000000	0.393961
2036.000000	0.395590
2037.000000	0.397337
2038.000000	0.398891
2039.000000	0.400518
2040.000000	0.402089
2041.000000	0.403440
2042.000000	0.404763
2043.000000	0.406088
2044.000000	0.407270
2045.000000	0.408372
2046.000000	0.409406
2047.000000	0.410679
2048.000000	0.412081
2049.000000	0.413720
2050.000000	0.415200
2051.000000	0.416372
2052.000000	0.417374
2053.000000	0.418234
2054.000000	0.418996
2055.000000	0.420169
2056.000000	0.421347
2057.000000	0.422471
2058.000000	0.423515
2059.000000	0.424423
2060.000000	0.425433
2061.000000	0.426451
2062.000000	0.427386
2063.000000	0.428605
2064.000000	0.429301
2065.000000	0.429999
2066.000000	0.430548
2067.000000	0.431232
2068.000000	0.431743
2069.000000	0.432517
2070.000000	0.433545
2071.000000	0.434256
2072.000000	0.435200
2073.000000	0.435784
2074.000000	0.436044
2075.000000	0.436732
2076.000000	0.437404
2077.000000	0.438227
2078.000000	0.439716
2079.000000	0.440464
2080.000000	0.440964
2081.000000	0.441574
2082.000000	0.442016
2083.000000	0.442123
2084.000000	0.442632
2085.000000	0.443134
2086.000000	0.443622
2087.000000	0.444496
2088.000000	0.445420
2089.000000	0.446207
2090.000000	0.446874
2091.000000	0.447389
2092.000000	0.448096
2093.000000	0.448709
2094.000000	0.449656
2095.000000	0.451209
2096.000000	0.452237
2097.000000	0.453314
2098.000000	0.453654
2099.000000	0.453842
2100.000000	0.454255
2101.000000	0.454678
2102.000000	0.455622
2103.000000	0.456306
2104.000000	0.456987
2105.000000	0.457784
2106.000000	0.458473
2107.000000	0.459397
2108.000000	0.460585
2109.000000	0.461678
2110.000000	0.462693
2111.000000	0.463516
2112.000000	0.464181
2113.000000	0.464493
2114.000000	0.464501
2115.000000	0.464683
2116.000000	0.464989
2117.000000	0.465188
2118.000000	0.465780
2119.000000	0.466337
2120.000000	0.467178
2121.000000	0.468343
2122.000000	0.469270
2123.000000	0.470337
2124.000000	0.471246
2125.000000	0.471779
2126.000000	0.472583
2127.000000	0.473755
2128.000000	0.474870
2129.000000	0.475816
2130.000000	0.477147
2131.000000	0.477651
2132.000000	0.477558
2133.000000	0.478255
2134.000000	0.478791
2135.000000	0.479568
2136.000000	0.480197
2137.000000	0.480720
2138.000000	0.480851
2139.000000	0.481250
2140.000000	0.481569
2141.000000	0.482391
2142.000000	0.483593
2143.000000	0.484192
2144.000000	0.485408
2145.000000	0.486333
2146.000000	0.486954
2147.000000	0.487750
2148.000000	0.488731
2149.000000	0.489313
2150.000000	0.489523
2151.000000	0.489624
2152.000000	0.488971
2153.000000	0.488071
2154.000000	0.487829
2155.000000	0.487720
2156.000000	0.487790
2157.000000	0.488609
2158.000000	0.489027
2159.000000	0.489443
2160.000000	0.489820
2161.000000	0.490077
2162.000000	0.490529
2163.000000	0.491086
2164.000000	0.491061
2165.000000	0.490913
2166.000000	0.490490
2167.000000	0.489533
2168.000000	0.488582
2169.000000	0.488313
2170.000000	0.488415
2171.000000	0.488599
2172.000000	0.489693
2173.000000	0.489728
2174.000000	0.489155
2175.000000	0.488996
2176.000000	0.488470
2177.000000	0.488099
2178.000000	0.488197
2179.000000	0.488400
2180.000000	0.488606
2181.000000	0.488951
2182.000000	0.489048
2183.000000	0.488261
2184.000000	0.487098
2185.000000	0.486020
2186.000000	0.484832
2187.000000	0.484543
2188.000000	0.484980
2189.000000	0.484261
2190.000000	0.483713
2191.000000	0.484232
2192.000000	0.483567
2193.000000	0.482121
2194.000000	0.481046
2195.000000	0.478947
2196.000000	0.478369
2197.000000	0.478884
2198.000000	0.479097
2199.000000	0.481291
2200.000000	0.481694
2201.000000	0.480523
2202.000000	0.479744
2203.000000	0.478221
2204.000000	0.475817
2205.000000	0.474094
2206.000000	0.473541
2207.000000	0.471647
2208.000000	0.470817
2209.000000	0.469382
2210.000000	0.467492
2211.000000	0.467141
2212.000000	0.467210
2213.000000	0.466802
2214.000000	0.467176
2215.000000	0.466332
2216.000000	0.464658
2217.000000	0.462808
2218.000000	0.460146
2219.000000	0.457990
2220.000000	0.455431
2221.000000	0.453752
2222.000000	0.452451
2223.000000	0.451960
2224.000000	0.452255
2225.000000	0.452843
2226.000000	0.453003
2227.000000	0.451406
2228.000000	0.449259
2229.000000	0.445784
2230.000000	0.443849
2231.000000	0.442023
2232.000000	0.439913
2233.000000	0.439712
2234.000000	0.438439
2235.000000	0.437788
2236.000000	0.437432
2237.000000	0.437511
2238.000000	0.437570
2239.000000	0.437933
2240.000000	0.438034
2241.000000	0.438133
2242.000000	0.438548
2243.000000	0.438859
2244.000000	0.439524
2245.000000	0.441259
2246.000000	0.441611
2247.000000	0.441226
2248.000000	0.441163
2249.000000	0.441373
2250.000000	0.439601
2251.000000	0.438374
2252.000000	0.436642
2253.000000	0.433803
2254.000000	0.431895
2255.000000	0.432025
2256.000000	0.431604
2257.000000	0.431376
2258.000000	0.431926
2259.000000	0.429864
2260.000000	0.427997
2261.000000	0.425931
2262.000000	0.422652
2263.000000	0.420647
2264.000000	0.419123
2265.000000	0.417978
2266.000000	0.418544
2267.000000	0.417132
2268.000000	0.415363
2269.000000	0.412845
2270.000000	0.408909
2271.000000	0.404822
2272.000000	0.399561
2273.000000	0.395712
2274.000000	0.392194
2275.000000	0.388467
2276.000000	0.385755
2277.000000	0.382612
2278.000000	0.377820
2279.000000	0.372036
2280.000000	0.365663
2281.000000	0.358845
2282.000000	0.351545
2283.000000	0.344652
2284.000000	0.338280
2285.000000	0.333308
2286.000000	0.329363
2287.000000	0.325019
2288.000000	0.321695
2289.000000	0.317922
2290.000000	0.313218
2291.000000	0.309448
2292.000000	0.306304
2293.000000	0.303363
2294.000000	0.300982
2295.000000	0.299837
2296.000000	0.298629
2297.000000	0.297996
2298.000000	0.296083
2299.000000	0.294038
2300.000000	0.291752
2301.000000	0.288504
2302.000000	0.284999
2303.000000	0.282609
2304.000000	0.277856
2305.000000	0.270415
2306.000000	0.264600
2307.000000	0.258781
2308.000000	0.251665
2309.000000	0.245909
2310.000000	0.241702
2311.000000	0.236785
2312.000000	0.233883
2313.000000	0.233265
2314.000000	0.232943
2315.000000	0.234411
2316.000000	0.237532
2317.000000	0.241677
2318.000000	0.246601
2319.000000	0.251318
2320.000000	0.255050
2321.000000	0.259087
2322.000000	0.263496
2323.000000	0.268230
2324.000000	0.274142
2325.000000	0.279977
2326.000000	0.286000
2327.000000	0.291737
2328.000000	0.297189
2329.000000	0.302386
2330.000000	0.306315
2331.000000	0.310754
2332.000000	0.315083
2333.000000	0.319306
2334.000000	0.322900
2335.000000	0.325507
2336.000000	0.326965
2337.000000	0.327727
2338.000000	0.326175
2339.000000	0.325919
2340.000000	0.325601
2341.000000	0.324698
2342.000000	0.323886
2343.000000	0.323778
2344.000000	0.323782
2345.000000	0.323232
2346.000000	0.323213
2347.000000	0.322489
2348.000000	0.321028
2349.000000	0.318741
2350.000000	0.317163
2351.000000	0.317837
2352.000000	0.318421
2353.000000	0.318755
2354.000000	0.318494
2355.000000	0.317679
2356.000000	0.315607
2357.000000	0.314505
2358.000000	0.315323
2359.000000	0.313689
2360.000000	0.311852
2361.000000	0.310334
2362.000000	0.307189
2363.000000	0.305409
2364.000000	0.304019
2365.000000	0.302494
2366.000000	0.301204
2367.000000	0.299960
2368.000000	0.298092
2369.000000	0.294817
2370.000000	0.291319
2371.000000	0.288886
2372.000000	0.287378
2373.000000	0.287092
2374.000000	0.283670
2375.000000	0.279220
2376.000000	0.276604
2377.000000	0.271312
2378.000000	0.270056
2379.000000	0.269292
2380.000000	0.265269
2381.000000	0.264624
2382.000000	0.259867
2383.000000	0.254807
2384.000000	0.254367
2385.000000	0.251615
2386.000000	0.252524
2387.000000	0.253502
2388.000000	0.251858
2389.000000	0.251656
2390.000000	0.250771
2391.000000	0.251626
2392.000000	0.248952
2393.000000	0.244503
2394.000000	0.245095
2395.000000	0.248087
2396.000000	0.252788
2397.000000	0.259124
2398.000000	0.261215
2399.000000	0.257609
2400.000000	0.254176
2401.000000	0.251022
2402.000000	0.250355
2403.000000	0.255008
2404.000000	0.260804
2405.000000	0.266454
2406.000000	0.271934
2407.000000	0.272213
2408.000000	0.268386
2409.000000	0.265092
2410.000000	0.263592
2411.000000	0.262882
2412.000000	0.261627
2413.000000	0.260001
2414.000000	0.251395
2415.000000	0.240019
2416.000000	0.235544
2417.000000	0.232133
2418.000000	0.236856
2419.000000	0.247524
2420.000000	0.246139
2421.000000	0.244230
2422.000000	0.244481
2423.000000	0.238599
2424.000000	0.237722
2425.000000	0.238761
2426.000000	0.234878
2427.000000	0.236248
2428.000000	0.241323
2429.000000	0.248152
2430.000000	0.257312
2431.000000	0.254586
2432.000000	0.245036
2433.000000	0.241411
2434.000000	0.233601
2435.000000	0.228840
2436.000000	0.230000
2437.000000	0.226522
2438.000000	0.228192
2439.000000	0.228341
2440.000000	0.231075
2441.000000	0.234042
2442.000000	0.228620
2443.000000	0.233318
2444.000000	0.237908
2445.000000	0.234196
2446.000000	0.235219
2447.000000	0.231095
2448.000000	0.221143
2449.000000	0.220382
2450.000000	0.218022
2451.000000	0.215842
2452.000000	0.215947
2453.000000	0.208958
2454.000000	0.205318
2455.000000	0.199955
2456.000000	0.195362
2457.000000	0.205026
2458.000000	0.213780
2459.000000	0.220547
2460.000000	0.226621
2461.000000	0.217419
2462.000000	0.204130
2463.000000	0.194037
2464.000000	0.186925
2465.000000	0.186667
2466.000000	0.181252
2467.000000	0.170514
2468.000000	0.163355
2469.000000	0.156070
2470.000000	0.166413
2471.000000	0.175901
2472.000000	0.172774
2473.000000	0.186768
2474.000000	0.173371
2475.000000	0.169525
2476.000000	0.192905
2477.000000	0.176178
2478.000000	0.178838
2479.000000	0.175009
2480.000000	0.141857
2481.000000	0.140883
2482.000000	0.133984
2483.000000	0.130889
2484.000000	0.148162
2485.000000	0.161243
2486.000000	0.178085
2487.000000	0.203089
2488.000000	0.216669
2489.000000	0.208320
2490.000000	0.183307
2491.000000	0.146097
2492.000000	0.131203
2493.000000	0.138685
2494.000000	0.144112
2495.000000	0.151288
2496.000000	0.155213
2497.000000	0.159466
2498.000000	0.156076
2499.000000	0.155265
2500.000000	0.164483
