# Wavelength	SM1200H-10_HEX-40_FV7-50_00001.asd.rts.txt
350.000000	0.204035
351.000000	0.182561
352.000000	0.199170
353.000000	0.216353
354.000000	0.215496
355.000000	0.204651
356.000000	0.201240
357.000000	0.209860
358.000000	0.223548
359.000000	0.224250
360.000000	0.215645
361.000000	0.206630
362.000000	0.204662
363.000000	0.207357
364.000000	0.211148
365.000000	0.215302
366.000000	0.212505
367.000000	0.205889
368.000000	0.208838
369.000000	0.210720
370.000000	0.212942
371.000000	0.218776
372.000000	0.218874
373.000000	0.216454
374.000000	0.215177
375.000000	0.214686
376.000000	0.212946
377.000000	0.212119
378.000000	0.219445
379.000000	0.218748
380.000000	0.214234
381.000000	0.216000
382.000000	0.215849
383.000000	0.215526
384.000000	0.216381
385.000000	0.213976
386.000000	0.215828
387.000000	0.221436
388.000000	0.221218
389.000000	0.219940
390.000000	0.219293
391.000000	0.219715
392.000000	0.220158
393.000000	0.220454
394.000000	0.220678
395.000000	0.221294
396.000000	0.221531
397.000000	0.221743
398.000000	0.224320
399.000000	0.224864
400.000000	0.224116
401.000000	0.224761
402.000000	0.225125
403.000000	0.225502
404.000000	0.226315
405.000000	0.226509
406.000000	0.226412
407.000000	0.226442
408.000000	0.227120
409.000000	0.227278
410.000000	0.226931
411.000000	0.226740
412.000000	0.227564
413.000000	0.228579
414.000000	0.228878
415.000000	0.229444
416.000000	0.229927
417.000000	0.230067
418.000000	0.229875
419.000000	0.229987
420.000000	0.230565
421.000000	0.231394
422.000000	0.231909
423.000000	0.232044
424.000000	0.232068
425.000000	0.232680
426.000000	0.233260
427.000000	0.233404
428.000000	0.234035
429.000000	0.234201
430.000000	0.233902
431.000000	0.234397
432.000000	0.235148
433.000000	0.235557
434.000000	0.235113
435.000000	0.235189
436.000000	0.235559
437.000000	0.235796
438.000000	0.236283
439.000000	0.236777
440.000000	0.237106
441.000000	0.236819
442.000000	0.236949
443.000000	0.237386
444.000000	0.237371
445.000000	0.237237
446.000000	0.237341
447.000000	0.237776
448.000000	0.237973
449.000000	0.238247
450.000000	0.238822
451.000000	0.239475
452.000000	0.239648
453.000000	0.239425
454.000000	0.239895
455.000000	0.240149
456.000000	0.240354
457.000000	0.240870
458.000000	0.241195
459.000000	0.241301
460.000000	0.241330
461.000000	0.241418
462.000000	0.241798
463.000000	0.242248
464.000000	0.242146
465.000000	0.242384
466.000000	0.242929
467.000000	0.243297
468.000000	0.243168
469.000000	0.242920
470.000000	0.243207
471.000000	0.243759
472.000000	0.244126
473.000000	0.244157
474.000000	0.244390
475.000000	0.244433
476.000000	0.244444
477.000000	0.244873
478.000000	0.245065
479.000000	0.245251
480.000000	0.245643
481.000000	0.245880
482.000000	0.246118
483.000000	0.246325
484.000000	0.246530
485.000000	0.246673
486.000000	0.246902
487.000000	0.247195
488.000000	0.247436
489.000000	0.247684
490.000000	0.248089
491.000000	0.248286
492.000000	0.248475
493.000000	0.248810
494.000000	0.248944
495.000000	0.249171
496.000000	0.249591
497.000000	0.249749
498.000000	0.249983
499.000000	0.250398
500.000000	0.250638
501.000000	0.250816
502.000000	0.251037
503.000000	0.251335
504.000000	0.251710
505.000000	0.252007
506.000000	0.252144
507.000000	0.252477
508.000000	0.252845
509.000000	0.253110
510.000000	0.253366
511.000000	0.253570
512.000000	0.253794
513.000000	0.254152
514.000000	0.254527
515.000000	0.254869
516.000000	0.255097
517.000000	0.255302
518.000000	0.255588
519.000000	0.255917
520.000000	0.256192
521.000000	0.256474
522.000000	0.256795
523.000000	0.257136
524.000000	0.257419
525.000000	0.257641
526.000000	0.257896
527.000000	0.258168
528.000000	0.258405
529.000000	0.258617
530.000000	0.258884
531.000000	0.259190
532.000000	0.259452
533.000000	0.259807
534.000000	0.260036
535.000000	0.260151
536.000000	0.260455
537.000000	0.260864
538.000000	0.261228
539.000000	0.261372
540.000000	0.261596
541.000000	0.261887
542.000000	0.262198
543.000000	0.262353
544.000000	0.262625
545.000000	0.263014
546.000000	0.263226
547.000000	0.263490
548.000000	0.263845
549.000000	0.264114
550.000000	0.264452
551.000000	0.264832
552.000000	0.265130
553.000000	0.265363
554.000000	0.265625
555.000000	0.265979
556.000000	0.266353
557.000000	0.266643
558.000000	0.266951
559.000000	0.267297
560.000000	0.267626
561.000000	0.267952
562.000000	0.268176
563.000000	0.268475
564.000000	0.268847
565.000000	0.269149
566.000000	0.269443
567.000000	0.269760
568.000000	0.270086
569.000000	0.270409
570.000000	0.270685
571.000000	0.270925
572.000000	0.271213
573.000000	0.271507
574.000000	0.271824
575.000000	0.272239
576.000000	0.272575
577.000000	0.272827
578.000000	0.273086
579.000000	0.273384
580.000000	0.273697
581.000000	0.274002
582.000000	0.274290
583.000000	0.274523
584.000000	0.274762
585.000000	0.275130
586.000000	0.275415
587.000000	0.275635
588.000000	0.275870
589.000000	0.276183
590.000000	0.276487
591.000000	0.276732
592.000000	0.276987
593.000000	0.277266
594.000000	0.277567
595.000000	0.277879
596.000000	0.278153
597.000000	0.278384
598.000000	0.278503
599.000000	0.278676
600.000000	0.278913
601.000000	0.279116
602.000000	0.279298
603.000000	0.279518
604.000000	0.279784
605.000000	0.279971
606.000000	0.280121
607.000000	0.280247
608.000000	0.280355
609.000000	0.280550
610.000000	0.280772
611.000000	0.280931
612.000000	0.281106
613.000000	0.281239
614.000000	0.281348
615.000000	0.281526
616.000000	0.281742
617.000000	0.281934
618.000000	0.282101
619.000000	0.282283
620.000000	0.282451
621.000000	0.282606
622.000000	0.282747
623.000000	0.282867
624.000000	0.282975
625.000000	0.283154
626.000000	0.283351
627.000000	0.283537
628.000000	0.283725
629.000000	0.283947
630.000000	0.284103
631.000000	0.284290
632.000000	0.284442
633.000000	0.284581
634.000000	0.284722
635.000000	0.284842
636.000000	0.284988
637.000000	0.285163
638.000000	0.285349
639.000000	0.285505
640.000000	0.285652
641.000000	0.285696
642.000000	0.285803
643.000000	0.285935
644.000000	0.286014
645.000000	0.286176
646.000000	0.286358
647.000000	0.286481
648.000000	0.286613
649.000000	0.286788
650.000000	0.286970
651.000000	0.287098
652.000000	0.287227
653.000000	0.287381
654.000000	0.287499
655.000000	0.287671
656.000000	0.287864
657.000000	0.287992
658.000000	0.288179
659.000000	0.288344
660.000000	0.288458
661.000000	0.288660
662.000000	0.288792
663.000000	0.288905
664.000000	0.289068
665.000000	0.289230
666.000000	0.289414
667.000000	0.289615
668.000000	0.289809
669.000000	0.289984
670.000000	0.290151
671.000000	0.290341
672.000000	0.290590
673.000000	0.290857
674.000000	0.291046
675.000000	0.291191
676.000000	0.291313
677.000000	0.291448
678.000000	0.291603
679.000000	0.291735
680.000000	0.291825
681.000000	0.291863
682.000000	0.292008
683.000000	0.292194
684.000000	0.292352
685.000000	0.292510
686.000000	0.292703
687.000000	0.292912
688.000000	0.293085
689.000000	0.293237
690.000000	0.293420
691.000000	0.293625
692.000000	0.293787
693.000000	0.293937
694.000000	0.294027
695.000000	0.294179
696.000000	0.294385
697.000000	0.294591
698.000000	0.294870
699.000000	0.295113
700.000000	0.295259
701.000000	0.295452
702.000000	0.295659
703.000000	0.295840
704.000000	0.295988
705.000000	0.296149
706.000000	0.296291
707.000000	0.296443
708.000000	0.296570
709.000000	0.296677
710.000000	0.296791
711.000000	0.296889
712.000000	0.296997
713.000000	0.297149
714.000000	0.297324
715.000000	0.297452
716.000000	0.297557
717.000000	0.297686
718.000000	0.297859
719.000000	0.297995
720.000000	0.298073
721.000000	0.298283
722.000000	0.298485
723.000000	0.298660
724.000000	0.298773
725.000000	0.298859
726.000000	0.298983
727.000000	0.299062
728.000000	0.299152
729.000000	0.299259
730.000000	0.299327
731.000000	0.299376
732.000000	0.299468
733.000000	0.299620
734.000000	0.299662
735.000000	0.299694
736.000000	0.299855
737.000000	0.300032
738.000000	0.300116
739.000000	0.300219
740.000000	0.300284
741.000000	0.300409
742.000000	0.300540
743.000000	0.300634
744.000000	0.300742
745.000000	0.300816
746.000000	0.300929
747.000000	0.301075
748.000000	0.301157
749.000000	0.301270
750.000000	0.301426
751.000000	0.301504
752.000000	0.301541
753.000000	0.301590
754.000000	0.301698
755.000000	0.301807
756.000000	0.301903
757.000000	0.301947
758.000000	0.301985
759.000000	0.302096
760.000000	0.302221
761.000000	0.302271
762.000000	0.302369
763.000000	0.302496
764.000000	0.302625
765.000000	0.302736
766.000000	0.302828
767.000000	0.302912
768.000000	0.303028
769.000000	0.303148
770.000000	0.303245
771.000000	0.303281
772.000000	0.303346
773.000000	0.303386
774.000000	0.303426
775.000000	0.303437
776.000000	0.303494
777.000000	0.303606
778.000000	0.303642
779.000000	0.303653
780.000000	0.303674
781.000000	0.303702
782.000000	0.303740
783.000000	0.303835
784.000000	0.303868
785.000000	0.303956
786.000000	0.304005
787.000000	0.303995
788.000000	0.304084
789.000000	0.304183
790.000000	0.304230
791.000000	0.304227
792.000000	0.304261
793.000000	0.304295
794.000000	0.304295
795.000000	0.304309
796.000000	0.304311
797.000000	0.304300
798.000000	0.304307
799.000000	0.304277
800.000000	0.304264
801.000000	0.304329
802.000000	0.304312
803.000000	0.304321
804.000000	0.304427
805.000000	0.304465
806.000000	0.304504
807.000000	0.304558
808.000000	0.304479
809.000000	0.304480
810.000000	0.304558
811.000000	0.304641
812.000000	0.304606
813.000000	0.304567
814.000000	0.304560
815.000000	0.304571
816.000000	0.304630
817.000000	0.304688
818.000000	0.304621
819.000000	0.304605
820.000000	0.304600
821.000000	0.304539
822.000000	0.304477
823.000000	0.304402
824.000000	0.304332
825.000000	0.304393
826.000000	0.304415
827.000000	0.304427
828.000000	0.304492
829.000000	0.304545
830.000000	0.304557
831.000000	0.304566
832.000000	0.304484
833.000000	0.304406
834.000000	0.304379
835.000000	0.304423
836.000000	0.304360
837.000000	0.304291
838.000000	0.304242
839.000000	0.304138
840.000000	0.304134
841.000000	0.304225
842.000000	0.304314
843.000000	0.304355
844.000000	0.304254
845.000000	0.304051
846.000000	0.304010
847.000000	0.303978
848.000000	0.303944
849.000000	0.303947
850.000000	0.303850
851.000000	0.303771
852.000000	0.303780
853.000000	0.303762
854.000000	0.303754
855.000000	0.303818
856.000000	0.303830
857.000000	0.303821
858.000000	0.303819
859.000000	0.303744
860.000000	0.303572
861.000000	0.303447
862.000000	0.303385
863.000000	0.303287
864.000000	0.303293
865.000000	0.303287
866.000000	0.303224
867.000000	0.303142
868.000000	0.303046
869.000000	0.302886
870.000000	0.302723
871.000000	0.302686
872.000000	0.302659
873.000000	0.302506
874.000000	0.302312
875.000000	0.302108
876.000000	0.301922
877.000000	0.301717
878.000000	0.301581
879.000000	0.301528
880.000000	0.301404
881.000000	0.301230
882.000000	0.301093
883.000000	0.300935
884.000000	0.300623
885.000000	0.300598
886.000000	0.300477
887.000000	0.300142
888.000000	0.300008
889.000000	0.299985
890.000000	0.299882
891.000000	0.299720
892.000000	0.299626
893.000000	0.299491
894.000000	0.299373
895.000000	0.299249
896.000000	0.299010
897.000000	0.298774
898.000000	0.298693
899.000000	0.298588
900.000000	0.298397
901.000000	0.298132
902.000000	0.298025
903.000000	0.297839
904.000000	0.297578
905.000000	0.297244
906.000000	0.297120
907.000000	0.297064
908.000000	0.296979
909.000000	0.296672
910.000000	0.296332
911.000000	0.296055
912.000000	0.295880
913.000000	0.295679
914.000000	0.295387
915.000000	0.295126
916.000000	0.294983
917.000000	0.294710
918.000000	0.294390
919.000000	0.294138
920.000000	0.294098
921.000000	0.294027
922.000000	0.293919
923.000000	0.293827
924.000000	0.293430
925.000000	0.293189
926.000000	0.293226
927.000000	0.292790
928.000000	0.292599
929.000000	0.292497
930.000000	0.292130
931.000000	0.291759
932.000000	0.291468
933.000000	0.291276
934.000000	0.291028
935.000000	0.290748
936.000000	0.290542
937.000000	0.290370
938.000000	0.290109
939.000000	0.289924
940.000000	0.289743
941.000000	0.289516
942.000000	0.289286
943.000000	0.289074
944.000000	0.288789
945.000000	0.288559
946.000000	0.288274
947.000000	0.288073
948.000000	0.288023
949.000000	0.287839
950.000000	0.287637
951.000000	0.287398
952.000000	0.287092
953.000000	0.286899
954.000000	0.286655
955.000000	0.286220
956.000000	0.285952
957.000000	0.285799
958.000000	0.285615
959.000000	0.285372
960.000000	0.285187
961.000000	0.285099
962.000000	0.285043
963.000000	0.284908
964.000000	0.284571
965.000000	0.284278
966.000000	0.284084
967.000000	0.283709
968.000000	0.283588
969.000000	0.283526
970.000000	0.283228
971.000000	0.283163
972.000000	0.282872
973.000000	0.282288
974.000000	0.282082
975.000000	0.282090
976.000000	0.282120
977.000000	0.281993
978.000000	0.281630
979.000000	0.281530
980.000000	0.281386
981.000000	0.281077
982.000000	0.280945
983.000000	0.280757
984.000000	0.280545
985.000000	0.280491
986.000000	0.280161
987.000000	0.279918
988.000000	0.279853
989.000000	0.279519
990.000000	0.279256
991.000000	0.279045
992.000000	0.278857
993.000000	0.278992
994.000000	0.278775
995.000000	0.278414
996.000000	0.278364
997.000000	0.278310
998.000000	0.278163
999.000000	0.278095
1000.000000	0.278348
1001.000000	0.278230
1002.000000	0.278194
1003.000000	0.278181
1004.000000	0.278184
1005.000000	0.278242
1006.000000	0.277970
1007.000000	0.277728
1008.000000	0.277189
1009.000000	0.276789
1010.000000	0.276383
1011.000000	0.276198
1012.000000	0.276673
1013.000000	0.276146
1014.000000	0.275224
1015.000000	0.275349
1016.000000	0.275327
1017.000000	0.275466
1018.000000	0.276199
1019.000000	0.276507
1020.000000	0.276649
1021.000000	0.276492
1022.000000	0.276027
1023.000000	0.276227
1024.000000	0.276666
1025.000000	0.276827
1026.000000	0.276474
1027.000000	0.276516
1028.000000	0.276389
1029.000000	0.275963
1030.000000	0.275879
1031.000000	0.275798
1032.000000	0.275507
1033.000000	0.275053
1034.000000	0.275278
1035.000000	0.276710
1036.000000	0.276968
1037.000000	0.276989
1038.000000	0.276961
1039.000000	0.276672
1040.000000	0.275802
1041.000000	0.275648
1042.000000	0.275912
1043.000000	0.276109
1044.000000	0.276442
1045.000000	0.277115
1046.000000	0.277353
1047.000000	0.277441
1048.000000	0.277350
1049.000000	0.277318
1050.000000	0.276847
1051.000000	0.277018
1052.000000	0.277709
1053.000000	0.277777
1054.000000	0.277774
1055.000000	0.278191
1056.000000	0.278700
1057.000000	0.278960
1058.000000	0.279411
1059.000000	0.279549
1060.000000	0.279145
1061.000000	0.278739
1062.000000	0.278804
1063.000000	0.279285
1064.000000	0.279456
1065.000000	0.279524
1066.000000	0.279726
1067.000000	0.279777
1068.000000	0.279998
1069.000000	0.280419
1070.000000	0.280806
1071.000000	0.281258
1072.000000	0.281637
1073.000000	0.282032
1074.000000	0.282590
1075.000000	0.282692
1076.000000	0.283173
1077.000000	0.283253
1078.000000	0.282794
1079.000000	0.282646
1080.000000	0.282262
1081.000000	0.282381
1082.000000	0.283085
1083.000000	0.283242
1084.000000	0.283373
1085.000000	0.283646
1086.000000	0.283512
1087.000000	0.283750
1088.000000	0.284565
1089.000000	0.284875
1090.000000	0.284799
1091.000000	0.285027
1092.000000	0.284990
1093.000000	0.285232
1094.000000	0.285193
1095.000000	0.284907
1096.000000	0.285103
1097.000000	0.285337
1098.000000	0.285674
1099.000000	0.286576
1100.000000	0.286944
1101.000000	0.286822
1102.000000	0.286989
1103.000000	0.287040
1104.000000	0.287302
1105.000000	0.287864
1106.000000	0.288255
1107.000000	0.288658
1108.000000	0.288906
1109.000000	0.289211
1110.000000	0.289239
1111.000000	0.289197
1112.000000	0.289005
1113.000000	0.288886
1114.000000	0.288498
1115.000000	0.288577
1116.000000	0.288851
1117.000000	0.289167
1118.000000	0.289900
1119.000000	0.290183
1120.000000	0.290311
1121.000000	0.290425
1122.000000	0.290346
1123.000000	0.290563
1124.000000	0.290727
1125.000000	0.290898
1126.000000	0.291028
1127.000000	0.291180
1128.000000	0.291335
1129.000000	0.291549
1130.000000	0.291657
1131.000000	0.291677
1132.000000	0.291888
1133.000000	0.292234
1134.000000	0.292420
1135.000000	0.292618
1136.000000	0.292801
1137.000000	0.292848
1138.000000	0.292874
1139.000000	0.293099
1140.000000	0.293231
1141.000000	0.293138
1142.000000	0.293114
1143.000000	0.292921
1144.000000	0.293043
1145.000000	0.293099
1146.000000	0.293315
1147.000000	0.293401
1148.000000	0.293566
1149.000000	0.293539
1150.000000	0.293247
1151.000000	0.293297
1152.000000	0.293418
1153.000000	0.293505
1154.000000	0.293737
1155.000000	0.293796
1156.000000	0.293681
1157.000000	0.293693
1158.000000	0.293640
1159.000000	0.293689
1160.000000	0.293970
1161.000000	0.293997
1162.000000	0.294028
1163.000000	0.294007
1164.000000	0.293894
1165.000000	0.293660
1166.000000	0.293654
1167.000000	0.293790
1168.000000	0.293767
1169.000000	0.293770
1170.000000	0.293762
1171.000000	0.293631
1172.000000	0.293749
1173.000000	0.294041
1174.000000	0.294182
1175.000000	0.294443
1176.000000	0.294461
1177.000000	0.294286
1178.000000	0.294220
1179.000000	0.294041
1180.000000	0.293934
1181.000000	0.293973
1182.000000	0.294031
1183.000000	0.294098
1184.000000	0.294322
1185.000000	0.294396
1186.000000	0.294425
1187.000000	0.294453
1188.000000	0.294432
1189.000000	0.294388
1190.000000	0.294378
1191.000000	0.294374
1192.000000	0.294436
1193.000000	0.294563
1194.000000	0.294664
1195.000000	0.294701
1196.000000	0.294666
1197.000000	0.294578
1198.000000	0.294375
1199.000000	0.294308
1200.000000	0.294253
1201.000000	0.294240
1202.000000	0.294352
1203.000000	0.294364
1204.000000	0.294217
1205.000000	0.294240
1206.000000	0.294240
1207.000000	0.294320
1208.000000	0.294345
1209.000000	0.294539
1210.000000	0.294510
1211.000000	0.294285
1212.000000	0.294188
1213.000000	0.294040
1214.000000	0.294033
1215.000000	0.294195
1216.000000	0.294256
1217.000000	0.294279
1218.000000	0.294304
1219.000000	0.294335
1220.000000	0.294371
1221.000000	0.294402
1222.000000	0.294394
1223.000000	0.294229
1224.000000	0.294116
1225.000000	0.294146
1226.000000	0.294180
1227.000000	0.294180
1228.000000	0.294248
1229.000000	0.294272
1230.000000	0.294217
1231.000000	0.294166
1232.000000	0.294245
1233.000000	0.294329
1234.000000	0.294381
1235.000000	0.294333
1236.000000	0.294172
1237.000000	0.294189
1238.000000	0.294135
1239.000000	0.294099
1240.000000	0.294259
1241.000000	0.294224
1242.000000	0.293988
1243.000000	0.293796
1244.000000	0.293741
1245.000000	0.293742
1246.000000	0.293728
1247.000000	0.293890
1248.000000	0.293930
1249.000000	0.293929
1250.000000	0.293988
1251.000000	0.293929
1252.000000	0.293939
1253.000000	0.293978
1254.000000	0.294027
1255.000000	0.294171
1256.000000	0.294163
1257.000000	0.294036
1258.000000	0.294025
1259.000000	0.293928
1260.000000	0.293922
1261.000000	0.293993
1262.000000	0.294030
1263.000000	0.294081
1264.000000	0.294065
1265.000000	0.294080
1266.000000	0.294051
1267.000000	0.293952
1268.000000	0.293915
1269.000000	0.293912
1270.000000	0.293938
1271.000000	0.293983
1272.000000	0.294046
1273.000000	0.294136
1274.000000	0.294199
1275.000000	0.294149
1276.000000	0.294023
1277.000000	0.293955
1278.000000	0.293716
1279.000000	0.293632
1280.000000	0.293571
1281.000000	0.293543
1282.000000	0.293643
1283.000000	0.293709
1284.000000	0.293716
1285.000000	0.293774
1286.000000	0.293876
1287.000000	0.293857
1288.000000	0.293805
1289.000000	0.293686
1290.000000	0.293427
1291.000000	0.293288
1292.000000	0.293359
1293.000000	0.293416
1294.000000	0.293465
1295.000000	0.293572
1296.000000	0.293540
1297.000000	0.293508
1298.000000	0.293588
1299.000000	0.293553
1300.000000	0.293581
1301.000000	0.293641
1302.000000	0.293569
1303.000000	0.293544
1304.000000	0.293422
1305.000000	0.293200
1306.000000	0.293115
1307.000000	0.293214
1308.000000	0.293169
1309.000000	0.293025
1310.000000	0.292993
1311.000000	0.292958
1312.000000	0.292879
1313.000000	0.293002
1314.000000	0.293188
1315.000000	0.293113
1316.000000	0.292998
1317.000000	0.292878
1318.000000	0.292766
1319.000000	0.292731
1320.000000	0.292751
1321.000000	0.292726
1322.000000	0.292703
1323.000000	0.292691
1324.000000	0.292573
1325.000000	0.292503
1326.000000	0.292478
1327.000000	0.292476
1328.000000	0.292717
1329.000000	0.292716
1330.000000	0.292605
1331.000000	0.292535
1332.000000	0.292409
1333.000000	0.292307
1334.000000	0.292370
1335.000000	0.292333
1336.000000	0.292213
1337.000000	0.292126
1338.000000	0.291945
1339.000000	0.291815
1340.000000	0.291786
1341.000000	0.291639
1342.000000	0.291570
1343.000000	0.291556
1344.000000	0.291468
1345.000000	0.291412
1346.000000	0.291468
1347.000000	0.291338
1348.000000	0.291175
1349.000000	0.291025
1350.000000	0.290931
1351.000000	0.290781
1352.000000	0.290643
1353.000000	0.290553
1354.000000	0.290252
1355.000000	0.290029
1356.000000	0.290079
1357.000000	0.289877
1358.000000	0.289633
1359.000000	0.289579
1360.000000	0.289536
1361.000000	0.289547
1362.000000	0.289504
1363.000000	0.289514
1364.000000	0.289448
1365.000000	0.289177
1366.000000	0.289081
1367.000000	0.289078
1368.000000	0.289133
1369.000000	0.289043
1370.000000	0.288807
1371.000000	0.288566
1372.000000	0.288165
1373.000000	0.287895
1374.000000	0.287792
1375.000000	0.287532
1376.000000	0.287328
1377.000000	0.287214
1378.000000	0.287112
1379.000000	0.286871
1380.000000	0.286611
1381.000000	0.286232
1382.000000	0.285752
1383.000000	0.285435
1384.000000	0.284956
1385.000000	0.284455
1386.000000	0.283996
1387.000000	0.283581
1388.000000	0.283298
1389.000000	0.282988
1390.000000	0.282886
1391.000000	0.282789
1392.000000	0.282564
1393.000000	0.282395
1394.000000	0.282348
1395.000000	0.282166
1396.000000	0.281944
1397.000000	0.281714
1398.000000	0.281339
1399.000000	0.281080
1400.000000	0.280910
1401.000000	0.280548
1402.000000	0.280162
1403.000000	0.279829
1404.000000	0.279461
1405.000000	0.279032
1406.000000	0.278680
1407.000000	0.278275
1408.000000	0.277666
1409.000000	0.277088
1410.000000	0.276693
1411.000000	0.276345
1412.000000	0.275957
1413.000000	0.275670
1414.000000	0.275268
1415.000000	0.274712
1416.000000	0.274226
1417.000000	0.273800
1418.000000	0.273282
1419.000000	0.272782
1420.000000	0.272353
1421.000000	0.271946
1422.000000	0.271501
1423.000000	0.271189
1424.000000	0.270758
1425.000000	0.270198
1426.000000	0.269721
1427.000000	0.269352
1428.000000	0.268962
1429.000000	0.268677
1430.000000	0.268420
1431.000000	0.268114
1432.000000	0.267804
1433.000000	0.267516
1434.000000	0.267166
1435.000000	0.266880
1436.000000	0.266565
1437.000000	0.266156
1438.000000	0.265816
1439.000000	0.265538
1440.000000	0.265264
1441.000000	0.265060
1442.000000	0.264829
1443.000000	0.264574
1444.000000	0.264255
1445.000000	0.263841
1446.000000	0.263568
1447.000000	0.263279
1448.000000	0.262917
1449.000000	0.262700
1450.000000	0.262481
1451.000000	0.262252
1452.000000	0.262012
1453.000000	0.261778
1454.000000	0.261553
1455.000000	0.261272
1456.000000	0.261115
1457.000000	0.261014
1458.000000	0.260828
1459.000000	0.260780
1460.000000	0.260782
1461.000000	0.260605
1462.000000	0.260455
1463.000000	0.260300
1464.000000	0.260128
1465.000000	0.260113
1466.000000	0.260079
1467.000000	0.260060
1468.000000	0.260037
1469.000000	0.260000
1470.000000	0.259974
1471.000000	0.259975
1472.000000	0.259939
1473.000000	0.259961
1474.000000	0.260044
1475.000000	0.260183
1476.000000	0.260346
1477.000000	0.260571
1478.000000	0.260831
1479.000000	0.260983
1480.000000	0.261105
1481.000000	0.261201
1482.000000	0.261226
1483.000000	0.261418
1484.000000	0.261694
1485.000000	0.261918
1486.000000	0.262171
1487.000000	0.262403
1488.000000	0.262648
1489.000000	0.262903
1490.000000	0.263100
1491.000000	0.263364
1492.000000	0.263504
1493.000000	0.263754
1494.000000	0.264156
1495.000000	0.264398
1496.000000	0.264552
1497.000000	0.264775
1498.000000	0.264984
1499.000000	0.265161
1500.000000	0.265379
1501.000000	0.265662
1502.000000	0.265777
1503.000000	0.265831
1504.000000	0.266041
1505.000000	0.266197
1506.000000	0.266343
1507.000000	0.266431
1508.000000	0.266434
1509.000000	0.266562
1510.000000	0.266692
1511.000000	0.266813
1512.000000	0.266965
1513.000000	0.267087
1514.000000	0.267210
1515.000000	0.267380
1516.000000	0.267603
1517.000000	0.267681
1518.000000	0.267687
1519.000000	0.267781
1520.000000	0.267806
1521.000000	0.267670
1522.000000	0.267690
1523.000000	0.267716
1524.000000	0.267713
1525.000000	0.267849
1526.000000	0.267847
1527.000000	0.267760
1528.000000	0.267789
1529.000000	0.267840
1530.000000	0.267740
1531.000000	0.267763
1532.000000	0.267757
1533.000000	0.267565
1534.000000	0.267645
1535.000000	0.267776
1536.000000	0.267757
1537.000000	0.267852
1538.000000	0.267833
1539.000000	0.267763
1540.000000	0.267826
1541.000000	0.267931
1542.000000	0.268075
1543.000000	0.268148
1544.000000	0.268106
1545.000000	0.268097
1546.000000	0.268121
1547.000000	0.268158
1548.000000	0.268159
1549.000000	0.268144
1550.000000	0.268106
1551.000000	0.267985
1552.000000	0.267958
1553.000000	0.268025
1554.000000	0.268040
1555.000000	0.268078
1556.000000	0.268105
1557.000000	0.268039
1558.000000	0.268015
1559.000000	0.267865
1560.000000	0.267894
1561.000000	0.268116
1562.000000	0.268174
1563.000000	0.268347
1564.000000	0.268307
1565.000000	0.267996
1566.000000	0.267789
1567.000000	0.267612
1568.000000	0.267514
1569.000000	0.267584
1570.000000	0.267573
1571.000000	0.267547
1572.000000	0.267506
1573.000000	0.267417
1574.000000	0.267392
1575.000000	0.267424
1576.000000	0.267462
1577.000000	0.267519
1578.000000	0.267522
1579.000000	0.267558
1580.000000	0.267574
1581.000000	0.267619
1582.000000	0.267665
1583.000000	0.267699
1584.000000	0.267709
1585.000000	0.267751
1586.000000	0.267831
1587.000000	0.268001
1588.000000	0.268026
1589.000000	0.267997
1590.000000	0.268002
1591.000000	0.267903
1592.000000	0.267905
1593.000000	0.268052
1594.000000	0.268101
1595.000000	0.268141
1596.000000	0.268257
1597.000000	0.268446
1598.000000	0.268494
1599.000000	0.268570
1600.000000	0.268540
1601.000000	0.268442
1602.000000	0.268359
1603.000000	0.268280
1604.000000	0.268197
1605.000000	0.268064
1606.000000	0.267977
1607.000000	0.267951
1608.000000	0.267991
1609.000000	0.268154
1610.000000	0.268192
1611.000000	0.268291
1612.000000	0.268297
1613.000000	0.268274
1614.000000	0.268217
1615.000000	0.268138
1616.000000	0.268144
1617.000000	0.268100
1618.000000	0.268112
1619.000000	0.268191
1620.000000	0.268227
1621.000000	0.268273
1622.000000	0.268390
1623.000000	0.268552
1624.000000	0.268670
1625.000000	0.268635
1626.000000	0.268657
1627.000000	0.268680
1628.000000	0.268763
1629.000000	0.268891
1630.000000	0.269085
1631.000000	0.269319
1632.000000	0.269437
1633.000000	0.269518
1634.000000	0.269696
1635.000000	0.269890
1636.000000	0.270056
1637.000000	0.270348
1638.000000	0.270486
1639.000000	0.270553
1640.000000	0.270606
1641.000000	0.270676
1642.000000	0.270773
1643.000000	0.270815
1644.000000	0.270909
1645.000000	0.271124
1646.000000	0.271156
1647.000000	0.271112
1648.000000	0.271178
1649.000000	0.271236
1650.000000	0.271425
1651.000000	0.271863
1652.000000	0.272059
1653.000000	0.272165
1654.000000	0.272286
1655.000000	0.272236
1656.000000	0.272247
1657.000000	0.272345
1658.000000	0.272429
1659.000000	0.272625
1660.000000	0.272695
1661.000000	0.272653
1662.000000	0.272659
1663.000000	0.272550
1664.000000	0.272585
1665.000000	0.272725
1666.000000	0.272888
1667.000000	0.273066
1668.000000	0.273089
1669.000000	0.273015
1670.000000	0.273019
1671.000000	0.273049
1672.000000	0.273116
1673.000000	0.273257
1674.000000	0.273327
1675.000000	0.273413
1676.000000	0.273550
1677.000000	0.273751
1678.000000	0.273846
1679.000000	0.273869
1680.000000	0.273981
1681.000000	0.274041
1682.000000	0.274074
1683.000000	0.274144
1684.000000	0.273972
1685.000000	0.273857
1686.000000	0.273921
1687.000000	0.273915
1688.000000	0.273945
1689.000000	0.274014
1690.000000	0.273917
1691.000000	0.273868
1692.000000	0.273812
1693.000000	0.273788
1694.000000	0.273778
1695.000000	0.273808
1696.000000	0.273979
1697.000000	0.273974
1698.000000	0.273969
1699.000000	0.273926
1700.000000	0.273662
1701.000000	0.273640
1702.000000	0.273554
1703.000000	0.273519
1704.000000	0.273774
1705.000000	0.273856
1706.000000	0.273849
1707.000000	0.273932
1708.000000	0.273916
1709.000000	0.273989
1710.000000	0.274365
1711.000000	0.274560
1712.000000	0.274746
1713.000000	0.274838
1714.000000	0.274732
1715.000000	0.274834
1716.000000	0.275103
1717.000000	0.275196
1718.000000	0.275268
1719.000000	0.275323
1720.000000	0.275297
1721.000000	0.275259
1722.000000	0.275277
1723.000000	0.275243
1724.000000	0.275115
1725.000000	0.275047
1726.000000	0.274927
1727.000000	0.274865
1728.000000	0.274755
1729.000000	0.274643
1730.000000	0.274714
1731.000000	0.274690
1732.000000	0.274651
1733.000000	0.274597
1734.000000	0.274277
1735.000000	0.274364
1736.000000	0.274636
1737.000000	0.274690
1738.000000	0.274924
1739.000000	0.275000
1740.000000	0.274785
1741.000000	0.274754
1742.000000	0.274835
1743.000000	0.275006
1744.000000	0.275171
1745.000000	0.275296
1746.000000	0.275559
1747.000000	0.275557
1748.000000	0.275547
1749.000000	0.275537
1750.000000	0.275548
1751.000000	0.275725
1752.000000	0.275853
1753.000000	0.275801
1754.000000	0.275857
1755.000000	0.275909
1756.000000	0.275878
1757.000000	0.275886
1758.000000	0.275888
1759.000000	0.275735
1760.000000	0.275666
1761.000000	0.275592
1762.000000	0.275621
1763.000000	0.275741
1764.000000	0.275855
1765.000000	0.276120
1766.000000	0.276214
1767.000000	0.276052
1768.000000	0.276059
1769.000000	0.276166
1770.000000	0.276277
1771.000000	0.276474
1772.000000	0.276581
1773.000000	0.276578
1774.000000	0.276579
1775.000000	0.276638
1776.000000	0.276644
1777.000000	0.276575
1778.000000	0.276434
1779.000000	0.276153
1780.000000	0.276146
1781.000000	0.276169
1782.000000	0.276188
1783.000000	0.276440
1784.000000	0.276521
1785.000000	0.276509
1786.000000	0.276569
1787.000000	0.276686
1788.000000	0.276922
1789.000000	0.277166
1790.000000	0.277481
1791.000000	0.277641
1792.000000	0.277682
1793.000000	0.277671
1794.000000	0.277635
1795.000000	0.277577
1796.000000	0.277310
1797.000000	0.277212
1798.000000	0.277131
1799.000000	0.277208
1800.000000	0.277613
1801.000000	0.277558
1802.000000	0.277487
1803.000000	0.276908
1804.000000	0.276833
1805.000000	0.277364
1806.000000	0.277078
1807.000000	0.276152
1808.000000	0.275916
1809.000000	0.275506
1810.000000	0.275162
1811.000000	0.275216
1812.000000	0.276070
1813.000000	0.276446
1814.000000	0.276984
1815.000000	0.276970
1816.000000	0.276982
1817.000000	0.276444
1818.000000	0.275092
1819.000000	0.273927
1820.000000	0.273304
1821.000000	0.272919
1822.000000	0.273274
1823.000000	0.274779
1824.000000	0.275555
1825.000000	0.276641
1826.000000	0.277406
1827.000000	0.278220
1828.000000	0.278125
1829.000000	0.277676
1830.000000	0.277051
1831.000000	0.276537
1832.000000	0.275240
1833.000000	0.274982
1834.000000	0.275365
1835.000000	0.275676
1836.000000	0.276590
1837.000000	0.276738
1838.000000	0.276582
1839.000000	0.276359
1840.000000	0.275550
1841.000000	0.274751
1842.000000	0.274116
1843.000000	0.273176
1844.000000	0.272936
1845.000000	0.272966
1846.000000	0.273315
1847.000000	0.274407
1848.000000	0.275078
1849.000000	0.275086
1850.000000	0.274343
1851.000000	0.274192
1852.000000	0.273826
1853.000000	0.273452
1854.000000	0.273244
1855.000000	0.272853
1856.000000	0.271802
1857.000000	0.271166
1858.000000	0.271481
1859.000000	0.271331
1860.000000	0.270622
1861.000000	0.269823
1862.000000	0.268898
1863.000000	0.267129
1864.000000	0.266165
1865.000000	0.265489
1866.000000	0.265118
1867.000000	0.265052
1868.000000	0.265084
1869.000000	0.264993
1870.000000	0.264921
1871.000000	0.264074
1872.000000	0.263162
1873.000000	0.262656
1874.000000	0.262580
1875.000000	0.261877
1876.000000	0.260824
1877.000000	0.259858
1878.000000	0.258303
1879.000000	0.256816
1880.000000	0.255264
1881.000000	0.253480
1882.000000	0.251962
1883.000000	0.250424
1884.000000	0.249226
1885.000000	0.248537
1886.000000	0.247272
1887.000000	0.246019
1888.000000	0.244351
1889.000000	0.242252
1890.000000	0.240438
1891.000000	0.238345
1892.000000	0.236420
1893.000000	0.234284
1894.000000	0.231736
1895.000000	0.229489
1896.000000	0.227693
1897.000000	0.225094
1898.000000	0.222822
1899.000000	0.221204
1900.000000	0.219284
1901.000000	0.218063
1902.000000	0.216091
1903.000000	0.213857
1904.000000	0.212096
1905.000000	0.209854
1906.000000	0.208031
1907.000000	0.206712
1908.000000	0.205759
1909.000000	0.204304
1910.000000	0.203190
1911.000000	0.202265
1912.000000	0.201199
1913.000000	0.200101
1914.000000	0.198925
1915.000000	0.197634
1916.000000	0.196487
1917.000000	0.195488
1918.000000	0.194810
1919.000000	0.193902
1920.000000	0.192940
1921.000000	0.192192
1922.000000	0.191611
1923.000000	0.191501
1924.000000	0.191511
1925.000000	0.190839
1926.000000	0.189768
1927.000000	0.189466
1928.000000	0.189207
1929.000000	0.189067
1930.000000	0.189794
1931.000000	0.190132
1932.000000	0.189203
1933.000000	0.188784
1934.000000	0.187927
1935.000000	0.187596
1936.000000	0.187978
1937.000000	0.188105
1938.000000	0.188208
1939.000000	0.188191
1940.000000	0.187982
1941.000000	0.187986
1942.000000	0.188180
1943.000000	0.188504
1944.000000	0.188621
1945.000000	0.188396
1946.000000	0.188261
1947.000000	0.187938
1948.000000	0.188233
1949.000000	0.188539
1950.000000	0.188187
1951.000000	0.187993
1952.000000	0.187830
1953.000000	0.187267
1954.000000	0.186939
1955.000000	0.186987
1956.000000	0.186820
1957.000000	0.186639
1958.000000	0.186398
1959.000000	0.186381
1960.000000	0.186488
1961.000000	0.186331
1962.000000	0.186007
1963.000000	0.185613
1964.000000	0.185171
1965.000000	0.184329
1966.000000	0.184014
1967.000000	0.184233
1968.000000	0.184134
1969.000000	0.184253
1970.000000	0.184429
1971.000000	0.184039
1972.000000	0.183895
1973.000000	0.183914
1974.000000	0.183953
1975.000000	0.184162
1976.000000	0.184725
1977.000000	0.185355
1978.000000	0.185820
1979.000000	0.186467
1980.000000	0.186652
1981.000000	0.186923
1982.000000	0.186831
1983.000000	0.186373
1984.000000	0.186374
1985.000000	0.186587
1986.000000	0.186683
1987.000000	0.186875
1988.000000	0.187478
1989.000000	0.187798
1990.000000	0.188124
1991.000000	0.188438
1992.000000	0.188786
1993.000000	0.188971
1994.000000	0.189189
1995.000000	0.189682
1996.000000	0.190008
1997.000000	0.190522
1998.000000	0.191509
1999.000000	0.192037
2000.000000	0.192302
2001.000000	0.192855
2002.000000	0.193142
2003.000000	0.193249
2004.000000	0.194032
2005.000000	0.194748
2006.000000	0.195526
2007.000000	0.196522
2008.000000	0.197229
2009.000000	0.197516
2010.000000	0.198109
2011.000000	0.198773
2012.000000	0.199375
2013.000000	0.199803
2014.000000	0.200726
2015.000000	0.201492
2016.000000	0.201634
2017.000000	0.202443
2018.000000	0.203028
2019.000000	0.203166
2020.000000	0.203923
2021.000000	0.204437
2022.000000	0.204584
2023.000000	0.204891
2024.000000	0.205431
2025.000000	0.205718
2026.000000	0.205404
2027.000000	0.205984
2028.000000	0.206817
2029.000000	0.207648
2030.000000	0.208755
2031.000000	0.209308
2032.000000	0.209419
2033.000000	0.209497
2034.000000	0.209527
2035.000000	0.209268
2036.000000	0.209409
2037.000000	0.209894
2038.000000	0.210356
2039.000000	0.210872
2040.000000	0.211988
2041.000000	0.212845
2042.000000	0.212881
2043.000000	0.213422
2044.000000	0.213846
2045.000000	0.214602
2046.000000	0.215274
2047.000000	0.215499
2048.000000	0.215310
2049.000000	0.215661
2050.000000	0.215259
2051.000000	0.215738
2052.000000	0.217172
2053.000000	0.217879
2054.000000	0.218650
2055.000000	0.219607
2056.000000	0.220037
2057.000000	0.221092
2058.000000	0.221900
2059.000000	0.222075
2060.000000	0.222299
2061.000000	0.222096
2062.000000	0.221953
2063.000000	0.221848
2064.000000	0.221820
2065.000000	0.221870
2066.000000	0.221976
2067.000000	0.222425
2068.000000	0.222652
2069.000000	0.223283
2070.000000	0.223956
2071.000000	0.224153
2072.000000	0.224482
2073.000000	0.224532
2074.000000	0.223959
2075.000000	0.223999
2076.000000	0.224244
2077.000000	0.224760
2078.000000	0.225845
2079.000000	0.226550
2080.000000	0.227373
2081.000000	0.227885
2082.000000	0.228111
2083.000000	0.228229
2084.000000	0.228302
2085.000000	0.228765
2086.000000	0.229440
2087.000000	0.230313
2088.000000	0.231563
2089.000000	0.233062
2090.000000	0.233789
2091.000000	0.234172
2092.000000	0.234408
2093.000000	0.234044
2094.000000	0.233933
2095.000000	0.233501
2096.000000	0.233778
2097.000000	0.234624
2098.000000	0.234837
2099.000000	0.235205
2100.000000	0.235933
2101.000000	0.235620
2102.000000	0.235802
2103.000000	0.236248
2104.000000	0.236649
2105.000000	0.237036
2106.000000	0.237347
2107.000000	0.237662
2108.000000	0.237995
2109.000000	0.238451
2110.000000	0.238833
2111.000000	0.239571
2112.000000	0.241037
2113.000000	0.240831
2114.000000	0.241358
2115.000000	0.241628
2116.000000	0.241323
2117.000000	0.242175
2118.000000	0.242966
2119.000000	0.242790
2120.000000	0.242582
2121.000000	0.241814
2122.000000	0.241337
2123.000000	0.240479
2124.000000	0.240437
2125.000000	0.240955
2126.000000	0.241020
2127.000000	0.241720
2128.000000	0.241741
2129.000000	0.240572
2130.000000	0.240521
2131.000000	0.240547
2132.000000	0.240189
2133.000000	0.241221
2134.000000	0.242088
2135.000000	0.242747
2136.000000	0.243739
2137.000000	0.244234
2138.000000	0.244508
2139.000000	0.244539
2140.000000	0.243940
2141.000000	0.243917
2142.000000	0.243724
2143.000000	0.243632
2144.000000	0.244584
2145.000000	0.244793
2146.000000	0.244426
2147.000000	0.244700
2148.000000	0.244947
2149.000000	0.244921
2150.000000	0.244300
2151.000000	0.243543
2152.000000	0.243487
2153.000000	0.242140
2154.000000	0.241841
2155.000000	0.242815
2156.000000	0.243107
2157.000000	0.243263
2158.000000	0.243533
2159.000000	0.243600
2160.000000	0.243880
2161.000000	0.244344
2162.000000	0.244743
2163.000000	0.245279
2164.000000	0.245793
2165.000000	0.246508
2166.000000	0.246472
2167.000000	0.246737
2168.000000	0.246423
2169.000000	0.245791
2170.000000	0.245315
2171.000000	0.245115
2172.000000	0.245344
2173.000000	0.245426
2174.000000	0.245313
2175.000000	0.245751
2176.000000	0.246346
2177.000000	0.246850
2178.000000	0.248360
2179.000000	0.248822
2180.000000	0.248374
2181.000000	0.248473
2182.000000	0.247654
2183.000000	0.247541
2184.000000	0.247319
2185.000000	0.247606
2186.000000	0.247135
2187.000000	0.246262
2188.000000	0.246181
2189.000000	0.244684
2190.000000	0.244134
2191.000000	0.245109
2192.000000	0.245386
2193.000000	0.246312
2194.000000	0.246389
2195.000000	0.245951
2196.000000	0.245551
2197.000000	0.244539
2198.000000	0.243466
2199.000000	0.242444
2200.000000	0.241192
2201.000000	0.238188
2202.000000	0.237314
2203.000000	0.237512
2204.000000	0.238500
2205.000000	0.239060
2206.000000	0.242520
2207.000000	0.244656
2208.000000	0.244758
2209.000000	0.245524
2210.000000	0.245196
2211.000000	0.242381
2212.000000	0.241225
2213.000000	0.241035
2214.000000	0.240719
2215.000000	0.241433
2216.000000	0.244766
2217.000000	0.246000
2218.000000	0.246950
2219.000000	0.247505
2220.000000	0.247663
2221.000000	0.247250
2222.000000	0.245150
2223.000000	0.244651
2224.000000	0.244504
2225.000000	0.244472
2226.000000	0.245381
2227.000000	0.247020
2228.000000	0.249996
2229.000000	0.250985
2230.000000	0.250254
2231.000000	0.249569
2232.000000	0.247691
2233.000000	0.247144
2234.000000	0.247888
2235.000000	0.249975
2236.000000	0.250335
2237.000000	0.249751
2238.000000	0.248834
2239.000000	0.246471
2240.000000	0.245702
2241.000000	0.244752
2242.000000	0.245523
2243.000000	0.248670
2244.000000	0.249843
2245.000000	0.251558
2246.000000	0.252600
2247.000000	0.252758
2248.000000	0.252393
2249.000000	0.252672
2250.000000	0.249675
2251.000000	0.246085
2252.000000	0.243385
2253.000000	0.243268
2254.000000	0.244746
2255.000000	0.245542
2256.000000	0.244779
2257.000000	0.242829
2258.000000	0.240358
2259.000000	0.240696
2260.000000	0.242596
2261.000000	0.243117
2262.000000	0.244507
2263.000000	0.244602
2264.000000	0.242894
2265.000000	0.242643
2266.000000	0.243051
2267.000000	0.242076
2268.000000	0.240228
2269.000000	0.240007
2270.000000	0.239639
2271.000000	0.240183
2272.000000	0.242836
2273.000000	0.244390
2274.000000	0.245937
2275.000000	0.245731
2276.000000	0.244073
2277.000000	0.243602
2278.000000	0.241932
2279.000000	0.242048
2280.000000	0.243700
2281.000000	0.243379
2282.000000	0.242432
2283.000000	0.242240
2284.000000	0.241623
2285.000000	0.240059
2286.000000	0.239288
2287.000000	0.237533
2288.000000	0.236288
2289.000000	0.235582
2290.000000	0.234416
2291.000000	0.235320
2292.000000	0.236056
2293.000000	0.237606
2294.000000	0.238044
2295.000000	0.238875
2296.000000	0.237562
2297.000000	0.233353
2298.000000	0.231240
2299.000000	0.228920
2300.000000	0.227326
2301.000000	0.227596
2302.000000	0.227023
2303.000000	0.225444
2304.000000	0.224565
2305.000000	0.224091
2306.000000	0.223561
2307.000000	0.222789
2308.000000	0.223769
2309.000000	0.224170
2310.000000	0.224714
2311.000000	0.224768
2312.000000	0.223454
2313.000000	0.222473
2314.000000	0.220357
2315.000000	0.219074
2316.000000	0.219675
2317.000000	0.220518
2318.000000	0.221892
2319.000000	0.224958
2320.000000	0.228484
2321.000000	0.228924
2322.000000	0.228703
2323.000000	0.226578
2324.000000	0.223552
2325.000000	0.223976
2326.000000	0.223687
2327.000000	0.223641
2328.000000	0.222441
2329.000000	0.219924
2330.000000	0.216872
2331.000000	0.215399
2332.000000	0.217622
2333.000000	0.218813
2334.000000	0.222423
2335.000000	0.223714
2336.000000	0.222357
2337.000000	0.221292
2338.000000	0.219514
2339.000000	0.217358
2340.000000	0.213532
2341.000000	0.213376
2342.000000	0.214705
2343.000000	0.216036
2344.000000	0.222305
2345.000000	0.223089
2346.000000	0.219735
2347.000000	0.217452
2348.000000	0.212650
2349.000000	0.210149
2350.000000	0.210689
2351.000000	0.211112
2352.000000	0.212476
2353.000000	0.214016
2354.000000	0.211319
2355.000000	0.207295
2356.000000	0.204250
2357.000000	0.200303
2358.000000	0.198183
2359.000000	0.201008
2360.000000	0.201207
2361.000000	0.199854
2362.000000	0.201399
2363.000000	0.202652
2364.000000	0.204444
2365.000000	0.206217
2366.000000	0.208330
2367.000000	0.208872
2368.000000	0.208457
2369.000000	0.211220
2370.000000	0.211866
2371.000000	0.210723
2372.000000	0.210242
2373.000000	0.209071
2374.000000	0.205606
2375.000000	0.201281
2376.000000	0.201925
2377.000000	0.203133
2378.000000	0.202526
2379.000000	0.200515
2380.000000	0.198035
2381.000000	0.193167
2382.000000	0.186794
2383.000000	0.185355
2384.000000	0.181679
2385.000000	0.179921
2386.000000	0.185240
2387.000000	0.189231
2388.000000	0.194744
2389.000000	0.196663
2390.000000	0.192980
2391.000000	0.193595
2392.000000	0.189513
2393.000000	0.188015
2394.000000	0.189992
2395.000000	0.182174
2396.000000	0.179583
2397.000000	0.177898
2398.000000	0.173895
2399.000000	0.177248
2400.000000	0.180392
2401.000000	0.187617
2402.000000	0.192982
2403.000000	0.196016
2404.000000	0.196714
2405.000000	0.184058
2406.000000	0.180691
2407.000000	0.179696
2408.000000	0.178702
2409.000000	0.187965
2410.000000	0.189036
2411.000000	0.192168
2412.000000	0.193465
2413.000000	0.187347
2414.000000	0.190941
2415.000000	0.188312
2416.000000	0.179637
2417.000000	0.183437
2418.000000	0.186087
2419.000000	0.185593
2420.000000	0.184914
2421.000000	0.178794
2422.000000	0.167540
2423.000000	0.156519
2424.000000	0.158807
2425.000000	0.160936
2426.000000	0.163274
2427.000000	0.177019
2428.000000	0.184707
2429.000000	0.189752
2430.000000	0.194012
2431.000000	0.186343
2432.000000	0.184513
2433.000000	0.186111
2434.000000	0.177984
2435.000000	0.177973
2436.000000	0.172430
2437.000000	0.166034
2438.000000	0.182740
2439.000000	0.183675
2440.000000	0.174311
2441.000000	0.176459
2442.000000	0.169009
2443.000000	0.172614
2444.000000	0.184410
2445.000000	0.189657
2446.000000	0.188849
2447.000000	0.179332
2448.000000	0.178188
2449.000000	0.170878
2450.000000	0.167316
2451.000000	0.171800
2452.000000	0.167494
2453.000000	0.172734
2454.000000	0.178375
2455.000000	0.189027
2456.000000	0.197894
2457.000000	0.205867
2458.000000	0.218975
2459.000000	0.199178
2460.000000	0.190222
2461.000000	0.183777
2462.000000	0.151939
2463.000000	0.151856
2464.000000	0.156572
2465.000000	0.153157
2466.000000	0.161266
2467.000000	0.159260
2468.000000	0.147847
2469.000000	0.144023
2470.000000	0.147381
2471.000000	0.168931
2472.000000	0.192004
2473.000000	0.184190
2474.000000	0.168941
2475.000000	0.152913
2476.000000	0.112133
2477.000000	0.100546
2478.000000	0.122326
2479.000000	0.112167
2480.000000	0.123507
2481.000000	0.123709
2482.000000	0.089856
2483.000000	0.109529
2484.000000	0.121044
2485.000000	0.150370
2486.000000	0.191963
2487.000000	0.177548
2488.000000	0.164729
2489.000000	0.138551
2490.000000	0.142063
2491.000000	0.182538
2492.000000	0.172372
2493.000000	0.161497
2494.000000	0.136452
2495.000000	0.055650
2496.000000	0.039146
2497.000000	0.043681
2498.000000	0.052532
2499.000000	0.103898
2500.000000	0.119299
