# Wavelength	SM1200H-60_HEX-20_FV7-20_00000.asd.rts.txt
350.000000	0.377001
351.000000	0.380753
352.000000	0.373000
353.000000	0.360307
354.000000	0.351152
355.000000	0.345984
356.000000	0.349378
357.000000	0.356071
358.000000	0.347455
359.000000	0.348002
360.000000	0.350575
361.000000	0.344044
362.000000	0.351436
363.000000	0.364995
364.000000	0.374712
365.000000	0.372154
366.000000	0.367099
367.000000	0.363970
368.000000	0.364303
369.000000	0.361060
370.000000	0.357489
371.000000	0.358694
372.000000	0.358056
373.000000	0.358578
374.000000	0.362517
375.000000	0.364765
376.000000	0.367191
377.000000	0.370129
378.000000	0.373379
379.000000	0.372740
380.000000	0.370019
381.000000	0.370099
382.000000	0.372809
383.000000	0.372807
384.000000	0.368679
385.000000	0.369002
386.000000	0.370794
387.000000	0.372533
388.000000	0.373636
389.000000	0.373132
390.000000	0.372749
391.000000	0.374344
392.000000	0.374404
393.000000	0.374869
394.000000	0.377077
395.000000	0.378286
396.000000	0.378037
397.000000	0.377157
398.000000	0.378390
399.000000	0.380172
400.000000	0.381340
401.000000	0.380691
402.000000	0.380195
403.000000	0.380673
404.000000	0.382145
405.000000	0.381156
406.000000	0.381264
407.000000	0.383244
408.000000	0.382627
409.000000	0.382282
410.000000	0.382865
411.000000	0.383863
412.000000	0.384668
413.000000	0.385322
414.000000	0.385902
415.000000	0.385167
416.000000	0.384825
417.000000	0.385709
418.000000	0.386487
419.000000	0.387166
420.000000	0.387633
421.000000	0.387649
422.000000	0.388177
423.000000	0.388882
424.000000	0.389216
425.000000	0.389591
426.000000	0.390177
427.000000	0.390813
428.000000	0.390416
429.000000	0.390382
430.000000	0.391093
431.000000	0.391664
432.000000	0.391817
433.000000	0.391779
434.000000	0.392211
435.000000	0.392655
436.000000	0.392909
437.000000	0.392880
438.000000	0.392844
439.000000	0.393199
440.000000	0.394005
441.000000	0.394111
442.000000	0.394410
443.000000	0.394797
444.000000	0.394771
445.000000	0.394832
446.000000	0.395228
447.000000	0.395770
448.000000	0.396084
449.000000	0.396636
450.000000	0.397483
451.000000	0.397158
452.000000	0.397048
453.000000	0.397460
454.000000	0.397906
455.000000	0.398176
456.000000	0.398542
457.000000	0.399160
458.000000	0.399354
459.000000	0.399553
460.000000	0.400174
461.000000	0.400334
462.000000	0.400470
463.000000	0.400622
464.000000	0.400907
465.000000	0.401118
466.000000	0.401199
467.000000	0.401405
468.000000	0.401719
469.000000	0.401978
470.000000	0.402253
471.000000	0.402436
472.000000	0.402569
473.000000	0.402720
474.000000	0.402777
475.000000	0.402916
476.000000	0.403334
477.000000	0.403713
478.000000	0.403817
479.000000	0.403965
480.000000	0.404143
481.000000	0.404220
482.000000	0.404462
483.000000	0.404755
484.000000	0.405132
485.000000	0.405385
486.000000	0.405700
487.000000	0.406056
488.000000	0.406320
489.000000	0.406524
490.000000	0.406772
491.000000	0.407162
492.000000	0.407639
493.000000	0.407889
494.000000	0.407965
495.000000	0.408217
496.000000	0.408701
497.000000	0.408891
498.000000	0.409041
499.000000	0.409358
500.000000	0.409705
501.000000	0.410095
502.000000	0.410496
503.000000	0.410735
504.000000	0.411001
505.000000	0.411286
506.000000	0.411562
507.000000	0.411851
508.000000	0.412140
509.000000	0.412386
510.000000	0.412724
511.000000	0.413043
512.000000	0.413340
513.000000	0.413600
514.000000	0.413934
515.000000	0.414339
516.000000	0.414670
517.000000	0.414891
518.000000	0.415184
519.000000	0.415535
520.000000	0.415839
521.000000	0.416156
522.000000	0.416504
523.000000	0.416816
524.000000	0.417077
525.000000	0.417317
526.000000	0.417668
527.000000	0.418042
528.000000	0.418244
529.000000	0.418242
530.000000	0.418478
531.000000	0.418875
532.000000	0.419194
533.000000	0.419440
534.000000	0.419746
535.000000	0.420095
536.000000	0.420381
537.000000	0.420626
538.000000	0.420873
539.000000	0.421165
540.000000	0.421551
541.000000	0.421894
542.000000	0.422126
543.000000	0.422267
544.000000	0.422510
545.000000	0.422817
546.000000	0.423094
547.000000	0.423324
548.000000	0.423620
549.000000	0.424056
550.000000	0.424440
551.000000	0.424822
552.000000	0.425218
553.000000	0.425503
554.000000	0.425777
555.000000	0.426129
556.000000	0.426545
557.000000	0.426813
558.000000	0.427099
559.000000	0.427513
560.000000	0.427784
561.000000	0.428030
562.000000	0.428323
563.000000	0.428624
564.000000	0.428991
565.000000	0.429310
566.000000	0.429559
567.000000	0.429840
568.000000	0.430169
569.000000	0.430483
570.000000	0.430815
571.000000	0.431150
572.000000	0.431473
573.000000	0.431771
574.000000	0.431981
575.000000	0.432144
576.000000	0.432473
577.000000	0.432806
578.000000	0.433085
579.000000	0.433363
580.000000	0.433671
581.000000	0.434004
582.000000	0.434313
583.000000	0.434626
584.000000	0.434930
585.000000	0.435197
586.000000	0.435470
587.000000	0.435752
588.000000	0.436025
589.000000	0.436179
590.000000	0.436350
591.000000	0.436613
592.000000	0.436855
593.000000	0.437144
594.000000	0.437467
595.000000	0.437734
596.000000	0.437935
597.000000	0.438163
598.000000	0.438395
599.000000	0.438531
600.000000	0.438701
601.000000	0.438913
602.000000	0.439201
603.000000	0.439381
604.000000	0.439434
605.000000	0.439565
606.000000	0.439737
607.000000	0.439924
608.000000	0.440088
609.000000	0.440299
610.000000	0.440528
611.000000	0.440724
612.000000	0.440908
613.000000	0.441054
614.000000	0.441198
615.000000	0.441327
616.000000	0.441428
617.000000	0.441488
618.000000	0.441645
619.000000	0.441789
620.000000	0.441902
621.000000	0.442083
622.000000	0.442220
623.000000	0.442328
624.000000	0.442424
625.000000	0.442429
626.000000	0.442494
627.000000	0.442671
628.000000	0.442875
629.000000	0.443082
630.000000	0.443153
631.000000	0.443320
632.000000	0.443432
633.000000	0.443555
634.000000	0.443737
635.000000	0.443872
636.000000	0.444035
637.000000	0.444224
638.000000	0.444354
639.000000	0.444500
640.000000	0.444690
641.000000	0.444674
642.000000	0.444728
643.000000	0.444853
644.000000	0.444975
645.000000	0.445113
646.000000	0.445271
647.000000	0.445398
648.000000	0.445458
649.000000	0.445620
650.000000	0.445841
651.000000	0.445874
652.000000	0.445963
653.000000	0.446161
654.000000	0.446315
655.000000	0.446480
656.000000	0.446684
657.000000	0.446856
658.000000	0.446998
659.000000	0.447171
660.000000	0.447346
661.000000	0.447398
662.000000	0.447466
663.000000	0.447615
664.000000	0.447715
665.000000	0.447860
666.000000	0.448031
667.000000	0.448154
668.000000	0.448329
669.000000	0.448470
670.000000	0.448554
671.000000	0.448678
672.000000	0.448844
673.000000	0.449024
674.000000	0.449188
675.000000	0.449320
676.000000	0.449430
677.000000	0.449561
678.000000	0.449678
679.000000	0.449835
680.000000	0.450040
681.000000	0.450077
682.000000	0.450212
683.000000	0.450391
684.000000	0.450584
685.000000	0.450743
686.000000	0.450895
687.000000	0.451019
688.000000	0.451171
689.000000	0.451345
690.000000	0.451550
691.000000	0.451643
692.000000	0.451692
693.000000	0.451814
694.000000	0.451931
695.000000	0.452026
696.000000	0.452119
697.000000	0.452246
698.000000	0.452410
699.000000	0.452562
700.000000	0.452680
701.000000	0.452796
702.000000	0.452946
703.000000	0.453081
704.000000	0.453103
705.000000	0.453189
706.000000	0.453306
707.000000	0.453469
708.000000	0.453636
709.000000	0.453793
710.000000	0.453957
711.000000	0.454087
712.000000	0.454225
713.000000	0.454400
714.000000	0.454519
715.000000	0.454647
716.000000	0.454783
717.000000	0.454866
718.000000	0.455013
719.000000	0.455141
720.000000	0.455212
721.000000	0.455384
722.000000	0.455502
723.000000	0.455607
724.000000	0.455733
725.000000	0.455801
726.000000	0.455931
727.000000	0.456068
728.000000	0.456145
729.000000	0.456238
730.000000	0.456337
731.000000	0.456442
732.000000	0.456581
733.000000	0.456771
734.000000	0.456844
735.000000	0.456856
736.000000	0.456996
737.000000	0.457116
738.000000	0.457088
739.000000	0.457116
740.000000	0.457124
741.000000	0.457226
742.000000	0.457325
743.000000	0.457350
744.000000	0.457379
745.000000	0.457402
746.000000	0.457485
747.000000	0.457560
748.000000	0.457682
749.000000	0.457799
750.000000	0.457830
751.000000	0.457835
752.000000	0.457878
753.000000	0.457964
754.000000	0.458006
755.000000	0.458104
756.000000	0.458218
757.000000	0.458222
758.000000	0.458230
759.000000	0.458277
760.000000	0.458299
761.000000	0.458457
762.000000	0.458622
763.000000	0.458723
764.000000	0.458837
765.000000	0.458889
766.000000	0.458907
767.000000	0.458936
768.000000	0.459044
769.000000	0.459097
770.000000	0.459066
771.000000	0.459048
772.000000	0.459070
773.000000	0.459073
774.000000	0.459155
775.000000	0.459207
776.000000	0.459258
777.000000	0.459313
778.000000	0.459373
779.000000	0.459431
780.000000	0.459480
781.000000	0.459481
782.000000	0.459441
783.000000	0.459505
784.000000	0.459561
785.000000	0.459619
786.000000	0.459623
787.000000	0.459571
788.000000	0.459606
789.000000	0.459644
790.000000	0.459639
791.000000	0.459633
792.000000	0.459644
793.000000	0.459666
794.000000	0.459685
795.000000	0.459638
796.000000	0.459593
797.000000	0.459598
798.000000	0.459696
799.000000	0.459771
800.000000	0.459812
801.000000	0.459837
802.000000	0.459756
803.000000	0.459728
804.000000	0.459825
805.000000	0.459722
806.000000	0.459622
807.000000	0.459636
808.000000	0.459611
809.000000	0.459653
810.000000	0.459741
811.000000	0.459819
812.000000	0.459878
813.000000	0.459900
814.000000	0.459920
815.000000	0.460048
816.000000	0.460066
817.000000	0.460001
818.000000	0.459831
819.000000	0.459790
820.000000	0.459838
821.000000	0.459849
822.000000	0.459820
823.000000	0.459763
824.000000	0.459636
825.000000	0.459563
826.000000	0.459528
827.000000	0.459549
828.000000	0.459650
829.000000	0.459614
830.000000	0.459586
831.000000	0.459642
832.000000	0.459581
833.000000	0.459500
834.000000	0.459386
835.000000	0.459271
836.000000	0.459163
837.000000	0.458993
838.000000	0.458831
839.000000	0.458789
840.000000	0.458837
841.000000	0.458903
842.000000	0.458866
843.000000	0.458780
844.000000	0.458658
845.000000	0.458511
846.000000	0.458461
847.000000	0.458503
848.000000	0.458503
849.000000	0.458396
850.000000	0.458369
851.000000	0.458360
852.000000	0.458371
853.000000	0.458338
854.000000	0.458268
855.000000	0.458270
856.000000	0.458198
857.000000	0.458086
858.000000	0.458005
859.000000	0.457856
860.000000	0.457610
861.000000	0.457451
862.000000	0.457450
863.000000	0.457489
864.000000	0.457455
865.000000	0.457393
866.000000	0.457339
867.000000	0.457146
868.000000	0.457100
869.000000	0.457079
870.000000	0.456980
871.000000	0.456891
872.000000	0.456687
873.000000	0.456311
874.000000	0.456197
875.000000	0.456058
876.000000	0.455937
877.000000	0.455867
878.000000	0.455621
879.000000	0.455432
880.000000	0.455249
881.000000	0.455136
882.000000	0.455034
883.000000	0.454873
884.000000	0.454532
885.000000	0.454436
886.000000	0.454380
887.000000	0.454269
888.000000	0.454208
889.000000	0.453919
890.000000	0.453492
891.000000	0.453427
892.000000	0.453261
893.000000	0.453069
894.000000	0.453042
895.000000	0.452908
896.000000	0.452595
897.000000	0.452285
898.000000	0.452197
899.000000	0.452129
900.000000	0.451962
901.000000	0.451683
902.000000	0.451612
903.000000	0.451593
904.000000	0.451539
905.000000	0.451262
906.000000	0.451016
907.000000	0.450739
908.000000	0.450505
909.000000	0.450276
910.000000	0.450038
911.000000	0.449845
912.000000	0.449751
913.000000	0.449634
914.000000	0.449540
915.000000	0.449488
916.000000	0.449241
917.000000	0.448977
918.000000	0.448770
919.000000	0.448592
920.000000	0.448346
921.000000	0.447998
922.000000	0.447636
923.000000	0.447364
924.000000	0.447168
925.000000	0.446975
926.000000	0.446800
927.000000	0.446675
928.000000	0.446331
929.000000	0.445861
930.000000	0.445497
931.000000	0.445400
932.000000	0.445261
933.000000	0.445037
934.000000	0.444841
935.000000	0.444519
936.000000	0.444272
937.000000	0.444078
938.000000	0.443630
939.000000	0.443343
940.000000	0.443128
941.000000	0.442827
942.000000	0.442403
943.000000	0.442159
944.000000	0.441968
945.000000	0.441483
946.000000	0.440956
947.000000	0.440569
948.000000	0.440318
949.000000	0.440032
950.000000	0.439900
951.000000	0.439809
952.000000	0.439539
953.000000	0.439249
954.000000	0.439096
955.000000	0.439023
956.000000	0.438873
957.000000	0.438695
958.000000	0.438393
959.000000	0.438040
960.000000	0.437805
961.000000	0.437529
962.000000	0.437223
963.000000	0.437190
964.000000	0.437013
965.000000	0.436726
966.000000	0.436340
967.000000	0.436271
968.000000	0.435964
969.000000	0.435503
970.000000	0.435396
971.000000	0.435126
972.000000	0.434972
973.000000	0.434884
974.000000	0.434629
975.000000	0.434470
976.000000	0.434450
977.000000	0.434485
978.000000	0.434311
979.000000	0.434390
980.000000	0.434140
981.000000	0.433465
982.000000	0.433419
983.000000	0.433201
984.000000	0.432782
985.000000	0.432801
986.000000	0.432559
987.000000	0.432207
988.000000	0.431878
989.000000	0.431915
990.000000	0.431845
991.000000	0.431725
992.000000	0.431785
993.000000	0.431746
994.000000	0.431505
995.000000	0.431413
996.000000	0.431467
997.000000	0.430936
998.000000	0.430697
999.000000	0.430991
1000.000000	0.430487
1001.000000	0.430383
1002.000000	0.430932
1003.000000	0.430860
1004.000000	0.430508
1005.000000	0.429722
1006.000000	0.429092
1007.000000	0.428162
1008.000000	0.427760
1009.000000	0.427632
1010.000000	0.427478
1011.000000	0.427992
1012.000000	0.427903
1013.000000	0.427408
1014.000000	0.427361
1015.000000	0.427213
1016.000000	0.427660
1017.000000	0.427543
1018.000000	0.427151
1019.000000	0.427196
1020.000000	0.427409
1021.000000	0.426830
1022.000000	0.426633
1023.000000	0.426769
1024.000000	0.426382
1025.000000	0.426195
1026.000000	0.426274
1027.000000	0.426038
1028.000000	0.426154
1029.000000	0.426216
1030.000000	0.426072
1031.000000	0.426411
1032.000000	0.427019
1033.000000	0.427209
1034.000000	0.427244
1035.000000	0.427546
1036.000000	0.427731
1037.000000	0.427292
1038.000000	0.427115
1039.000000	0.427525
1040.000000	0.427709
1041.000000	0.427307
1042.000000	0.427219
1043.000000	0.427678
1044.000000	0.428118
1045.000000	0.428296
1046.000000	0.428405
1047.000000	0.428569
1048.000000	0.428445
1049.000000	0.428279
1050.000000	0.428116
1051.000000	0.428227
1052.000000	0.428170
1053.000000	0.428181
1054.000000	0.429057
1055.000000	0.429328
1056.000000	0.429150
1057.000000	0.429021
1058.000000	0.429490
1059.000000	0.429657
1060.000000	0.429950
1061.000000	0.430697
1062.000000	0.430658
1063.000000	0.430158
1064.000000	0.430098
1065.000000	0.429864
1066.000000	0.430003
1067.000000	0.430653
1068.000000	0.430816
1069.000000	0.430846
1070.000000	0.430877
1071.000000	0.430437
1072.000000	0.430567
1073.000000	0.431231
1074.000000	0.431731
1075.000000	0.432263
1076.000000	0.433025
1077.000000	0.433016
1078.000000	0.433301
1079.000000	0.433439
1080.000000	0.433432
1081.000000	0.433496
1082.000000	0.433866
1083.000000	0.433782
1084.000000	0.433337
1085.000000	0.433435
1086.000000	0.433409
1087.000000	0.433646
1088.000000	0.434600
1089.000000	0.434881
1090.000000	0.434661
1091.000000	0.434606
1092.000000	0.434605
1093.000000	0.434688
1094.000000	0.434900
1095.000000	0.435418
1096.000000	0.435665
1097.000000	0.435648
1098.000000	0.436051
1099.000000	0.436708
1100.000000	0.437045
1101.000000	0.437496
1102.000000	0.437654
1103.000000	0.437264
1104.000000	0.437211
1105.000000	0.437100
1106.000000	0.437198
1107.000000	0.437496
1108.000000	0.437673
1109.000000	0.438124
1110.000000	0.438352
1111.000000	0.438473
1112.000000	0.438368
1113.000000	0.438492
1114.000000	0.438592
1115.000000	0.438817
1116.000000	0.439339
1117.000000	0.439475
1118.000000	0.439412
1119.000000	0.439374
1120.000000	0.438956
1121.000000	0.439019
1122.000000	0.439629
1123.000000	0.440154
1124.000000	0.440607
1125.000000	0.440951
1126.000000	0.441123
1127.000000	0.441072
1128.000000	0.440880
1129.000000	0.440506
1130.000000	0.440491
1131.000000	0.440469
1132.000000	0.440409
1133.000000	0.440716
1134.000000	0.440756
1135.000000	0.440361
1136.000000	0.440312
1137.000000	0.440477
1138.000000	0.440452
1139.000000	0.440505
1140.000000	0.440695
1141.000000	0.440783
1142.000000	0.440923
1143.000000	0.441298
1144.000000	0.441506
1145.000000	0.441087
1146.000000	0.441018
1147.000000	0.440995
1148.000000	0.440776
1149.000000	0.440722
1150.000000	0.441035
1151.000000	0.441019
1152.000000	0.440603
1153.000000	0.440620
1154.000000	0.440827
1155.000000	0.440769
1156.000000	0.440820
1157.000000	0.440756
1158.000000	0.440278
1159.000000	0.440052
1160.000000	0.439851
1161.000000	0.439790
1162.000000	0.439886
1163.000000	0.440290
1164.000000	0.440543
1165.000000	0.440630
1166.000000	0.440746
1167.000000	0.440704
1168.000000	0.440622
1169.000000	0.440548
1170.000000	0.440552
1171.000000	0.440499
1172.000000	0.440610
1173.000000	0.440903
1174.000000	0.440984
1175.000000	0.441013
1176.000000	0.440936
1177.000000	0.440679
1178.000000	0.440680
1179.000000	0.440866
1180.000000	0.440816
1181.000000	0.440942
1182.000000	0.440966
1183.000000	0.440717
1184.000000	0.440562
1185.000000	0.440511
1186.000000	0.440515
1187.000000	0.440496
1188.000000	0.440597
1189.000000	0.440511
1190.000000	0.440345
1191.000000	0.440298
1192.000000	0.440412
1193.000000	0.440530
1194.000000	0.440507
1195.000000	0.440561
1196.000000	0.440483
1197.000000	0.440544
1198.000000	0.440880
1199.000000	0.441019
1200.000000	0.441101
1201.000000	0.441125
1202.000000	0.441039
1203.000000	0.440869
1204.000000	0.440949
1205.000000	0.440903
1206.000000	0.440708
1207.000000	0.440505
1208.000000	0.440476
1209.000000	0.440511
1210.000000	0.440466
1211.000000	0.440635
1212.000000	0.440579
1213.000000	0.440203
1214.000000	0.440184
1215.000000	0.440282
1216.000000	0.440367
1217.000000	0.440691
1218.000000	0.440717
1219.000000	0.440524
1220.000000	0.440612
1221.000000	0.440592
1222.000000	0.440500
1223.000000	0.440609
1224.000000	0.440695
1225.000000	0.440685
1226.000000	0.440666
1227.000000	0.440556
1228.000000	0.440562
1229.000000	0.440513
1230.000000	0.440381
1231.000000	0.440280
1232.000000	0.440367
1233.000000	0.440494
1234.000000	0.440649
1235.000000	0.440709
1236.000000	0.440716
1237.000000	0.440725
1238.000000	0.440551
1239.000000	0.440462
1240.000000	0.440419
1241.000000	0.440224
1242.000000	0.440361
1243.000000	0.440483
1244.000000	0.440616
1245.000000	0.440894
1246.000000	0.440824
1247.000000	0.440769
1248.000000	0.440777
1249.000000	0.440680
1250.000000	0.440576
1251.000000	0.440640
1252.000000	0.440640
1253.000000	0.440680
1254.000000	0.440631
1255.000000	0.440549
1256.000000	0.440455
1257.000000	0.440330
1258.000000	0.440339
1259.000000	0.440363
1260.000000	0.440340
1261.000000	0.440180
1262.000000	0.440122
1263.000000	0.440108
1264.000000	0.440077
1265.000000	0.440144
1266.000000	0.440120
1267.000000	0.439927
1268.000000	0.439901
1269.000000	0.439949
1270.000000	0.440000
1271.000000	0.440000
1272.000000	0.439930
1273.000000	0.439979
1274.000000	0.440026
1275.000000	0.440011
1276.000000	0.440173
1277.000000	0.440216
1278.000000	0.439901
1279.000000	0.439797
1280.000000	0.439727
1281.000000	0.439527
1282.000000	0.439415
1283.000000	0.439343
1284.000000	0.438999
1285.000000	0.438907
1286.000000	0.438937
1287.000000	0.438976
1288.000000	0.439066
1289.000000	0.439024
1290.000000	0.438876
1291.000000	0.438764
1292.000000	0.438696
1293.000000	0.438794
1294.000000	0.438811
1295.000000	0.438688
1296.000000	0.438521
1297.000000	0.438363
1298.000000	0.438330
1299.000000	0.438347
1300.000000	0.438481
1301.000000	0.438613
1302.000000	0.438549
1303.000000	0.438516
1304.000000	0.438390
1305.000000	0.438266
1306.000000	0.438047
1307.000000	0.437764
1308.000000	0.437711
1309.000000	0.437652
1310.000000	0.437659
1311.000000	0.437962
1312.000000	0.438001
1313.000000	0.437863
1314.000000	0.437733
1315.000000	0.437522
1316.000000	0.437420
1317.000000	0.437401
1318.000000	0.437330
1319.000000	0.437107
1320.000000	0.436998
1321.000000	0.436757
1322.000000	0.436380
1323.000000	0.436299
1324.000000	0.436186
1325.000000	0.435961
1326.000000	0.435882
1327.000000	0.435643
1328.000000	0.435312
1329.000000	0.434994
1330.000000	0.434706
1331.000000	0.434416
1332.000000	0.434212
1333.000000	0.434011
1334.000000	0.433860
1335.000000	0.433778
1336.000000	0.433817
1337.000000	0.433584
1338.000000	0.433159
1339.000000	0.432826
1340.000000	0.432444
1341.000000	0.432138
1342.000000	0.432040
1343.000000	0.432022
1344.000000	0.431972
1345.000000	0.431903
1346.000000	0.431905
1347.000000	0.431754
1348.000000	0.431506
1349.000000	0.431224
1350.000000	0.431133
1351.000000	0.430940
1352.000000	0.430689
1353.000000	0.430416
1354.000000	0.430000
1355.000000	0.429708
1356.000000	0.429608
1357.000000	0.429422
1358.000000	0.429330
1359.000000	0.429171
1360.000000	0.428865
1361.000000	0.428453
1362.000000	0.428096
1363.000000	0.427599
1364.000000	0.427186
1365.000000	0.426858
1366.000000	0.426553
1367.000000	0.426254
1368.000000	0.425835
1369.000000	0.425644
1370.000000	0.425003
1371.000000	0.424283
1372.000000	0.423673
1373.000000	0.422846
1374.000000	0.421992
1375.000000	0.420930
1376.000000	0.419774
1377.000000	0.418316
1378.000000	0.416423
1379.000000	0.414392
1380.000000	0.411786
1381.000000	0.408682
1382.000000	0.405529
1383.000000	0.402051
1384.000000	0.398277
1385.000000	0.394649
1386.000000	0.391416
1387.000000	0.388591
1388.000000	0.386182
1389.000000	0.384471
1390.000000	0.383357
1391.000000	0.382532
1392.000000	0.382198
1393.000000	0.382169
1394.000000	0.382735
1395.000000	0.383183
1396.000000	0.384151
1397.000000	0.384437
1398.000000	0.384400
1399.000000	0.384260
1400.000000	0.383819
1401.000000	0.383225
1402.000000	0.382582
1403.000000	0.381839
1404.000000	0.380821
1405.000000	0.379576
1406.000000	0.378496
1407.000000	0.377485
1408.000000	0.376425
1409.000000	0.375623
1410.000000	0.374812
1411.000000	0.373901
1412.000000	0.373238
1413.000000	0.372690
1414.000000	0.372274
1415.000000	0.372160
1416.000000	0.371891
1417.000000	0.371680
1418.000000	0.371639
1419.000000	0.371505
1420.000000	0.371384
1421.000000	0.371444
1422.000000	0.371419
1423.000000	0.371431
1424.000000	0.371355
1425.000000	0.371358
1426.000000	0.371381
1427.000000	0.371441
1428.000000	0.371602
1429.000000	0.371612
1430.000000	0.371577
1431.000000	0.371519
1432.000000	0.371442
1433.000000	0.371360
1434.000000	0.371366
1435.000000	0.371527
1436.000000	0.371547
1437.000000	0.371581
1438.000000	0.371543
1439.000000	0.371417
1440.000000	0.371400
1441.000000	0.371476
1442.000000	0.371496
1443.000000	0.371425
1444.000000	0.371398
1445.000000	0.371396
1446.000000	0.371294
1447.000000	0.371205
1448.000000	0.370975
1449.000000	0.370622
1450.000000	0.370409
1451.000000	0.370291
1452.000000	0.370117
1453.000000	0.370045
1454.000000	0.369849
1455.000000	0.369513
1456.000000	0.369421
1457.000000	0.369255
1458.000000	0.369149
1459.000000	0.369255
1460.000000	0.369180
1461.000000	0.369228
1462.000000	0.369236
1463.000000	0.369031
1464.000000	0.369139
1465.000000	0.369338
1466.000000	0.369545
1467.000000	0.369898
1468.000000	0.370151
1469.000000	0.370464
1470.000000	0.370733
1471.000000	0.371109
1472.000000	0.371553
1473.000000	0.371950
1474.000000	0.372383
1475.000000	0.372758
1476.000000	0.373038
1477.000000	0.373395
1478.000000	0.373806
1479.000000	0.374344
1480.000000	0.374959
1481.000000	0.375445
1482.000000	0.375982
1483.000000	0.376463
1484.000000	0.376780
1485.000000	0.377220
1486.000000	0.377686
1487.000000	0.378240
1488.000000	0.378927
1489.000000	0.379539
1490.000000	0.380069
1491.000000	0.380548
1492.000000	0.380888
1493.000000	0.381269
1494.000000	0.381521
1495.000000	0.381895
1496.000000	0.382331
1497.000000	0.382776
1498.000000	0.383314
1499.000000	0.383825
1500.000000	0.384257
1501.000000	0.384578
1502.000000	0.384904
1503.000000	0.385310
1504.000000	0.385814
1505.000000	0.386278
1506.000000	0.386653
1507.000000	0.386970
1508.000000	0.387229
1509.000000	0.387525
1510.000000	0.387868
1511.000000	0.388314
1512.000000	0.388729
1513.000000	0.389040
1514.000000	0.389365
1515.000000	0.389622
1516.000000	0.389950
1517.000000	0.390248
1518.000000	0.390491
1519.000000	0.390729
1520.000000	0.390860
1521.000000	0.390979
1522.000000	0.391312
1523.000000	0.391583
1524.000000	0.391765
1525.000000	0.391993
1526.000000	0.392042
1527.000000	0.392087
1528.000000	0.392274
1529.000000	0.392457
1530.000000	0.392506
1531.000000	0.392713
1532.000000	0.392934
1533.000000	0.392966
1534.000000	0.393238
1535.000000	0.393563
1536.000000	0.393622
1537.000000	0.393924
1538.000000	0.394175
1539.000000	0.394080
1540.000000	0.394172
1541.000000	0.394462
1542.000000	0.394695
1543.000000	0.394889
1544.000000	0.395018
1545.000000	0.395081
1546.000000	0.395181
1547.000000	0.395388
1548.000000	0.395665
1549.000000	0.395834
1550.000000	0.395789
1551.000000	0.395801
1552.000000	0.395864
1553.000000	0.395930
1554.000000	0.396078
1555.000000	0.396161
1556.000000	0.396270
1557.000000	0.396400
1558.000000	0.396554
1559.000000	0.396728
1560.000000	0.396800
1561.000000	0.396925
1562.000000	0.396899
1563.000000	0.396721
1564.000000	0.396744
1565.000000	0.396813
1566.000000	0.396725
1567.000000	0.396778
1568.000000	0.396845
1569.000000	0.396889
1570.000000	0.396914
1571.000000	0.397020
1572.000000	0.397075
1573.000000	0.397065
1574.000000	0.397114
1575.000000	0.397230
1576.000000	0.397339
1577.000000	0.397409
1578.000000	0.397426
1579.000000	0.397523
1580.000000	0.397571
1581.000000	0.397654
1582.000000	0.397684
1583.000000	0.397685
1584.000000	0.397647
1585.000000	0.397612
1586.000000	0.397648
1587.000000	0.397741
1588.000000	0.397782
1589.000000	0.397877
1590.000000	0.397898
1591.000000	0.397832
1592.000000	0.397878
1593.000000	0.398009
1594.000000	0.398030
1595.000000	0.398147
1596.000000	0.398190
1597.000000	0.398113
1598.000000	0.398138
1599.000000	0.398286
1600.000000	0.398283
1601.000000	0.398303
1602.000000	0.398383
1603.000000	0.398461
1604.000000	0.398519
1605.000000	0.398733
1606.000000	0.398804
1607.000000	0.398797
1608.000000	0.398811
1609.000000	0.398897
1610.000000	0.398829
1611.000000	0.398667
1612.000000	0.398647
1613.000000	0.398735
1614.000000	0.398761
1615.000000	0.398964
1616.000000	0.399058
1617.000000	0.398959
1618.000000	0.398976
1619.000000	0.399037
1620.000000	0.399065
1621.000000	0.399094
1622.000000	0.399281
1623.000000	0.399462
1624.000000	0.399636
1625.000000	0.399767
1626.000000	0.399791
1627.000000	0.399763
1628.000000	0.399878
1629.000000	0.400011
1630.000000	0.400158
1631.000000	0.400254
1632.000000	0.400327
1633.000000	0.400409
1634.000000	0.400552
1635.000000	0.400800
1636.000000	0.400941
1637.000000	0.401090
1638.000000	0.401131
1639.000000	0.401138
1640.000000	0.401156
1641.000000	0.401193
1642.000000	0.401330
1643.000000	0.401554
1644.000000	0.401771
1645.000000	0.402103
1646.000000	0.402164
1647.000000	0.402125
1648.000000	0.402116
1649.000000	0.402059
1650.000000	0.402172
1651.000000	0.402524
1652.000000	0.402687
1653.000000	0.402712
1654.000000	0.402867
1655.000000	0.402889
1656.000000	0.402917
1657.000000	0.403172
1658.000000	0.403290
1659.000000	0.403400
1660.000000	0.403593
1661.000000	0.403747
1662.000000	0.403892
1663.000000	0.404031
1664.000000	0.404140
1665.000000	0.404193
1666.000000	0.404349
1667.000000	0.404466
1668.000000	0.404513
1669.000000	0.404495
1670.000000	0.404471
1671.000000	0.404527
1672.000000	0.404572
1673.000000	0.404627
1674.000000	0.404650
1675.000000	0.404606
1676.000000	0.404706
1677.000000	0.404733
1678.000000	0.404707
1679.000000	0.404860
1680.000000	0.404887
1681.000000	0.404987
1682.000000	0.405221
1683.000000	0.405368
1684.000000	0.405503
1685.000000	0.405647
1686.000000	0.405704
1687.000000	0.405684
1688.000000	0.405490
1689.000000	0.405334
1690.000000	0.405131
1691.000000	0.404973
1692.000000	0.404942
1693.000000	0.405017
1694.000000	0.405059
1695.000000	0.405201
1696.000000	0.405380
1697.000000	0.405428
1698.000000	0.405501
1699.000000	0.405621
1700.000000	0.405711
1701.000000	0.405878
1702.000000	0.405872
1703.000000	0.405896
1704.000000	0.406090
1705.000000	0.406129
1706.000000	0.406173
1707.000000	0.406206
1708.000000	0.406064
1709.000000	0.405917
1710.000000	0.405915
1711.000000	0.405930
1712.000000	0.405953
1713.000000	0.405949
1714.000000	0.406053
1715.000000	0.406097
1716.000000	0.406127
1717.000000	0.406094
1718.000000	0.405923
1719.000000	0.405857
1720.000000	0.405819
1721.000000	0.405854
1722.000000	0.406085
1723.000000	0.406161
1724.000000	0.406206
1725.000000	0.406269
1726.000000	0.406160
1727.000000	0.406140
1728.000000	0.406120
1729.000000	0.405980
1730.000000	0.405956
1731.000000	0.405884
1732.000000	0.405697
1733.000000	0.405778
1734.000000	0.405863
1735.000000	0.405851
1736.000000	0.405876
1737.000000	0.405830
1738.000000	0.405614
1739.000000	0.405649
1740.000000	0.405832
1741.000000	0.405840
1742.000000	0.405869
1743.000000	0.405965
1744.000000	0.405995
1745.000000	0.405944
1746.000000	0.405914
1747.000000	0.405920
1748.000000	0.405802
1749.000000	0.405691
1750.000000	0.405640
1751.000000	0.405703
1752.000000	0.405814
1753.000000	0.405889
1754.000000	0.405959
1755.000000	0.405952
1756.000000	0.405841
1757.000000	0.405655
1758.000000	0.405573
1759.000000	0.405449
1760.000000	0.405276
1761.000000	0.405095
1762.000000	0.404946
1763.000000	0.404633
1764.000000	0.404584
1765.000000	0.404853
1766.000000	0.404848
1767.000000	0.404647
1768.000000	0.404567
1769.000000	0.404469
1770.000000	0.404537
1771.000000	0.404830
1772.000000	0.404916
1773.000000	0.404877
1774.000000	0.404837
1775.000000	0.404801
1776.000000	0.404760
1777.000000	0.404600
1778.000000	0.404545
1779.000000	0.404533
1780.000000	0.404508
1781.000000	0.404498
1782.000000	0.404451
1783.000000	0.404400
1784.000000	0.404427
1785.000000	0.404356
1786.000000	0.404346
1787.000000	0.404452
1788.000000	0.404591
1789.000000	0.404768
1790.000000	0.404738
1791.000000	0.404682
1792.000000	0.404502
1793.000000	0.404462
1794.000000	0.404633
1795.000000	0.404726
1796.000000	0.404829
1797.000000	0.404911
1798.000000	0.404958
1799.000000	0.404913
1800.000000	0.404867
1801.000000	0.404727
1802.000000	0.404743
1803.000000	0.405268
1804.000000	0.405488
1805.000000	0.406171
1806.000000	0.406656
1807.000000	0.406961
1808.000000	0.407036
1809.000000	0.406866
1810.000000	0.407505
1811.000000	0.407086
1812.000000	0.405730
1813.000000	0.405294
1814.000000	0.404971
1815.000000	0.404581
1816.000000	0.404503
1817.000000	0.404312
1818.000000	0.404045
1819.000000	0.403831
1820.000000	0.404129
1821.000000	0.404275
1822.000000	0.404410
1823.000000	0.404575
1824.000000	0.404404
1825.000000	0.403890
1826.000000	0.403655
1827.000000	0.402858
1828.000000	0.402730
1829.000000	0.403302
1830.000000	0.403831
1831.000000	0.403997
1832.000000	0.404436
1833.000000	0.404500
1834.000000	0.403769
1835.000000	0.403586
1836.000000	0.403924
1837.000000	0.403592
1838.000000	0.402707
1839.000000	0.402190
1840.000000	0.401085
1841.000000	0.399938
1842.000000	0.399539
1843.000000	0.399652
1844.000000	0.399631
1845.000000	0.400136
1846.000000	0.400264
1847.000000	0.400160
1848.000000	0.399665
1849.000000	0.399229
1850.000000	0.398578
1851.000000	0.397935
1852.000000	0.396955
1853.000000	0.396249
1854.000000	0.395286
1855.000000	0.394651
1856.000000	0.394188
1857.000000	0.393524
1858.000000	0.393080
1859.000000	0.392129
1860.000000	0.390098
1861.000000	0.389162
1862.000000	0.387910
1863.000000	0.386597
1864.000000	0.385192
1865.000000	0.383870
1866.000000	0.382206
1867.000000	0.379929
1868.000000	0.378654
1869.000000	0.376777
1870.000000	0.374712
1871.000000	0.373124
1872.000000	0.370613
1873.000000	0.368235
1874.000000	0.366067
1875.000000	0.363390
1876.000000	0.360162
1877.000000	0.356415
1878.000000	0.352439
1879.000000	0.348202
1880.000000	0.344120
1881.000000	0.340180
1882.000000	0.335548
1883.000000	0.330547
1884.000000	0.325460
1885.000000	0.319268
1886.000000	0.313599
1887.000000	0.307874
1888.000000	0.302387
1889.000000	0.297322
1890.000000	0.292616
1891.000000	0.288032
1892.000000	0.283256
1893.000000	0.278295
1894.000000	0.273259
1895.000000	0.268271
1896.000000	0.263340
1897.000000	0.258925
1898.000000	0.254428
1899.000000	0.250307
1900.000000	0.246799
1901.000000	0.243682
1902.000000	0.241108
1903.000000	0.238906
1904.000000	0.236566
1905.000000	0.234076
1906.000000	0.232095
1907.000000	0.230058
1908.000000	0.228751
1909.000000	0.228721
1910.000000	0.228970
1911.000000	0.228976
1912.000000	0.228988
1913.000000	0.228684
1914.000000	0.228089
1915.000000	0.227877
1916.000000	0.228122
1917.000000	0.228173
1918.000000	0.228217
1919.000000	0.228554
1920.000000	0.228947
1921.000000	0.229069
1922.000000	0.229572
1923.000000	0.230377
1924.000000	0.230729
1925.000000	0.231087
1926.000000	0.231823
1927.000000	0.232775
1928.000000	0.233374
1929.000000	0.234163
1930.000000	0.234763
1931.000000	0.235445
1932.000000	0.236002
1933.000000	0.236391
1934.000000	0.237007
1935.000000	0.237092
1936.000000	0.236744
1937.000000	0.236809
1938.000000	0.237591
1939.000000	0.238191
1940.000000	0.239071
1941.000000	0.239385
1942.000000	0.239470
1943.000000	0.239414
1944.000000	0.239880
1945.000000	0.240428
1946.000000	0.241255
1947.000000	0.242078
1948.000000	0.241757
1949.000000	0.241638
1950.000000	0.241721
1951.000000	0.241751
1952.000000	0.241691
1953.000000	0.242022
1954.000000	0.242494
1955.000000	0.242934
1956.000000	0.243288
1957.000000	0.243745
1958.000000	0.244125
1959.000000	0.244085
1960.000000	0.243738
1961.000000	0.243022
1962.000000	0.242794
1963.000000	0.242594
1964.000000	0.242778
1965.000000	0.242757
1966.000000	0.243461
1967.000000	0.244090
1968.000000	0.244246
1969.000000	0.244871
1970.000000	0.245287
1971.000000	0.244896
1972.000000	0.244972
1973.000000	0.245325
1974.000000	0.246167
1975.000000	0.246805
1976.000000	0.247810
1977.000000	0.248487
1978.000000	0.248969
1979.000000	0.249603
1980.000000	0.250130
1981.000000	0.251094
1982.000000	0.252049
1983.000000	0.252498
1984.000000	0.253072
1985.000000	0.253634
1986.000000	0.254155
1987.000000	0.254360
1988.000000	0.255506
1989.000000	0.256835
1990.000000	0.258281
1991.000000	0.260017
1992.000000	0.261523
1993.000000	0.263152
1994.000000	0.264494
1995.000000	0.264917
1996.000000	0.265501
1997.000000	0.266010
1998.000000	0.265704
1999.000000	0.266139
2000.000000	0.267229
2001.000000	0.268002
2002.000000	0.268360
2003.000000	0.269287
2004.000000	0.270206
2005.000000	0.271372
2006.000000	0.272697
2007.000000	0.273846
2008.000000	0.275039
2009.000000	0.275908
2010.000000	0.276947
2011.000000	0.278392
2012.000000	0.279328
2013.000000	0.279844
2014.000000	0.280439
2015.000000	0.281094
2016.000000	0.281478
2017.000000	0.282332
2018.000000	0.283881
2019.000000	0.285241
2020.000000	0.286455
2021.000000	0.287491
2022.000000	0.288128
2023.000000	0.288873
2024.000000	0.289418
2025.000000	0.290450
2026.000000	0.291608
2027.000000	0.292984
2028.000000	0.293985
2029.000000	0.294862
2030.000000	0.295449
2031.000000	0.296070
2032.000000	0.297600
2033.000000	0.298632
2034.000000	0.299526
2035.000000	0.300524
2036.000000	0.301244
2037.000000	0.301709
2038.000000	0.302499
2039.000000	0.303416
2040.000000	0.304424
2041.000000	0.305166
2042.000000	0.305763
2043.000000	0.306380
2044.000000	0.306336
2045.000000	0.306670
2046.000000	0.307172
2047.000000	0.307796
2048.000000	0.308595
2049.000000	0.309546
2050.000000	0.310335
2051.000000	0.310913
2052.000000	0.311521
2053.000000	0.312014
2054.000000	0.312563
2055.000000	0.313010
2056.000000	0.313621
2057.000000	0.313615
2058.000000	0.314010
2059.000000	0.315284
2060.000000	0.316224
2061.000000	0.317743
2062.000000	0.318551
2063.000000	0.318824
2064.000000	0.319206
2065.000000	0.319895
2066.000000	0.319990
2067.000000	0.319832
2068.000000	0.320301
2069.000000	0.320173
2070.000000	0.320786
2071.000000	0.321720
2072.000000	0.322239
2073.000000	0.322749
2074.000000	0.322873
2075.000000	0.323632
2076.000000	0.324915
2077.000000	0.325782
2078.000000	0.327007
2079.000000	0.327511
2080.000000	0.327308
2081.000000	0.327387
2082.000000	0.326978
2083.000000	0.327429
2084.000000	0.328207
2085.000000	0.328859
2086.000000	0.329149
2087.000000	0.329294
2088.000000	0.330021
2089.000000	0.330176
2090.000000	0.330965
2091.000000	0.332884
2092.000000	0.334099
2093.000000	0.335166
2094.000000	0.336105
2095.000000	0.337077
2096.000000	0.337566
2097.000000	0.337592
2098.000000	0.337562
2099.000000	0.337030
2100.000000	0.336680
2101.000000	0.337110
2102.000000	0.338295
2103.000000	0.339598
2104.000000	0.340479
2105.000000	0.341195
2106.000000	0.341090
2107.000000	0.341598
2108.000000	0.342776
2109.000000	0.343327
2110.000000	0.343544
2111.000000	0.343785
2112.000000	0.343656
2113.000000	0.342748
2114.000000	0.343321
2115.000000	0.343725
2116.000000	0.343914
2117.000000	0.343893
2118.000000	0.343503
2119.000000	0.343328
2120.000000	0.343615
2121.000000	0.344604
2122.000000	0.345206
2123.000000	0.345824
2124.000000	0.346586
2125.000000	0.347325
2126.000000	0.348069
2127.000000	0.349264
2128.000000	0.350114
2129.000000	0.350769
2130.000000	0.351306
2131.000000	0.351001
2132.000000	0.350069
2133.000000	0.349454
2134.000000	0.349054
2135.000000	0.349136
2136.000000	0.349505
2137.000000	0.349574
2138.000000	0.349725
2139.000000	0.349488
2140.000000	0.348597
2141.000000	0.348680
2142.000000	0.348793
2143.000000	0.348720
2144.000000	0.349766
2145.000000	0.350209
2146.000000	0.349797
2147.000000	0.350779
2148.000000	0.351608
2149.000000	0.352286
2150.000000	0.353209
2151.000000	0.354154
2152.000000	0.354597
2153.000000	0.354631
2154.000000	0.354434
2155.000000	0.353493
2156.000000	0.353218
2157.000000	0.352895
2158.000000	0.353025
2159.000000	0.354171
2160.000000	0.354602
2161.000000	0.354695
2162.000000	0.354868
2163.000000	0.354381
2164.000000	0.354150
2165.000000	0.353699
2166.000000	0.354755
2167.000000	0.354697
2168.000000	0.354942
2169.000000	0.353951
2170.000000	0.351784
2171.000000	0.351134
2172.000000	0.350485
2173.000000	0.350197
2174.000000	0.351247
2175.000000	0.351657
2176.000000	0.351521
2177.000000	0.351862
2178.000000	0.353048
2179.000000	0.353461
2180.000000	0.353561
2181.000000	0.353691
2182.000000	0.352388
2183.000000	0.351924
2184.000000	0.351906
2185.000000	0.351898
2186.000000	0.353433
2187.000000	0.353710
2188.000000	0.354511
2189.000000	0.355381
2190.000000	0.354309
2191.000000	0.354004
2192.000000	0.353367
2193.000000	0.351366
2194.000000	0.350921
2195.000000	0.351518
2196.000000	0.351998
2197.000000	0.353172
2198.000000	0.354111
2199.000000	0.355322
2200.000000	0.356995
2201.000000	0.359960
2202.000000	0.360669
2203.000000	0.359943
2204.000000	0.359373
2205.000000	0.356742
2206.000000	0.355575
2207.000000	0.356187
2208.000000	0.355719
2209.000000	0.355663
2210.000000	0.355597
2211.000000	0.353605
2212.000000	0.351700
2213.000000	0.350061
2214.000000	0.347021
2215.000000	0.346089
2216.000000	0.346831
2217.000000	0.347229
2218.000000	0.348260
2219.000000	0.348691
2220.000000	0.349593
2221.000000	0.349901
2222.000000	0.349266
2223.000000	0.349622
2224.000000	0.350710
2225.000000	0.350263
2226.000000	0.350146
2227.000000	0.350313
2228.000000	0.351107
2229.000000	0.351388
2230.000000	0.350876
2231.000000	0.351142
2232.000000	0.349831
2233.000000	0.347342
2234.000000	0.347645
2235.000000	0.349589
2236.000000	0.350273
2237.000000	0.352800
2238.000000	0.352407
2239.000000	0.348567
2240.000000	0.347011
2241.000000	0.345096
2242.000000	0.343895
2243.000000	0.343430
2244.000000	0.344840
2245.000000	0.348295
2246.000000	0.349381
2247.000000	0.351409
2248.000000	0.351779
2249.000000	0.350065
2250.000000	0.347111
2251.000000	0.346289
2252.000000	0.346605
2253.000000	0.344598
2254.000000	0.344247
2255.000000	0.345188
2256.000000	0.344528
2257.000000	0.343805
2258.000000	0.343557
2259.000000	0.340969
2260.000000	0.337895
2261.000000	0.336597
2262.000000	0.335729
2263.000000	0.337097
2264.000000	0.341285
2265.000000	0.343214
2266.000000	0.347025
2267.000000	0.347198
2268.000000	0.343891
2269.000000	0.342121
2270.000000	0.338677
2271.000000	0.337406
2272.000000	0.338348
2273.000000	0.337328
2274.000000	0.336677
2275.000000	0.334704
2276.000000	0.331075
2277.000000	0.327091
2278.000000	0.324353
2279.000000	0.322732
2280.000000	0.320632
2281.000000	0.320433
2282.000000	0.318749
2283.000000	0.315988
2284.000000	0.314177
2285.000000	0.312307
2286.000000	0.311508
2287.000000	0.310392
2288.000000	0.308817
2289.000000	0.306143
2290.000000	0.303708
2291.000000	0.302628
2292.000000	0.301845
2293.000000	0.301370
2294.000000	0.300372
2295.000000	0.298864
2296.000000	0.297777
2297.000000	0.296220
2298.000000	0.295229
2299.000000	0.295109
2300.000000	0.293960
2301.000000	0.292973
2302.000000	0.291510
2303.000000	0.288567
2304.000000	0.286206
2305.000000	0.283754
2306.000000	0.281768
2307.000000	0.280778
2308.000000	0.278918
2309.000000	0.273954
2310.000000	0.271538
2311.000000	0.268987
2312.000000	0.267522
2313.000000	0.269119
2314.000000	0.268413
2315.000000	0.266856
2316.000000	0.267256
2317.000000	0.269810
2318.000000	0.274132
2319.000000	0.277653
2320.000000	0.278757
2321.000000	0.279551
2322.000000	0.279535
2323.000000	0.279556
2324.000000	0.281465
2325.000000	0.282309
2326.000000	0.283231
2327.000000	0.286266
2328.000000	0.288215
2329.000000	0.290865
2330.000000	0.294742
2331.000000	0.295865
2332.000000	0.297119
2333.000000	0.298608
2334.000000	0.297486
2335.000000	0.297400
2336.000000	0.298216
2337.000000	0.297443
2338.000000	0.294519
2339.000000	0.293603
2340.000000	0.292042
2341.000000	0.291648
2342.000000	0.294153
2343.000000	0.295276
2344.000000	0.296822
2345.000000	0.295735
2346.000000	0.290911
2347.000000	0.289853
2348.000000	0.288453
2349.000000	0.290725
2350.000000	0.292995
2351.000000	0.293353
2352.000000	0.291672
2353.000000	0.287053
2354.000000	0.280724
2355.000000	0.278334
2356.000000	0.276510
2357.000000	0.275927
2358.000000	0.279679
2359.000000	0.280042
2360.000000	0.278268
2361.000000	0.275936
2362.000000	0.271049
2363.000000	0.270657
2364.000000	0.271910
2365.000000	0.271828
2366.000000	0.275536
2367.000000	0.278306
2368.000000	0.278116
2369.000000	0.274532
2370.000000	0.267065
2371.000000	0.261091
2372.000000	0.257706
2373.000000	0.256538
2374.000000	0.256515
2375.000000	0.257446
2376.000000	0.257188
2377.000000	0.258406
2378.000000	0.263242
2379.000000	0.263164
2380.000000	0.259617
2381.000000	0.256291
2382.000000	0.251021
2383.000000	0.246473
2384.000000	0.247724
2385.000000	0.250916
2386.000000	0.248716
2387.000000	0.245620
2388.000000	0.240487
2389.000000	0.233189
2390.000000	0.229262
2391.000000	0.229879
2392.000000	0.236837
2393.000000	0.243875
2394.000000	0.250895
2395.000000	0.257244
2396.000000	0.255293
2397.000000	0.252239
2398.000000	0.249040
2399.000000	0.244382
2400.000000	0.240996
2401.000000	0.239867
2402.000000	0.243540
2403.000000	0.247922
2404.000000	0.253571
2405.000000	0.253776
2406.000000	0.251090
2407.000000	0.246716
2408.000000	0.241172
2409.000000	0.243146
2410.000000	0.241159
2411.000000	0.245626
2412.000000	0.248291
2413.000000	0.240118
2414.000000	0.240831
2415.000000	0.235185
2416.000000	0.233205
2417.000000	0.240117
2418.000000	0.237510
2419.000000	0.236564
2420.000000	0.229541
2421.000000	0.221477
2422.000000	0.223579
2423.000000	0.228947
2424.000000	0.241117
2425.000000	0.249747
2426.000000	0.252985
2427.000000	0.255960
2428.000000	0.250364
2429.000000	0.247195
2430.000000	0.241567
2431.000000	0.228408
2432.000000	0.221795
2433.000000	0.224948
2434.000000	0.234695
2435.000000	0.241958
2436.000000	0.246591
2437.000000	0.239567
2438.000000	0.230702
2439.000000	0.230339
2440.000000	0.232545
2441.000000	0.238953
2442.000000	0.231371
2443.000000	0.230764
2444.000000	0.233475
2445.000000	0.224750
2446.000000	0.228883
2447.000000	0.223251
2448.000000	0.221356
2449.000000	0.241531
2450.000000	0.265200
2451.000000	0.280070
2452.000000	0.269433
2453.000000	0.239048
2454.000000	0.209186
2455.000000	0.199053
2456.000000	0.207674
2457.000000	0.223524
2458.000000	0.236767
2459.000000	0.242773
2460.000000	0.237315
2461.000000	0.225820
2462.000000	0.209416
2463.000000	0.191582
2464.000000	0.186874
2465.000000	0.189618
2466.000000	0.200262
2467.000000	0.210569
2468.000000	0.218262
2469.000000	0.214946
2470.000000	0.222697
2471.000000	0.225655
2472.000000	0.211087
2473.000000	0.212750
2474.000000	0.200584
2475.000000	0.189522
2476.000000	0.183430
2477.000000	0.181423
2478.000000	0.192766
2479.000000	0.201731
2480.000000	0.228994
2481.000000	0.250875
2482.000000	0.232088
2483.000000	0.208429
2484.000000	0.193003
2485.000000	0.164272
2486.000000	0.156005
2487.000000	0.164197
2488.000000	0.156489
2489.000000	0.122053
2490.000000	0.086941
2491.000000	0.130967
2492.000000	0.148524
2493.000000	0.232053
2494.000000	0.265582
2495.000000	0.237564
2496.000000	0.200672
2497.000000	0.107009
2498.000000	0.079161
2499.000000	0.078634
2500.000000	0.068727
