# Wavelength	SM1200H-75-100_00000.asd.rts.txt
350.000000	0.588186
351.000000	0.575577
352.000000	0.563411
353.000000	0.558651
354.000000	0.564538
355.000000	0.562060
356.000000	0.562272
357.000000	0.569302
358.000000	0.573705
359.000000	0.571391
360.000000	0.568677
361.000000	0.571964
362.000000	0.576557
363.000000	0.580923
364.000000	0.583017
365.000000	0.583750
366.000000	0.582927
367.000000	0.581695
368.000000	0.584089
369.000000	0.588345
370.000000	0.591918
371.000000	0.592767
372.000000	0.596114
373.000000	0.599273
374.000000	0.601385
375.000000	0.603422
376.000000	0.605045
377.000000	0.606352
378.000000	0.608721
379.000000	0.610229
380.000000	0.610703
381.000000	0.612511
382.000000	0.613378
383.000000	0.614423
384.000000	0.616668
385.000000	0.617202
386.000000	0.618423
387.000000	0.621048
388.000000	0.623119
389.000000	0.624927
390.000000	0.626887
391.000000	0.628649
392.000000	0.629251
393.000000	0.629937
394.000000	0.631506
395.000000	0.632452
396.000000	0.633459
397.000000	0.634691
398.000000	0.635961
399.000000	0.636976
400.000000	0.638074
401.000000	0.639439
402.000000	0.639939
403.000000	0.640643
404.000000	0.642585
405.000000	0.643154
406.000000	0.643391
407.000000	0.644048
408.000000	0.644888
409.000000	0.645810
410.000000	0.646646
411.000000	0.647093
412.000000	0.647541
413.000000	0.648163
414.000000	0.649075
415.000000	0.650027
416.000000	0.650914
417.000000	0.651762
418.000000	0.652862
419.000000	0.653661
420.000000	0.654438
421.000000	0.656211
422.000000	0.657531
423.000000	0.658367
424.000000	0.659370
425.000000	0.660743
426.000000	0.662021
427.000000	0.662854
428.000000	0.663618
429.000000	0.664813
430.000000	0.666416
431.000000	0.667651
432.000000	0.668997
433.000000	0.670258
434.000000	0.671280
435.000000	0.672628
436.000000	0.674101
437.000000	0.675356
438.000000	0.676496
439.000000	0.677454
440.000000	0.678498
441.000000	0.679640
442.000000	0.680909
443.000000	0.682106
444.000000	0.683318
445.000000	0.684169
446.000000	0.685211
447.000000	0.686590
448.000000	0.687677
449.000000	0.688791
450.000000	0.690130
451.000000	0.691135
452.000000	0.692225
453.000000	0.693330
454.000000	0.694472
455.000000	0.695348
456.000000	0.696223
457.000000	0.697076
458.000000	0.697809
459.000000	0.698613
460.000000	0.699652
461.000000	0.699965
462.000000	0.700598
463.000000	0.701478
464.000000	0.701891
465.000000	0.702487
466.000000	0.703112
467.000000	0.703510
468.000000	0.704254
469.000000	0.704940
470.000000	0.705471
471.000000	0.705963
472.000000	0.706374
473.000000	0.706794
474.000000	0.707378
475.000000	0.707746
476.000000	0.708247
477.000000	0.709079
478.000000	0.709422
479.000000	0.709966
480.000000	0.710939
481.000000	0.711427
482.000000	0.712055
483.000000	0.712854
484.000000	0.713786
485.000000	0.714362
486.000000	0.714928
487.000000	0.715703
488.000000	0.716420
489.000000	0.717175
490.000000	0.718231
491.000000	0.719111
492.000000	0.719957
493.000000	0.720686
494.000000	0.721523
495.000000	0.722434
496.000000	0.723292
497.000000	0.724369
498.000000	0.725256
499.000000	0.726102
500.000000	0.727205
501.000000	0.728200
502.000000	0.729144
503.000000	0.730026
504.000000	0.730978
505.000000	0.731914
506.000000	0.732773
507.000000	0.733738
508.000000	0.734823
509.000000	0.735872
510.000000	0.736788
511.000000	0.737717
512.000000	0.738726
513.000000	0.739659
514.000000	0.740577
515.000000	0.741533
516.000000	0.742396
517.000000	0.743261
518.000000	0.744231
519.000000	0.745123
520.000000	0.745965
521.000000	0.746787
522.000000	0.747640
523.000000	0.748558
524.000000	0.749488
525.000000	0.750380
526.000000	0.751312
527.000000	0.752147
528.000000	0.752855
529.000000	0.753602
530.000000	0.754392
531.000000	0.755287
532.000000	0.756093
533.000000	0.756967
534.000000	0.757845
535.000000	0.758670
536.000000	0.759497
537.000000	0.760292
538.000000	0.761066
539.000000	0.761818
540.000000	0.762651
541.000000	0.763467
542.000000	0.764277
543.000000	0.765139
544.000000	0.766053
545.000000	0.766845
546.000000	0.767709
547.000000	0.768533
548.000000	0.769367
549.000000	0.770102
550.000000	0.770973
551.000000	0.771920
552.000000	0.772677
553.000000	0.773447
554.000000	0.774254
555.000000	0.775124
556.000000	0.776120
557.000000	0.776946
558.000000	0.777830
559.000000	0.778634
560.000000	0.779314
561.000000	0.780102
562.000000	0.780931
563.000000	0.781543
564.000000	0.782200
565.000000	0.782898
566.000000	0.783680
567.000000	0.784483
568.000000	0.785221
569.000000	0.785980
570.000000	0.786749
571.000000	0.787461
572.000000	0.788063
573.000000	0.788713
574.000000	0.789307
575.000000	0.789841
576.000000	0.790496
577.000000	0.791123
578.000000	0.791754
579.000000	0.792374
580.000000	0.792972
581.000000	0.793543
582.000000	0.794117
583.000000	0.794648
584.000000	0.795158
585.000000	0.795719
586.000000	0.796312
587.000000	0.796869
588.000000	0.797335
589.000000	0.797839
590.000000	0.798323
591.000000	0.798750
592.000000	0.799151
593.000000	0.799534
594.000000	0.799908
595.000000	0.800313
596.000000	0.800681
597.000000	0.801104
598.000000	0.801449
599.000000	0.801713
600.000000	0.802064
601.000000	0.802423
602.000000	0.802812
603.000000	0.803163
604.000000	0.803488
605.000000	0.803861
606.000000	0.804171
607.000000	0.804381
608.000000	0.804491
609.000000	0.804626
610.000000	0.804826
611.000000	0.805088
612.000000	0.805327
613.000000	0.805586
614.000000	0.805990
615.000000	0.806439
616.000000	0.806945
617.000000	0.807438
618.000000	0.808047
619.000000	0.808609
620.000000	0.809050
621.000000	0.809506
622.000000	0.809983
623.000000	0.810444
624.000000	0.810844
625.000000	0.811159
626.000000	0.811443
627.000000	0.811733
628.000000	0.812019
629.000000	0.812469
630.000000	0.812760
631.000000	0.813087
632.000000	0.813401
633.000000	0.813688
634.000000	0.813890
635.000000	0.813996
636.000000	0.814092
637.000000	0.814178
638.000000	0.814259
639.000000	0.814324
640.000000	0.814484
641.000000	0.814506
642.000000	0.814578
643.000000	0.814721
644.000000	0.814909
645.000000	0.815085
646.000000	0.815277
647.000000	0.815426
648.000000	0.815505
649.000000	0.815679
650.000000	0.815930
651.000000	0.816178
652.000000	0.816313
653.000000	0.816480
654.000000	0.816702
655.000000	0.816889
656.000000	0.817147
657.000000	0.817402
658.000000	0.817593
659.000000	0.817807
660.000000	0.818012
661.000000	0.818084
662.000000	0.818158
663.000000	0.818357
664.000000	0.818513
665.000000	0.818715
666.000000	0.818934
667.000000	0.819057
668.000000	0.819245
669.000000	0.819441
670.000000	0.819610
671.000000	0.819733
672.000000	0.819855
673.000000	0.819994
674.000000	0.820198
675.000000	0.820385
676.000000	0.820555
677.000000	0.820762
678.000000	0.820898
679.000000	0.821017
680.000000	0.821167
681.000000	0.821208
682.000000	0.821373
683.000000	0.821516
684.000000	0.821717
685.000000	0.821872
686.000000	0.822043
687.000000	0.822197
688.000000	0.822299
689.000000	0.822404
690.000000	0.822631
691.000000	0.822871
692.000000	0.822996
693.000000	0.823172
694.000000	0.823434
695.000000	0.823694
696.000000	0.823874
697.000000	0.823924
698.000000	0.824052
699.000000	0.824227
700.000000	0.824396
701.000000	0.824450
702.000000	0.824599
703.000000	0.824797
704.000000	0.824770
705.000000	0.824881
706.000000	0.825011
707.000000	0.825110
708.000000	0.825273
709.000000	0.825427
710.000000	0.825553
711.000000	0.825648
712.000000	0.825742
713.000000	0.825901
714.000000	0.826092
715.000000	0.826242
716.000000	0.826388
717.000000	0.826538
718.000000	0.826645
719.000000	0.826651
720.000000	0.826580
721.000000	0.826561
722.000000	0.826496
723.000000	0.826495
724.000000	0.826468
725.000000	0.826255
726.000000	0.826146
727.000000	0.826168
728.000000	0.826285
729.000000	0.826482
730.000000	0.826613
731.000000	0.826838
732.000000	0.826987
733.000000	0.827104
734.000000	0.827182
735.000000	0.827112
736.000000	0.827260
737.000000	0.827452
738.000000	0.827380
739.000000	0.827440
740.000000	0.827511
741.000000	0.827765
742.000000	0.828010
743.000000	0.828111
744.000000	0.828215
745.000000	0.828288
746.000000	0.828426
747.000000	0.828487
748.000000	0.828557
749.000000	0.828628
750.000000	0.828623
751.000000	0.828685
752.000000	0.828819
753.000000	0.829055
754.000000	0.829371
755.000000	0.829663
756.000000	0.829873
757.000000	0.829873
758.000000	0.829920
759.000000	0.830074
760.000000	0.830193
761.000000	0.830543
762.000000	0.830780
763.000000	0.830848
764.000000	0.831075
765.000000	0.831324
766.000000	0.831544
767.000000	0.831668
768.000000	0.831621
769.000000	0.831533
770.000000	0.831512
771.000000	0.831592
772.000000	0.831769
773.000000	0.831880
774.000000	0.832057
775.000000	0.832194
776.000000	0.832273
777.000000	0.832280
778.000000	0.832384
779.000000	0.832577
780.000000	0.832821
781.000000	0.832988
782.000000	0.833092
783.000000	0.833298
784.000000	0.833321
785.000000	0.833404
786.000000	0.833470
787.000000	0.833478
788.000000	0.833560
789.000000	0.833673
790.000000	0.833721
791.000000	0.833714
792.000000	0.833774
793.000000	0.833891
794.000000	0.834033
795.000000	0.834128
796.000000	0.834176
797.000000	0.834167
798.000000	0.834115
799.000000	0.834108
800.000000	0.834153
801.000000	0.834227
802.000000	0.834250
803.000000	0.834262
804.000000	0.834355
805.000000	0.834345
806.000000	0.834401
807.000000	0.834655
808.000000	0.834797
809.000000	0.834883
810.000000	0.834969
811.000000	0.835057
812.000000	0.835125
813.000000	0.835258
814.000000	0.835421
815.000000	0.835529
816.000000	0.835502
817.000000	0.835473
818.000000	0.835379
819.000000	0.835412
820.000000	0.835454
821.000000	0.835342
822.000000	0.835280
823.000000	0.835311
824.000000	0.835283
825.000000	0.835312
826.000000	0.835340
827.000000	0.835251
828.000000	0.835154
829.000000	0.835240
830.000000	0.835187
831.000000	0.835110
832.000000	0.834905
833.000000	0.834773
834.000000	0.834745
835.000000	0.834839
836.000000	0.834754
837.000000	0.834601
838.000000	0.834494
839.000000	0.834433
840.000000	0.834414
841.000000	0.834563
842.000000	0.834797
843.000000	0.834733
844.000000	0.834673
845.000000	0.834694
846.000000	0.834835
847.000000	0.835000
848.000000	0.835130
849.000000	0.835270
850.000000	0.835314
851.000000	0.835273
852.000000	0.835261
853.000000	0.835223
854.000000	0.835003
855.000000	0.835010
856.000000	0.835205
857.000000	0.835183
858.000000	0.835370
859.000000	0.835708
860.000000	0.835941
861.000000	0.836179
862.000000	0.836381
863.000000	0.836283
864.000000	0.836220
865.000000	0.836341
866.000000	0.836647
867.000000	0.836679
868.000000	0.836676
869.000000	0.836540
870.000000	0.836384
871.000000	0.836272
872.000000	0.836087
873.000000	0.835713
874.000000	0.835675
875.000000	0.835596
876.000000	0.835649
877.000000	0.835947
878.000000	0.835839
879.000000	0.835681
880.000000	0.835400
881.000000	0.835266
882.000000	0.835385
883.000000	0.835657
884.000000	0.835704
885.000000	0.835649
886.000000	0.835535
887.000000	0.835486
888.000000	0.835551
889.000000	0.835659
890.000000	0.835484
891.000000	0.835286
892.000000	0.835138
893.000000	0.835063
894.000000	0.835282
895.000000	0.835238
896.000000	0.835239
897.000000	0.835398
898.000000	0.835703
899.000000	0.835796
900.000000	0.835830
901.000000	0.835828
902.000000	0.835959
903.000000	0.836038
904.000000	0.836132
905.000000	0.836082
906.000000	0.836138
907.000000	0.836036
908.000000	0.835942
909.000000	0.835997
910.000000	0.836072
911.000000	0.836086
912.000000	0.836015
913.000000	0.835765
914.000000	0.835526
915.000000	0.835537
916.000000	0.835579
917.000000	0.835491
918.000000	0.835459
919.000000	0.835539
920.000000	0.835545
921.000000	0.835483
922.000000	0.835387
923.000000	0.835222
924.000000	0.834950
925.000000	0.834696
926.000000	0.834561
927.000000	0.834247
928.000000	0.834029
929.000000	0.833828
930.000000	0.833485
931.000000	0.833002
932.000000	0.832643
933.000000	0.832497
934.000000	0.832151
935.000000	0.831699
936.000000	0.831283
937.000000	0.830671
938.000000	0.829685
939.000000	0.828750
940.000000	0.827450
941.000000	0.825363
942.000000	0.822639
943.000000	0.819338
944.000000	0.815327
945.000000	0.811258
946.000000	0.807780
947.000000	0.805739
948.000000	0.805538
949.000000	0.806653
950.000000	0.808787
951.000000	0.811283
952.000000	0.813498
953.000000	0.815115
954.000000	0.815889
955.000000	0.815691
956.000000	0.815275
957.000000	0.814641
958.000000	0.814004
959.000000	0.813892
960.000000	0.813829
961.000000	0.813962
962.000000	0.814282
963.000000	0.814721
964.000000	0.815187
965.000000	0.815709
966.000000	0.815997
967.000000	0.816146
968.000000	0.816549
969.000000	0.817073
970.000000	0.817650
971.000000	0.817986
972.000000	0.818309
973.000000	0.818604
974.000000	0.819031
975.000000	0.819616
976.000000	0.820167
977.000000	0.820558
978.000000	0.821042
979.000000	0.821788
980.000000	0.822133
981.000000	0.822483
982.000000	0.822837
983.000000	0.823229
984.000000	0.823791
985.000000	0.824327
986.000000	0.824913
987.000000	0.825536
988.000000	0.825906
989.000000	0.826337
990.000000	0.826798
991.000000	0.827245
992.000000	0.827775
993.000000	0.828501
994.000000	0.828769
995.000000	0.829000
996.000000	0.829291
997.000000	0.829902
998.000000	0.830489
999.000000	0.831097
1000.000000	0.831733
1001.000000	0.830712
1002.000000	0.831150
1003.000000	0.831456
1004.000000	0.831565
1005.000000	0.831098
1006.000000	0.830940
1007.000000	0.830898
1008.000000	0.831119
1009.000000	0.831406
1010.000000	0.831237
1011.000000	0.831808
1012.000000	0.832584
1013.000000	0.832411
1014.000000	0.832571
1015.000000	0.832612
1016.000000	0.832687
1017.000000	0.833178
1018.000000	0.834120
1019.000000	0.834815
1020.000000	0.835928
1021.000000	0.835770
1022.000000	0.835348
1023.000000	0.835819
1024.000000	0.835742
1025.000000	0.836508
1026.000000	0.837062
1027.000000	0.836867
1028.000000	0.837021
1029.000000	0.837225
1030.000000	0.837294
1031.000000	0.838018
1032.000000	0.838376
1033.000000	0.837959
1034.000000	0.837953
1035.000000	0.838099
1036.000000	0.838310
1037.000000	0.838723
1038.000000	0.838671
1039.000000	0.838771
1040.000000	0.838901
1041.000000	0.838751
1042.000000	0.838952
1043.000000	0.839616
1044.000000	0.840375
1045.000000	0.840569
1046.000000	0.840387
1047.000000	0.840489
1048.000000	0.840178
1049.000000	0.840061
1050.000000	0.840169
1051.000000	0.840276
1052.000000	0.840157
1053.000000	0.840143
1054.000000	0.841015
1055.000000	0.841501
1056.000000	0.841968
1057.000000	0.842226
1058.000000	0.842283
1059.000000	0.841734
1060.000000	0.841815
1061.000000	0.842163
1062.000000	0.842123
1063.000000	0.842525
1064.000000	0.842897
1065.000000	0.843043
1066.000000	0.843236
1067.000000	0.843743
1068.000000	0.843781
1069.000000	0.843190
1070.000000	0.842977
1071.000000	0.842872
1072.000000	0.842802
1073.000000	0.842863
1074.000000	0.843448
1075.000000	0.843426
1076.000000	0.843259
1077.000000	0.843090
1078.000000	0.842668
1079.000000	0.842578
1080.000000	0.842889
1081.000000	0.842883
1082.000000	0.843153
1083.000000	0.843137
1084.000000	0.842898
1085.000000	0.842886
1086.000000	0.842784
1087.000000	0.842791
1088.000000	0.842718
1089.000000	0.842658
1090.000000	0.842609
1091.000000	0.842392
1092.000000	0.842201
1093.000000	0.842383
1094.000000	0.842165
1095.000000	0.841399
1096.000000	0.841461
1097.000000	0.841852
1098.000000	0.841979
1099.000000	0.842347
1100.000000	0.842612
1101.000000	0.842623
1102.000000	0.842363
1103.000000	0.841791
1104.000000	0.841655
1105.000000	0.841256
1106.000000	0.841117
1107.000000	0.841671
1108.000000	0.841639
1109.000000	0.841425
1110.000000	0.841187
1111.000000	0.840728
1112.000000	0.839829
1113.000000	0.839570
1114.000000	0.839527
1115.000000	0.839341
1116.000000	0.839544
1117.000000	0.839345
1118.000000	0.838725
1119.000000	0.838218
1120.000000	0.837692
1121.000000	0.837199
1122.000000	0.837021
1123.000000	0.837060
1124.000000	0.836698
1125.000000	0.836281
1126.000000	0.835582
1127.000000	0.834795
1128.000000	0.833905
1129.000000	0.833047
1130.000000	0.832009
1131.000000	0.830977
1132.000000	0.829597
1133.000000	0.828060
1134.000000	0.826624
1135.000000	0.825045
1136.000000	0.823244
1137.000000	0.821471
1138.000000	0.819337
1139.000000	0.816863
1140.000000	0.814882
1141.000000	0.812934
1142.000000	0.810905
1143.000000	0.808815
1144.000000	0.807030
1145.000000	0.804742
1146.000000	0.802433
1147.000000	0.800557
1148.000000	0.798594
1149.000000	0.797130
1150.000000	0.796106
1151.000000	0.795064
1152.000000	0.793904
1153.000000	0.793342
1154.000000	0.792943
1155.000000	0.792701
1156.000000	0.792936
1157.000000	0.793155
1158.000000	0.793200
1159.000000	0.793526
1160.000000	0.794076
1161.000000	0.794676
1162.000000	0.795581
1163.000000	0.796820
1164.000000	0.797466
1165.000000	0.798122
1166.000000	0.799001
1167.000000	0.799739
1168.000000	0.800313
1169.000000	0.801168
1170.000000	0.801828
1171.000000	0.802221
1172.000000	0.802832
1173.000000	0.803568
1174.000000	0.804120
1175.000000	0.804523
1176.000000	0.804794
1177.000000	0.805209
1178.000000	0.805470
1179.000000	0.805518
1180.000000	0.805486
1181.000000	0.805537
1182.000000	0.805527
1183.000000	0.805821
1184.000000	0.806203
1185.000000	0.806367
1186.000000	0.806574
1187.000000	0.806651
1188.000000	0.806471
1189.000000	0.806413
1190.000000	0.806572
1191.000000	0.806607
1192.000000	0.806788
1193.000000	0.807149
1194.000000	0.807250
1195.000000	0.807440
1196.000000	0.807589
1197.000000	0.807743
1198.000000	0.807998
1199.000000	0.808182
1200.000000	0.808249
1201.000000	0.808405
1202.000000	0.808628
1203.000000	0.808833
1204.000000	0.809074
1205.000000	0.809414
1206.000000	0.809509
1207.000000	0.809678
1208.000000	0.809722
1209.000000	0.809734
1210.000000	0.809869
1211.000000	0.810097
1212.000000	0.810189
1213.000000	0.810324
1214.000000	0.810568
1215.000000	0.810754
1216.000000	0.810903
1217.000000	0.811134
1218.000000	0.811221
1219.000000	0.811177
1220.000000	0.811239
1221.000000	0.811472
1222.000000	0.811648
1223.000000	0.811924
1224.000000	0.812185
1225.000000	0.812242
1226.000000	0.812378
1227.000000	0.812404
1228.000000	0.812483
1229.000000	0.812474
1230.000000	0.812349
1231.000000	0.812236
1232.000000	0.812427
1233.000000	0.812685
1234.000000	0.812957
1235.000000	0.813093
1236.000000	0.812903
1237.000000	0.813020
1238.000000	0.813128
1239.000000	0.813176
1240.000000	0.813356
1241.000000	0.813448
1242.000000	0.813272
1243.000000	0.813115
1244.000000	0.813150
1245.000000	0.813321
1246.000000	0.813411
1247.000000	0.813717
1248.000000	0.813960
1249.000000	0.814076
1250.000000	0.814224
1251.000000	0.814350
1252.000000	0.814317
1253.000000	0.814182
1254.000000	0.814052
1255.000000	0.813805
1256.000000	0.813617
1257.000000	0.813554
1258.000000	0.813472
1259.000000	0.813194
1260.000000	0.813088
1261.000000	0.812905
1262.000000	0.812623
1263.000000	0.812421
1264.000000	0.812101
1265.000000	0.811700
1266.000000	0.811246
1267.000000	0.810703
1268.000000	0.810026
1269.000000	0.809166
1270.000000	0.808487
1271.000000	0.807720
1272.000000	0.807073
1273.000000	0.806640
1274.000000	0.806098
1275.000000	0.805670
1276.000000	0.805421
1277.000000	0.805350
1278.000000	0.805134
1279.000000	0.805041
1280.000000	0.804979
1281.000000	0.804872
1282.000000	0.804940
1283.000000	0.805121
1284.000000	0.805293
1285.000000	0.805294
1286.000000	0.805182
1287.000000	0.805033
1288.000000	0.804852
1289.000000	0.804450
1290.000000	0.803911
1291.000000	0.803250
1292.000000	0.802549
1293.000000	0.801885
1294.000000	0.801167
1295.000000	0.800551
1296.000000	0.799918
1297.000000	0.799277
1298.000000	0.798884
1299.000000	0.798524
1300.000000	0.798225
1301.000000	0.797830
1302.000000	0.797268
1303.000000	0.796914
1304.000000	0.796336
1305.000000	0.795838
1306.000000	0.795177
1307.000000	0.794483
1308.000000	0.793811
1309.000000	0.793072
1310.000000	0.792285
1311.000000	0.791597
1312.000000	0.790617
1313.000000	0.789588
1314.000000	0.788491
1315.000000	0.787235
1316.000000	0.786154
1317.000000	0.784992
1318.000000	0.783684
1319.000000	0.782246
1320.000000	0.780783
1321.000000	0.779268
1322.000000	0.777681
1323.000000	0.776239
1324.000000	0.774937
1325.000000	0.773327
1326.000000	0.771620
1327.000000	0.769952
1328.000000	0.768231
1329.000000	0.766401
1330.000000	0.764655
1331.000000	0.762854
1332.000000	0.761029
1333.000000	0.759227
1334.000000	0.757542
1335.000000	0.755981
1336.000000	0.754473
1337.000000	0.752904
1338.000000	0.751267
1339.000000	0.749651
1340.000000	0.748033
1341.000000	0.746457
1342.000000	0.744923
1343.000000	0.743479
1344.000000	0.742064
1345.000000	0.740579
1346.000000	0.739360
1347.000000	0.737886
1348.000000	0.736423
1349.000000	0.735022
1350.000000	0.733640
1351.000000	0.732287
1352.000000	0.730918
1353.000000	0.729477
1354.000000	0.728123
1355.000000	0.726627
1356.000000	0.725167
1357.000000	0.723629
1358.000000	0.721874
1359.000000	0.720006
1360.000000	0.718070
1361.000000	0.716110
1362.000000	0.714000
1363.000000	0.711818
1364.000000	0.709501
1365.000000	0.707109
1366.000000	0.704346
1367.000000	0.701393
1368.000000	0.698028
1369.000000	0.694418
1370.000000	0.690213
1371.000000	0.685569
1372.000000	0.680435
1373.000000	0.674606
1374.000000	0.668095
1375.000000	0.660581
1376.000000	0.651964
1377.000000	0.641906
1378.000000	0.629974
1379.000000	0.616618
1380.000000	0.601549
1381.000000	0.584616
1382.000000	0.567120
1383.000000	0.548816
1384.000000	0.529966
1385.000000	0.512111
1386.000000	0.495469
1387.000000	0.480765
1388.000000	0.468567
1389.000000	0.458975
1390.000000	0.452302
1391.000000	0.448158
1392.000000	0.446413
1393.000000	0.446067
1394.000000	0.448729
1395.000000	0.450552
1396.000000	0.453857
1397.000000	0.455778
1398.000000	0.457672
1399.000000	0.458424
1400.000000	0.458451
1401.000000	0.457613
1402.000000	0.456021
1403.000000	0.453665
1404.000000	0.450918
1405.000000	0.447991
1406.000000	0.444962
1407.000000	0.442152
1408.000000	0.439603
1409.000000	0.437485
1410.000000	0.435856
1411.000000	0.434471
1412.000000	0.433428
1413.000000	0.432871
1414.000000	0.432697
1415.000000	0.432894
1416.000000	0.433303
1417.000000	0.433984
1418.000000	0.434934
1419.000000	0.436205
1420.000000	0.437643
1421.000000	0.439384
1422.000000	0.441195
1423.000000	0.443042
1424.000000	0.444896
1425.000000	0.446859
1426.000000	0.448829
1427.000000	0.450925
1428.000000	0.453085
1429.000000	0.455182
1430.000000	0.457305
1431.000000	0.459297
1432.000000	0.461242
1433.000000	0.463249
1434.000000	0.465126
1435.000000	0.467046
1436.000000	0.468859
1437.000000	0.470564
1438.000000	0.472171
1439.000000	0.473733
1440.000000	0.475216
1441.000000	0.476721
1442.000000	0.478109
1443.000000	0.479301
1444.000000	0.480436
1445.000000	0.481460
1446.000000	0.482274
1447.000000	0.483016
1448.000000	0.483693
1449.000000	0.484284
1450.000000	0.484763
1451.000000	0.485147
1452.000000	0.485390
1453.000000	0.485518
1454.000000	0.485547
1455.000000	0.485565
1456.000000	0.485722
1457.000000	0.485926
1458.000000	0.486142
1459.000000	0.486435
1460.000000	0.486796
1461.000000	0.487261
1462.000000	0.487928
1463.000000	0.488720
1464.000000	0.489635
1465.000000	0.490830
1466.000000	0.492130
1467.000000	0.493534
1468.000000	0.495234
1469.000000	0.497048
1470.000000	0.498825
1471.000000	0.500894
1472.000000	0.502970
1473.000000	0.505172
1474.000000	0.507395
1475.000000	0.509590
1476.000000	0.511877
1477.000000	0.514081
1478.000000	0.516289
1479.000000	0.518493
1480.000000	0.520552
1481.000000	0.522624
1482.000000	0.524763
1483.000000	0.526933
1484.000000	0.529129
1485.000000	0.531270
1486.000000	0.533402
1487.000000	0.535458
1488.000000	0.537464
1489.000000	0.539477
1490.000000	0.541240
1491.000000	0.543158
1492.000000	0.545044
1493.000000	0.546969
1494.000000	0.548900
1495.000000	0.550731
1496.000000	0.552493
1497.000000	0.554295
1498.000000	0.556103
1499.000000	0.557896
1500.000000	0.559720
1501.000000	0.561480
1502.000000	0.563136
1503.000000	0.564810
1504.000000	0.566478
1505.000000	0.568152
1506.000000	0.569896
1507.000000	0.571577
1508.000000	0.573367
1509.000000	0.575145
1510.000000	0.576675
1511.000000	0.578248
1512.000000	0.579763
1513.000000	0.581170
1514.000000	0.582696
1515.000000	0.584208
1516.000000	0.585779
1517.000000	0.587257
1518.000000	0.588650
1519.000000	0.589996
1520.000000	0.591341
1521.000000	0.592559
1522.000000	0.593929
1523.000000	0.595437
1524.000000	0.596753
1525.000000	0.598154
1526.000000	0.599471
1527.000000	0.600733
1528.000000	0.602093
1529.000000	0.603348
1530.000000	0.604482
1531.000000	0.605750
1532.000000	0.607020
1533.000000	0.608222
1534.000000	0.609468
1535.000000	0.610644
1536.000000	0.611716
1537.000000	0.613004
1538.000000	0.614259
1539.000000	0.615405
1540.000000	0.616657
1541.000000	0.617886
1542.000000	0.619089
1543.000000	0.620324
1544.000000	0.621477
1545.000000	0.622674
1546.000000	0.623928
1547.000000	0.625136
1548.000000	0.626360
1549.000000	0.627492
1550.000000	0.628476
1551.000000	0.629534
1552.000000	0.630636
1553.000000	0.631642
1554.000000	0.632623
1555.000000	0.633632
1556.000000	0.634625
1557.000000	0.635567
1558.000000	0.636518
1559.000000	0.637419
1560.000000	0.638214
1561.000000	0.638963
1562.000000	0.639678
1563.000000	0.640406
1564.000000	0.641153
1565.000000	0.641901
1566.000000	0.642508
1567.000000	0.643249
1568.000000	0.643914
1569.000000	0.644653
1570.000000	0.645332
1571.000000	0.645938
1572.000000	0.646556
1573.000000	0.647139
1574.000000	0.647739
1575.000000	0.648433
1576.000000	0.649090
1577.000000	0.649704
1578.000000	0.650247
1579.000000	0.650827
1580.000000	0.651418
1581.000000	0.652104
1582.000000	0.652768
1583.000000	0.653482
1584.000000	0.654042
1585.000000	0.654707
1586.000000	0.655339
1587.000000	0.655873
1588.000000	0.656407
1589.000000	0.656935
1590.000000	0.657483
1591.000000	0.658085
1592.000000	0.658695
1593.000000	0.659402
1594.000000	0.659967
1595.000000	0.660565
1596.000000	0.661122
1597.000000	0.661689
1598.000000	0.662219
1599.000000	0.662796
1600.000000	0.663227
1601.000000	0.663711
1602.000000	0.664151
1603.000000	0.664583
1604.000000	0.664979
1605.000000	0.665411
1606.000000	0.665771
1607.000000	0.666197
1608.000000	0.666523
1609.000000	0.666874
1610.000000	0.667176
1611.000000	0.667432
1612.000000	0.667726
1613.000000	0.668253
1614.000000	0.668608
1615.000000	0.669042
1616.000000	0.669487
1617.000000	0.669778
1618.000000	0.670066
1619.000000	0.670294
1620.000000	0.670592
1621.000000	0.670951
1622.000000	0.671386
1623.000000	0.671850
1624.000000	0.672228
1625.000000	0.672292
1626.000000	0.672377
1627.000000	0.672444
1628.000000	0.672683
1629.000000	0.672964
1630.000000	0.673250
1631.000000	0.673500
1632.000000	0.673679
1633.000000	0.673790
1634.000000	0.673988
1635.000000	0.674343
1636.000000	0.674566
1637.000000	0.674824
1638.000000	0.674947
1639.000000	0.675043
1640.000000	0.675163
1641.000000	0.675391
1642.000000	0.675552
1643.000000	0.675781
1644.000000	0.675950
1645.000000	0.675992
1646.000000	0.676111
1647.000000	0.676393
1648.000000	0.676507
1649.000000	0.676780
1650.000000	0.677014
1651.000000	0.677221
1652.000000	0.677497
1653.000000	0.677729
1654.000000	0.677977
1655.000000	0.678111
1656.000000	0.678072
1657.000000	0.678107
1658.000000	0.678142
1659.000000	0.678319
1660.000000	0.678518
1661.000000	0.678581
1662.000000	0.678680
1663.000000	0.678697
1664.000000	0.678768
1665.000000	0.678875
1666.000000	0.679134
1667.000000	0.679317
1668.000000	0.679443
1669.000000	0.679553
1670.000000	0.679563
1671.000000	0.679708
1672.000000	0.679805
1673.000000	0.679811
1674.000000	0.679813
1675.000000	0.679928
1676.000000	0.679894
1677.000000	0.679797
1678.000000	0.679641
1679.000000	0.679393
1680.000000	0.679217
1681.000000	0.679189
1682.000000	0.679236
1683.000000	0.679322
1684.000000	0.679334
1685.000000	0.679346
1686.000000	0.679258
1687.000000	0.679198
1688.000000	0.679086
1689.000000	0.679010
1690.000000	0.678820
1691.000000	0.678639
1692.000000	0.678385
1693.000000	0.678111
1694.000000	0.677845
1695.000000	0.677657
1696.000000	0.677484
1697.000000	0.677205
1698.000000	0.677038
1699.000000	0.676871
1700.000000	0.676626
1701.000000	0.676595
1702.000000	0.676298
1703.000000	0.675969
1704.000000	0.675897
1705.000000	0.675711
1706.000000	0.675501
1707.000000	0.675332
1708.000000	0.675094
1709.000000	0.674770
1710.000000	0.674687
1711.000000	0.674490
1712.000000	0.674242
1713.000000	0.673950
1714.000000	0.673697
1715.000000	0.673386
1716.000000	0.673012
1717.000000	0.672690
1718.000000	0.672282
1719.000000	0.671890
1720.000000	0.671730
1721.000000	0.671350
1722.000000	0.670806
1723.000000	0.670404
1724.000000	0.670033
1725.000000	0.669683
1726.000000	0.669288
1727.000000	0.668809
1728.000000	0.668115
1729.000000	0.667376
1730.000000	0.666845
1731.000000	0.666269
1732.000000	0.665694
1733.000000	0.665177
1734.000000	0.664389
1735.000000	0.663749
1736.000000	0.663059
1737.000000	0.662425
1738.000000	0.661921
1739.000000	0.661339
1740.000000	0.660697
1741.000000	0.660035
1742.000000	0.659387
1743.000000	0.658811
1744.000000	0.658213
1745.000000	0.657508
1746.000000	0.656773
1747.000000	0.656025
1748.000000	0.655161
1749.000000	0.654264
1750.000000	0.653370
1751.000000	0.652675
1752.000000	0.652126
1753.000000	0.651458
1754.000000	0.650740
1755.000000	0.649925
1756.000000	0.649043
1757.000000	0.648057
1758.000000	0.647158
1759.000000	0.646228
1760.000000	0.645292
1761.000000	0.644288
1762.000000	0.643327
1763.000000	0.642387
1764.000000	0.641495
1765.000000	0.640576
1766.000000	0.639766
1767.000000	0.638863
1768.000000	0.637971
1769.000000	0.637314
1770.000000	0.636735
1771.000000	0.636113
1772.000000	0.635516
1773.000000	0.634862
1774.000000	0.634378
1775.000000	0.634119
1776.000000	0.633720
1777.000000	0.633328
1778.000000	0.632884
1779.000000	0.632254
1780.000000	0.631846
1781.000000	0.631540
1782.000000	0.631101
1783.000000	0.630716
1784.000000	0.630367
1785.000000	0.629977
1786.000000	0.629743
1787.000000	0.629662
1788.000000	0.629491
1789.000000	0.629075
1790.000000	0.628702
1791.000000	0.628257
1792.000000	0.627961
1793.000000	0.627630
1794.000000	0.627274
1795.000000	0.626990
1796.000000	0.626666
1797.000000	0.626395
1798.000000	0.626218
1799.000000	0.625956
1800.000000	0.625723
1801.000000	0.626313
1802.000000	0.626018
1803.000000	0.625566
1804.000000	0.625463
1805.000000	0.625535
1806.000000	0.625631
1807.000000	0.626487
1808.000000	0.626318
1809.000000	0.625386
1810.000000	0.624609
1811.000000	0.624277
1812.000000	0.623519
1813.000000	0.623337
1814.000000	0.624490
1815.000000	0.624404
1816.000000	0.623710
1817.000000	0.622994
1818.000000	0.621959
1819.000000	0.621200
1820.000000	0.620546
1821.000000	0.619556
1822.000000	0.619178
1823.000000	0.619274
1824.000000	0.618553
1825.000000	0.617518
1826.000000	0.617014
1827.000000	0.615927
1828.000000	0.614985
1829.000000	0.615593
1830.000000	0.616069
1831.000000	0.615417
1832.000000	0.614138
1833.000000	0.613158
1834.000000	0.611117
1835.000000	0.610004
1836.000000	0.609782
1837.000000	0.609186
1838.000000	0.608543
1839.000000	0.607580
1840.000000	0.606279
1841.000000	0.604075
1842.000000	0.602409
1843.000000	0.600106
1844.000000	0.598697
1845.000000	0.597946
1846.000000	0.596924
1847.000000	0.595970
1848.000000	0.594705
1849.000000	0.592999
1850.000000	0.590689
1851.000000	0.588715
1852.000000	0.586466
1853.000000	0.584291
1854.000000	0.582222
1855.000000	0.579532
1856.000000	0.576352
1857.000000	0.572887
1858.000000	0.569288
1859.000000	0.565269
1860.000000	0.561057
1861.000000	0.556126
1862.000000	0.551173
1863.000000	0.545903
1864.000000	0.540788
1865.000000	0.535992
1866.000000	0.530395
1867.000000	0.524644
1868.000000	0.518001
1869.000000	0.510595
1870.000000	0.502832
1871.000000	0.494595
1872.000000	0.486487
1873.000000	0.477992
1874.000000	0.469345
1875.000000	0.460205
1876.000000	0.450825
1877.000000	0.439888
1878.000000	0.428655
1879.000000	0.417165
1880.000000	0.405053
1881.000000	0.393472
1882.000000	0.381822
1883.000000	0.369673
1884.000000	0.357725
1885.000000	0.345514
1886.000000	0.332942
1887.000000	0.319983
1888.000000	0.307332
1889.000000	0.293966
1890.000000	0.281876
1891.000000	0.270803
1892.000000	0.259329
1893.000000	0.248488
1894.000000	0.238158
1895.000000	0.228477
1896.000000	0.219169
1897.000000	0.210848
1898.000000	0.203330
1899.000000	0.196869
1900.000000	0.190990
1901.000000	0.186216
1902.000000	0.182870
1903.000000	0.180371
1904.000000	0.178388
1905.000000	0.176733
1906.000000	0.175708
1907.000000	0.175276
1908.000000	0.174961
1909.000000	0.175495
1910.000000	0.177044
1911.000000	0.178490
1912.000000	0.180501
1913.000000	0.182739
1914.000000	0.185085
1915.000000	0.187246
1916.000000	0.189535
1917.000000	0.191880
1918.000000	0.194442
1919.000000	0.196518
1920.000000	0.198893
1921.000000	0.201392
1922.000000	0.203905
1923.000000	0.206938
1924.000000	0.209869
1925.000000	0.212633
1926.000000	0.214888
1927.000000	0.216488
1928.000000	0.218214
1929.000000	0.219769
1930.000000	0.221274
1931.000000	0.222962
1932.000000	0.225002
1933.000000	0.226944
1934.000000	0.228604
1935.000000	0.230190
1936.000000	0.231711
1937.000000	0.233046
1938.000000	0.234509
1939.000000	0.235948
1940.000000	0.237406
1941.000000	0.238788
1942.000000	0.240331
1943.000000	0.241625
1944.000000	0.242761
1945.000000	0.243799
1946.000000	0.244600
1947.000000	0.245653
1948.000000	0.246939
1949.000000	0.248129
1950.000000	0.249418
1951.000000	0.250537
1952.000000	0.251677
1953.000000	0.252272
1954.000000	0.253211
1955.000000	0.254211
1956.000000	0.254951
1957.000000	0.256221
1958.000000	0.257334
1959.000000	0.258568
1960.000000	0.259773
1961.000000	0.260720
1962.000000	0.261781
1963.000000	0.262978
1964.000000	0.263892
1965.000000	0.264805
1966.000000	0.265999
1967.000000	0.267411
1968.000000	0.269066
1969.000000	0.270882
1970.000000	0.272691
1971.000000	0.274050
1972.000000	0.275271
1973.000000	0.276352
1974.000000	0.277077
1975.000000	0.278432
1976.000000	0.280093
1977.000000	0.281613
1978.000000	0.283366
1979.000000	0.285186
1980.000000	0.287105
1981.000000	0.289205
1982.000000	0.291282
1983.000000	0.293378
1984.000000	0.295224
1985.000000	0.296717
1986.000000	0.298430
1987.000000	0.300255
1988.000000	0.302066
1989.000000	0.303740
1990.000000	0.305022
1991.000000	0.306671
1992.000000	0.308313
1993.000000	0.310307
1994.000000	0.312827
1995.000000	0.314864
1996.000000	0.316651
1997.000000	0.318507
1998.000000	0.320269
1999.000000	0.322207
2000.000000	0.324140
2001.000000	0.326203
2002.000000	0.328648
2003.000000	0.330850
2004.000000	0.333108
2005.000000	0.335285
2006.000000	0.337307
2007.000000	0.339202
2008.000000	0.341121
2009.000000	0.342995
2010.000000	0.344865
2011.000000	0.346375
2012.000000	0.348192
2013.000000	0.350023
2014.000000	0.351791
2015.000000	0.353834
2016.000000	0.356027
2017.000000	0.357850
2018.000000	0.359393
2019.000000	0.361071
2020.000000	0.362628
2021.000000	0.364475
2022.000000	0.366597
2023.000000	0.368648
2024.000000	0.370951
2025.000000	0.373045
2026.000000	0.375009
2027.000000	0.376614
2028.000000	0.377903
2029.000000	0.379008
2030.000000	0.380286
2031.000000	0.381531
2032.000000	0.383282
2033.000000	0.385716
2034.000000	0.387514
2035.000000	0.389301
2036.000000	0.390804
2037.000000	0.392150
2038.000000	0.393543
2039.000000	0.394867
2040.000000	0.396408
2041.000000	0.398153
2042.000000	0.399604
2043.000000	0.401162
2044.000000	0.402824
2045.000000	0.404199
2046.000000	0.405559
2047.000000	0.406794
2048.000000	0.407778
2049.000000	0.409204
2050.000000	0.410208
2051.000000	0.411252
2052.000000	0.412401
2053.000000	0.413286
2054.000000	0.414296
2055.000000	0.415316
2056.000000	0.416371
2057.000000	0.417493
2058.000000	0.418584
2059.000000	0.420076
2060.000000	0.421308
2061.000000	0.422687
2062.000000	0.423771
2063.000000	0.424609
2064.000000	0.425356
2065.000000	0.426278
2066.000000	0.426991
2067.000000	0.427919
2068.000000	0.429130
2069.000000	0.429661
2070.000000	0.430537
2071.000000	0.431231
2072.000000	0.431747
2073.000000	0.432428
2074.000000	0.432820
2075.000000	0.433389
2076.000000	0.433767
2077.000000	0.434475
2078.000000	0.435568
2079.000000	0.436369
2080.000000	0.437261
2081.000000	0.438075
2082.000000	0.438880
2083.000000	0.439481
2084.000000	0.439729
2085.000000	0.440135
2086.000000	0.440649
2087.000000	0.441401
2088.000000	0.442129
2089.000000	0.442913
2090.000000	0.443799
2091.000000	0.444629
2092.000000	0.445464
2093.000000	0.446592
2094.000000	0.447587
2095.000000	0.448564
2096.000000	0.449351
2097.000000	0.449950
2098.000000	0.450622
2099.000000	0.450962
2100.000000	0.451362
2101.000000	0.451926
2102.000000	0.452780
2103.000000	0.453563
2104.000000	0.454298
2105.000000	0.455346
2106.000000	0.456572
2107.000000	0.457890
2108.000000	0.459809
2109.000000	0.461002
2110.000000	0.461554
2111.000000	0.462180
2112.000000	0.462390
2113.000000	0.462314
2114.000000	0.462154
2115.000000	0.462526
2116.000000	0.463341
2117.000000	0.463684
2118.000000	0.464230
2119.000000	0.465169
2120.000000	0.465805
2121.000000	0.465779
2122.000000	0.466635
2123.000000	0.468126
2124.000000	0.469049
2125.000000	0.470197
2126.000000	0.471091
2127.000000	0.471557
2128.000000	0.472371
2129.000000	0.473244
2130.000000	0.473931
2131.000000	0.474476
2132.000000	0.475379
2133.000000	0.476755
2134.000000	0.478057
2135.000000	0.479234
2136.000000	0.480287
2137.000000	0.480999
2138.000000	0.481183
2139.000000	0.481615
2140.000000	0.482018
2141.000000	0.482244
2142.000000	0.482112
2143.000000	0.482172
2144.000000	0.482590
2145.000000	0.483075
2146.000000	0.484224
2147.000000	0.485073
2148.000000	0.485174
2149.000000	0.485475
2150.000000	0.485531
2151.000000	0.485758
2152.000000	0.486103
2153.000000	0.485542
2154.000000	0.485255
2155.000000	0.484699
2156.000000	0.484357
2157.000000	0.483973
2158.000000	0.484185
2159.000000	0.484737
2160.000000	0.485289
2161.000000	0.486611
2162.000000	0.487405
2163.000000	0.487817
2164.000000	0.487946
2165.000000	0.487676
2166.000000	0.487398
2167.000000	0.487297
2168.000000	0.486957
2169.000000	0.487543
2170.000000	0.487836
2171.000000	0.487806
2172.000000	0.487866
2173.000000	0.487583
2174.000000	0.486644
2175.000000	0.486225
2176.000000	0.485637
2177.000000	0.485408
2178.000000	0.485689
2179.000000	0.485929
2180.000000	0.486489
2181.000000	0.487061
2182.000000	0.487221
2183.000000	0.486402
2184.000000	0.485134
2185.000000	0.483723
2186.000000	0.482753
2187.000000	0.482671
2188.000000	0.482609
2189.000000	0.482984
2190.000000	0.483265
2191.000000	0.483551
2192.000000	0.483027
2193.000000	0.482232
2194.000000	0.481166
2195.000000	0.478859
2196.000000	0.477402
2197.000000	0.476112
2198.000000	0.475319
2199.000000	0.475170
2200.000000	0.475025
2201.000000	0.475640
2202.000000	0.475993
2203.000000	0.476402
2204.000000	0.475765
2205.000000	0.474425
2206.000000	0.472936
2207.000000	0.472547
2208.000000	0.471665
2209.000000	0.470777
2210.000000	0.470745
2211.000000	0.468694
2212.000000	0.466849
2213.000000	0.465068
2214.000000	0.463249
2215.000000	0.462202
2216.000000	0.461413
2217.000000	0.460853
2218.000000	0.460944
2219.000000	0.460740
2220.000000	0.460910
2221.000000	0.460443
2222.000000	0.460116
2223.000000	0.458997
2224.000000	0.456989
2225.000000	0.454997
2226.000000	0.452725
2227.000000	0.451068
2228.000000	0.450805
2229.000000	0.448773
2230.000000	0.447013
2231.000000	0.446641
2232.000000	0.444362
2233.000000	0.442281
2234.000000	0.440268
2235.000000	0.437301
2236.000000	0.435625
2237.000000	0.434316
2238.000000	0.434373
2239.000000	0.435488
2240.000000	0.436567
2241.000000	0.438827
2242.000000	0.440319
2243.000000	0.442104
2244.000000	0.443424
2245.000000	0.445347
2246.000000	0.445243
2247.000000	0.442390
2248.000000	0.441039
2249.000000	0.439854
2250.000000	0.437468
2251.000000	0.436356
2252.000000	0.436285
2253.000000	0.435233
2254.000000	0.434840
2255.000000	0.434420
2256.000000	0.435372
2257.000000	0.435177
2258.000000	0.434985
2259.000000	0.434454
2260.000000	0.431723
2261.000000	0.429473
2262.000000	0.426616
2263.000000	0.423985
2264.000000	0.421070
2265.000000	0.419035
2266.000000	0.417060
2267.000000	0.415542
2268.000000	0.415011
2269.000000	0.413819
2270.000000	0.413474
2271.000000	0.411112
2272.000000	0.407575
2273.000000	0.404162
2274.000000	0.399702
2275.000000	0.395030
2276.000000	0.390604
2277.000000	0.384855
2278.000000	0.378195
2279.000000	0.372002
2280.000000	0.365414
2281.000000	0.360031
2282.000000	0.355399
2283.000000	0.349719
2284.000000	0.345686
2285.000000	0.340023
2286.000000	0.333674
2287.000000	0.328771
2288.000000	0.322652
2289.000000	0.317868
2290.000000	0.314011
2291.000000	0.310290
2292.000000	0.307844
2293.000000	0.305575
2294.000000	0.303650
2295.000000	0.302322
2296.000000	0.300909
2297.000000	0.299635
2298.000000	0.298296
2299.000000	0.298197
2300.000000	0.295850
2301.000000	0.292706
2302.000000	0.288798
2303.000000	0.283357
2304.000000	0.277245
2305.000000	0.269112
2306.000000	0.262881
2307.000000	0.256657
2308.000000	0.250473
2309.000000	0.246893
2310.000000	0.244234
2311.000000	0.240395
2312.000000	0.237427
2313.000000	0.235536
2314.000000	0.235218
2315.000000	0.235918
2316.000000	0.238985
2317.000000	0.243705
2318.000000	0.248670
2319.000000	0.255606
2320.000000	0.261821
2321.000000	0.266702
2322.000000	0.272339
2323.000000	0.278356
2324.000000	0.284453
2325.000000	0.291268
2326.000000	0.296557
2327.000000	0.300299
2328.000000	0.304789
2329.000000	0.308587
2330.000000	0.311162
2331.000000	0.314031
2332.000000	0.317983
2333.000000	0.320306
2334.000000	0.322288
2335.000000	0.324730
2336.000000	0.325414
2337.000000	0.327513
2338.000000	0.331971
2339.000000	0.333292
2340.000000	0.333928
2341.000000	0.333500
2342.000000	0.329762
2343.000000	0.328230
2344.000000	0.327582
2345.000000	0.326773
2346.000000	0.325988
2347.000000	0.325701
2348.000000	0.326395
2349.000000	0.325560
2350.000000	0.322876
2351.000000	0.321783
2352.000000	0.318841
2353.000000	0.317232
2354.000000	0.317439
2355.000000	0.316960
2356.000000	0.317012
2357.000000	0.315992
2358.000000	0.315285
2359.000000	0.313797
2360.000000	0.309946
2361.000000	0.307551
2362.000000	0.304766
2363.000000	0.301521
2364.000000	0.300686
2365.000000	0.299025
2366.000000	0.298997
2367.000000	0.300817
2368.000000	0.301125
2369.000000	0.301933
2370.000000	0.298150
2371.000000	0.294072
2372.000000	0.291818
2373.000000	0.286409
2374.000000	0.284537
2375.000000	0.281863
2376.000000	0.278441
2377.000000	0.277403
2378.000000	0.273998
2379.000000	0.271138
2380.000000	0.265975
2381.000000	0.261871
2382.000000	0.259758
2383.000000	0.257499
2384.000000	0.258790
2385.000000	0.255942
2386.000000	0.252968
2387.000000	0.253068
2388.000000	0.249608
2389.000000	0.248078
2390.000000	0.248683
2391.000000	0.246587
2392.000000	0.247512
2393.000000	0.250963
2394.000000	0.251709
2395.000000	0.253906
2396.000000	0.255732
2397.000000	0.255556
2398.000000	0.255095
2399.000000	0.254540
2400.000000	0.251492
2401.000000	0.248652
2402.000000	0.252418
2403.000000	0.253903
2404.000000	0.255544
2405.000000	0.258634
2406.000000	0.260517
2407.000000	0.263264
2408.000000	0.262135
2409.000000	0.262528
2410.000000	0.261977
2411.000000	0.260086
2412.000000	0.261235
2413.000000	0.262105
2414.000000	0.258449
2415.000000	0.254044
2416.000000	0.254693
2417.000000	0.253121
2418.000000	0.253310
2419.000000	0.254744
2420.000000	0.249485
2421.000000	0.245959
2422.000000	0.243763
2423.000000	0.240637
2424.000000	0.241317
2425.000000	0.241401
2426.000000	0.239834
2427.000000	0.239690
2428.000000	0.242667
2429.000000	0.245234
2430.000000	0.249252
2431.000000	0.253968
2432.000000	0.246167
2433.000000	0.236820
2434.000000	0.232522
2435.000000	0.220864
2436.000000	0.214208
2437.000000	0.214268
2438.000000	0.211206
2439.000000	0.218115
2440.000000	0.220809
2441.000000	0.220522
2442.000000	0.227108
2443.000000	0.222819
2444.000000	0.223266
2445.000000	0.222859
2446.000000	0.215065
2447.000000	0.217756
2448.000000	0.220565
2449.000000	0.225786
2450.000000	0.230635
2451.000000	0.228020
2452.000000	0.227539
2453.000000	0.223368
2454.000000	0.211545
2455.000000	0.202439
2456.000000	0.198117
2457.000000	0.199540
2458.000000	0.211941
2459.000000	0.222697
2460.000000	0.219723
2461.000000	0.219188
2462.000000	0.217434
2463.000000	0.202497
2464.000000	0.195395
2465.000000	0.185753
2466.000000	0.170416
2467.000000	0.164262
2468.000000	0.163452
2469.000000	0.161596
2470.000000	0.151108
2471.000000	0.154375
2472.000000	0.164149
2473.000000	0.162520
2474.000000	0.174688
2475.000000	0.188112
2476.000000	0.177789
2477.000000	0.175380
2478.000000	0.182004
2479.000000	0.181949
2480.000000	0.191412
2481.000000	0.187608
2482.000000	0.169551
2483.000000	0.146661
2484.000000	0.125299
2485.000000	0.139482
2486.000000	0.149866
2487.000000	0.150760
2488.000000	0.170317
2489.000000	0.172988
2490.000000	0.178443
2491.000000	0.190588
2492.000000	0.189723
2493.000000	0.180358
2494.000000	0.181996
2495.000000	0.193650
2496.000000	0.185187
2497.000000	0.164317
2498.000000	0.154087
2499.000000	0.126882
2500.000000	0.132421
