# Wavelength	SM1200H-30_HEX-50_FV7-20_00001.asd.rts.txt
350.000000	0.332072
351.000000	0.312838
352.000000	0.315041
353.000000	0.319579
354.000000	0.319710
355.000000	0.331335
356.000000	0.328359
357.000000	0.317719
358.000000	0.324403
359.000000	0.333378
360.000000	0.336942
361.000000	0.330709
362.000000	0.325531
363.000000	0.327040
364.000000	0.333835
365.000000	0.333289
366.000000	0.328155
367.000000	0.323199
368.000000	0.326553
369.000000	0.332408
370.000000	0.335341
371.000000	0.331637
372.000000	0.332682
373.000000	0.335406
374.000000	0.337071
375.000000	0.336959
376.000000	0.336417
377.000000	0.336061
378.000000	0.336349
379.000000	0.334866
380.000000	0.334798
381.000000	0.340620
382.000000	0.339940
383.000000	0.337197
384.000000	0.337084
385.000000	0.338478
386.000000	0.338770
387.000000	0.338429
388.000000	0.340909
389.000000	0.341285
390.000000	0.340512
391.000000	0.341035
392.000000	0.342757
393.000000	0.344254
394.000000	0.344290
395.000000	0.342233
396.000000	0.342211
397.000000	0.344307
398.000000	0.343339
399.000000	0.343645
400.000000	0.345016
401.000000	0.345358
402.000000	0.346094
403.000000	0.347154
404.000000	0.348219
405.000000	0.347809
406.000000	0.347922
407.000000	0.349178
408.000000	0.349694
409.000000	0.349802
410.000000	0.349686
411.000000	0.349475
412.000000	0.349299
413.000000	0.349922
414.000000	0.351662
415.000000	0.351400
416.000000	0.351410
417.000000	0.352764
418.000000	0.353099
419.000000	0.353630
420.000000	0.354439
421.000000	0.354693
422.000000	0.354783
423.000000	0.354701
424.000000	0.354543
425.000000	0.355168
426.000000	0.355817
427.000000	0.355920
428.000000	0.356192
429.000000	0.356449
430.000000	0.356685
431.000000	0.357153
432.000000	0.357354
433.000000	0.357477
434.000000	0.358140
435.000000	0.358528
436.000000	0.358601
437.000000	0.358511
438.000000	0.358664
439.000000	0.358997
440.000000	0.359457
441.000000	0.359509
442.000000	0.359869
443.000000	0.360303
444.000000	0.360142
445.000000	0.360188
446.000000	0.360696
447.000000	0.361372
448.000000	0.361425
449.000000	0.361524
450.000000	0.362129
451.000000	0.362743
452.000000	0.362921
453.000000	0.362803
454.000000	0.363590
455.000000	0.364201
456.000000	0.364422
457.000000	0.364183
458.000000	0.364625
459.000000	0.365148
460.000000	0.365234
461.000000	0.365666
462.000000	0.366120
463.000000	0.366238
464.000000	0.366376
465.000000	0.366653
466.000000	0.366938
467.000000	0.367112
468.000000	0.367326
469.000000	0.367551
470.000000	0.367911
471.000000	0.367929
472.000000	0.367947
473.000000	0.368244
474.000000	0.368613
475.000000	0.368713
476.000000	0.368745
477.000000	0.369009
478.000000	0.369184
479.000000	0.369468
480.000000	0.369745
481.000000	0.370064
482.000000	0.370414
483.000000	0.370501
484.000000	0.370688
485.000000	0.370953
486.000000	0.371431
487.000000	0.371730
488.000000	0.371961
489.000000	0.372186
490.000000	0.372424
491.000000	0.372649
492.000000	0.372992
493.000000	0.373390
494.000000	0.373751
495.000000	0.374100
496.000000	0.374406
497.000000	0.374696
498.000000	0.374919
499.000000	0.375183
500.000000	0.375522
501.000000	0.375806
502.000000	0.376105
503.000000	0.376438
504.000000	0.376678
505.000000	0.376929
506.000000	0.377284
507.000000	0.377518
508.000000	0.377768
509.000000	0.378088
510.000000	0.378570
511.000000	0.378963
512.000000	0.379242
513.000000	0.379471
514.000000	0.379751
515.000000	0.380112
516.000000	0.380448
517.000000	0.380713
518.000000	0.381045
519.000000	0.381413
520.000000	0.381742
521.000000	0.382036
522.000000	0.382327
523.000000	0.382668
524.000000	0.382972
525.000000	0.383232
526.000000	0.383541
527.000000	0.383859
528.000000	0.384157
529.000000	0.384472
530.000000	0.384633
531.000000	0.384850
532.000000	0.385127
533.000000	0.385397
534.000000	0.385718
535.000000	0.386048
536.000000	0.386294
537.000000	0.386585
538.000000	0.386920
539.000000	0.387228
540.000000	0.387507
541.000000	0.387777
542.000000	0.388091
543.000000	0.388346
544.000000	0.388620
545.000000	0.388891
546.000000	0.389302
547.000000	0.389634
548.000000	0.389917
549.000000	0.390218
550.000000	0.390540
551.000000	0.390933
552.000000	0.391349
553.000000	0.391595
554.000000	0.391834
555.000000	0.392196
556.000000	0.392586
557.000000	0.392879
558.000000	0.393206
559.000000	0.393500
560.000000	0.393822
561.000000	0.394232
562.000000	0.394574
563.000000	0.394844
564.000000	0.395161
565.000000	0.395485
566.000000	0.395816
567.000000	0.396198
568.000000	0.396608
569.000000	0.396983
570.000000	0.397321
571.000000	0.397638
572.000000	0.398004
573.000000	0.398344
574.000000	0.398635
575.000000	0.398954
576.000000	0.399275
577.000000	0.399550
578.000000	0.399837
579.000000	0.400141
580.000000	0.400399
581.000000	0.400616
582.000000	0.400917
583.000000	0.401232
584.000000	0.401547
585.000000	0.401873
586.000000	0.402227
587.000000	0.402539
588.000000	0.402753
589.000000	0.403027
590.000000	0.403285
591.000000	0.403485
592.000000	0.403713
593.000000	0.403949
594.000000	0.404204
595.000000	0.404527
596.000000	0.404855
597.000000	0.405156
598.000000	0.405290
599.000000	0.405496
600.000000	0.405771
601.000000	0.405974
602.000000	0.406208
603.000000	0.406414
604.000000	0.406585
605.000000	0.406779
606.000000	0.406883
607.000000	0.406952
608.000000	0.407142
609.000000	0.407348
610.000000	0.407579
611.000000	0.407852
612.000000	0.408083
613.000000	0.408247
614.000000	0.408403
615.000000	0.408613
616.000000	0.408732
617.000000	0.408762
618.000000	0.409014
619.000000	0.409232
620.000000	0.409329
621.000000	0.409375
622.000000	0.409493
623.000000	0.409667
624.000000	0.409847
625.000000	0.409973
626.000000	0.410078
627.000000	0.410196
628.000000	0.410356
629.000000	0.410570
630.000000	0.410709
631.000000	0.410955
632.000000	0.411120
633.000000	0.411262
634.000000	0.411442
635.000000	0.411614
636.000000	0.411774
637.000000	0.411913
638.000000	0.412121
639.000000	0.412286
640.000000	0.412462
641.000000	0.412611
642.000000	0.412765
643.000000	0.412904
644.000000	0.413008
645.000000	0.413136
646.000000	0.413307
647.000000	0.413474
648.000000	0.413556
649.000000	0.413756
650.000000	0.414041
651.000000	0.414152
652.000000	0.414224
653.000000	0.414346
654.000000	0.414476
655.000000	0.414629
656.000000	0.414785
657.000000	0.414857
658.000000	0.414957
659.000000	0.415116
660.000000	0.415294
661.000000	0.415400
662.000000	0.415526
663.000000	0.415746
664.000000	0.415982
665.000000	0.416222
666.000000	0.416403
667.000000	0.416463
668.000000	0.416677
669.000000	0.416882
670.000000	0.416990
671.000000	0.417090
672.000000	0.417259
673.000000	0.417469
674.000000	0.417633
675.000000	0.417841
676.000000	0.418065
677.000000	0.418265
678.000000	0.418370
679.000000	0.418495
680.000000	0.418703
681.000000	0.418799
682.000000	0.418984
683.000000	0.419201
684.000000	0.419451
685.000000	0.419614
686.000000	0.419750
687.000000	0.419903
688.000000	0.420044
689.000000	0.420200
690.000000	0.420423
691.000000	0.420632
692.000000	0.420785
693.000000	0.420981
694.000000	0.421257
695.000000	0.421444
696.000000	0.421569
697.000000	0.421743
698.000000	0.421928
699.000000	0.422111
700.000000	0.422283
701.000000	0.422376
702.000000	0.422518
703.000000	0.422687
704.000000	0.422728
705.000000	0.422830
706.000000	0.422944
707.000000	0.423055
708.000000	0.423179
709.000000	0.423301
710.000000	0.423433
711.000000	0.423561
712.000000	0.423683
713.000000	0.423847
714.000000	0.424094
715.000000	0.424312
716.000000	0.424472
717.000000	0.424555
718.000000	0.424693
719.000000	0.424859
720.000000	0.425031
721.000000	0.425206
722.000000	0.425344
723.000000	0.425503
724.000000	0.425622
725.000000	0.425701
726.000000	0.425810
727.000000	0.425833
728.000000	0.425978
729.000000	0.426122
730.000000	0.426109
731.000000	0.426242
732.000000	0.426399
733.000000	0.426562
734.000000	0.426689
735.000000	0.426742
736.000000	0.426913
737.000000	0.427112
738.000000	0.427246
739.000000	0.427406
740.000000	0.427450
741.000000	0.427556
742.000000	0.427645
743.000000	0.427669
744.000000	0.427729
745.000000	0.427757
746.000000	0.427808
747.000000	0.427835
748.000000	0.427946
749.000000	0.428115
750.000000	0.428248
751.000000	0.428300
752.000000	0.428350
753.000000	0.428429
754.000000	0.428484
755.000000	0.428580
756.000000	0.428687
757.000000	0.428699
758.000000	0.428731
759.000000	0.428827
760.000000	0.428918
761.000000	0.429115
762.000000	0.429256
763.000000	0.429311
764.000000	0.429434
765.000000	0.429438
766.000000	0.429429
767.000000	0.429506
768.000000	0.429531
769.000000	0.429537
770.000000	0.429551
771.000000	0.429549
772.000000	0.429695
773.000000	0.429851
774.000000	0.429945
775.000000	0.430004
776.000000	0.430073
777.000000	0.430149
778.000000	0.430190
779.000000	0.430212
780.000000	0.430229
781.000000	0.430230
782.000000	0.430219
783.000000	0.430314
784.000000	0.430388
785.000000	0.430464
786.000000	0.430527
787.000000	0.430553
788.000000	0.430498
789.000000	0.430567
790.000000	0.430672
791.000000	0.430659
792.000000	0.430788
793.000000	0.430968
794.000000	0.431086
795.000000	0.431136
796.000000	0.431141
797.000000	0.431118
798.000000	0.431103
799.000000	0.431108
800.000000	0.431136
801.000000	0.431169
802.000000	0.431095
803.000000	0.431011
804.000000	0.431026
805.000000	0.431062
806.000000	0.431046
807.000000	0.431062
808.000000	0.431054
809.000000	0.431007
810.000000	0.430980
811.000000	0.430975
812.000000	0.430853
813.000000	0.430845
814.000000	0.430967
815.000000	0.431070
816.000000	0.431140
817.000000	0.431192
818.000000	0.431144
819.000000	0.431138
820.000000	0.431136
821.000000	0.431070
822.000000	0.431052
823.000000	0.431064
824.000000	0.431024
825.000000	0.430998
826.000000	0.430941
827.000000	0.430915
828.000000	0.430990
829.000000	0.431026
830.000000	0.430956
831.000000	0.430872
832.000000	0.430726
833.000000	0.430683
834.000000	0.430688
835.000000	0.430716
836.000000	0.430756
837.000000	0.430702
838.000000	0.430648
839.000000	0.430777
840.000000	0.430775
841.000000	0.430716
842.000000	0.430640
843.000000	0.430374
844.000000	0.430248
845.000000	0.430298
846.000000	0.430345
847.000000	0.430348
848.000000	0.430261
849.000000	0.430128
850.000000	0.430078
851.000000	0.430032
852.000000	0.430008
853.000000	0.430018
854.000000	0.429919
855.000000	0.429865
856.000000	0.429817
857.000000	0.429785
858.000000	0.429728
859.000000	0.429535
860.000000	0.429331
861.000000	0.429177
862.000000	0.429124
863.000000	0.429092
864.000000	0.429082
865.000000	0.429046
866.000000	0.428977
867.000000	0.428828
868.000000	0.428702
869.000000	0.428609
870.000000	0.428657
871.000000	0.428662
872.000000	0.428591
873.000000	0.428411
874.000000	0.428362
875.000000	0.428263
876.000000	0.428064
877.000000	0.427696
878.000000	0.427385
879.000000	0.427284
880.000000	0.427217
881.000000	0.427100
882.000000	0.427051
883.000000	0.427014
884.000000	0.426812
885.000000	0.426751
886.000000	0.426633
887.000000	0.426427
888.000000	0.426387
889.000000	0.426327
890.000000	0.426064
891.000000	0.425779
892.000000	0.425660
893.000000	0.425487
894.000000	0.425316
895.000000	0.425153
896.000000	0.424889
897.000000	0.424635
898.000000	0.424541
899.000000	0.424468
900.000000	0.424340
901.000000	0.424153
902.000000	0.424182
903.000000	0.424034
904.000000	0.423780
905.000000	0.423480
906.000000	0.423370
907.000000	0.423156
908.000000	0.422867
909.000000	0.422655
910.000000	0.422480
911.000000	0.422326
912.000000	0.422188
913.000000	0.422011
914.000000	0.421779
915.000000	0.421637
916.000000	0.421589
917.000000	0.421318
918.000000	0.421007
919.000000	0.420777
920.000000	0.420471
921.000000	0.420218
922.000000	0.420076
923.000000	0.419994
924.000000	0.419736
925.000000	0.419434
926.000000	0.419227
927.000000	0.419018
928.000000	0.418879
929.000000	0.418719
930.000000	0.418446
931.000000	0.418269
932.000000	0.417958
933.000000	0.417545
934.000000	0.417211
935.000000	0.416921
936.000000	0.416713
937.000000	0.416464
938.000000	0.416159
939.000000	0.416019
940.000000	0.415961
941.000000	0.415920
942.000000	0.415610
943.000000	0.415275
944.000000	0.414974
945.000000	0.414919
946.000000	0.414517
947.000000	0.414029
948.000000	0.413785
949.000000	0.413478
950.000000	0.413285
951.000000	0.413088
952.000000	0.412674
953.000000	0.412536
954.000000	0.412566
955.000000	0.412481
956.000000	0.412282
957.000000	0.411974
958.000000	0.411667
959.000000	0.411610
960.000000	0.411333
961.000000	0.411028
962.000000	0.410769
963.000000	0.410521
964.000000	0.410175
965.000000	0.409841
966.000000	0.409498
967.000000	0.409345
968.000000	0.408956
969.000000	0.408413
970.000000	0.408222
971.000000	0.408376
972.000000	0.408477
973.000000	0.408224
974.000000	0.407768
975.000000	0.407717
976.000000	0.407685
977.000000	0.407341
978.000000	0.407250
979.000000	0.407082
980.000000	0.406666
981.000000	0.406526
982.000000	0.406326
983.000000	0.405987
984.000000	0.405708
985.000000	0.405710
986.000000	0.405544
987.000000	0.405460
988.000000	0.405418
989.000000	0.404997
990.000000	0.404770
991.000000	0.404747
992.000000	0.404769
993.000000	0.404608
994.000000	0.404294
995.000000	0.404050
996.000000	0.403707
997.000000	0.403658
998.000000	0.403554
999.000000	0.403361
1000.000000	0.403279
1001.000000	0.402672
1002.000000	0.403629
1003.000000	0.403894
1004.000000	0.403909
1005.000000	0.403420
1006.000000	0.402833
1007.000000	0.401618
1008.000000	0.401570
1009.000000	0.401759
1010.000000	0.401010
1011.000000	0.401466
1012.000000	0.402416
1013.000000	0.401964
1014.000000	0.402144
1015.000000	0.402499
1016.000000	0.401436
1017.000000	0.400720
1018.000000	0.400997
1019.000000	0.401050
1020.000000	0.401231
1021.000000	0.400974
1022.000000	0.401065
1023.000000	0.401054
1024.000000	0.400292
1025.000000	0.400304
1026.000000	0.400788
1027.000000	0.400519
1028.000000	0.400512
1029.000000	0.400966
1030.000000	0.400155
1031.000000	0.399432
1032.000000	0.399598
1033.000000	0.399250
1034.000000	0.399283
1035.000000	0.400144
1036.000000	0.400621
1037.000000	0.400983
1038.000000	0.401021
1039.000000	0.400982
1040.000000	0.401271
1041.000000	0.401159
1042.000000	0.400915
1043.000000	0.401227
1044.000000	0.401730
1045.000000	0.402236
1046.000000	0.402178
1047.000000	0.402328
1048.000000	0.402411
1049.000000	0.402450
1050.000000	0.402554
1051.000000	0.402648
1052.000000	0.402514
1053.000000	0.402352
1054.000000	0.402343
1055.000000	0.402441
1056.000000	0.402470
1057.000000	0.402897
1058.000000	0.403470
1059.000000	0.403760
1060.000000	0.404102
1061.000000	0.404389
1062.000000	0.404401
1063.000000	0.404426
1064.000000	0.404677
1065.000000	0.405043
1066.000000	0.405405
1067.000000	0.406082
1068.000000	0.406103
1069.000000	0.405563
1070.000000	0.405401
1071.000000	0.404925
1072.000000	0.404970
1073.000000	0.405732
1074.000000	0.406182
1075.000000	0.406581
1076.000000	0.407104
1077.000000	0.406934
1078.000000	0.407035
1079.000000	0.407162
1080.000000	0.407145
1081.000000	0.407378
1082.000000	0.408234
1083.000000	0.408438
1084.000000	0.408275
1085.000000	0.408509
1086.000000	0.408726
1087.000000	0.408842
1088.000000	0.408965
1089.000000	0.409210
1090.000000	0.409452
1091.000000	0.409318
1092.000000	0.409521
1093.000000	0.410154
1094.000000	0.410264
1095.000000	0.409919
1096.000000	0.410032
1097.000000	0.410136
1098.000000	0.410414
1099.000000	0.410844
1100.000000	0.411376
1101.000000	0.412167
1102.000000	0.412498
1103.000000	0.412691
1104.000000	0.412925
1105.000000	0.412914
1106.000000	0.412864
1107.000000	0.412645
1108.000000	0.412630
1109.000000	0.412679
1110.000000	0.412648
1111.000000	0.412816
1112.000000	0.413308
1113.000000	0.413638
1114.000000	0.413969
1115.000000	0.414195
1116.000000	0.414420
1117.000000	0.414617
1118.000000	0.414674
1119.000000	0.414728
1120.000000	0.414832
1121.000000	0.414892
1122.000000	0.415016
1123.000000	0.415285
1124.000000	0.415101
1125.000000	0.415320
1126.000000	0.415846
1127.000000	0.416033
1128.000000	0.416162
1129.000000	0.416479
1130.000000	0.416599
1131.000000	0.416457
1132.000000	0.416334
1133.000000	0.416317
1134.000000	0.416270
1135.000000	0.415907
1136.000000	0.415831
1137.000000	0.416048
1138.000000	0.415979
1139.000000	0.415875
1140.000000	0.415988
1141.000000	0.416005
1142.000000	0.416082
1143.000000	0.416357
1144.000000	0.416586
1145.000000	0.416550
1146.000000	0.416360
1147.000000	0.416288
1148.000000	0.416055
1149.000000	0.415934
1150.000000	0.415880
1151.000000	0.415897
1152.000000	0.415893
1153.000000	0.415878
1154.000000	0.415867
1155.000000	0.415838
1156.000000	0.415744
1157.000000	0.415745
1158.000000	0.415883
1159.000000	0.415802
1160.000000	0.415491
1161.000000	0.415353
1162.000000	0.415236
1163.000000	0.415289
1164.000000	0.415412
1165.000000	0.415549
1166.000000	0.415604
1167.000000	0.415526
1168.000000	0.415429
1169.000000	0.415298
1170.000000	0.415320
1171.000000	0.415446
1172.000000	0.415527
1173.000000	0.415681
1174.000000	0.415693
1175.000000	0.415426
1176.000000	0.415393
1177.000000	0.415676
1178.000000	0.415690
1179.000000	0.415646
1180.000000	0.415568
1181.000000	0.415384
1182.000000	0.415232
1183.000000	0.415386
1184.000000	0.415558
1185.000000	0.415607
1186.000000	0.415643
1187.000000	0.415658
1188.000000	0.415607
1189.000000	0.415530
1190.000000	0.415541
1191.000000	0.415446
1192.000000	0.415370
1193.000000	0.415385
1194.000000	0.415205
1195.000000	0.415160
1196.000000	0.415117
1197.000000	0.415077
1198.000000	0.415096
1199.000000	0.415137
1200.000000	0.415191
1201.000000	0.415282
1202.000000	0.415139
1203.000000	0.415102
1204.000000	0.415089
1205.000000	0.414962
1206.000000	0.414913
1207.000000	0.415142
1208.000000	0.415159
1209.000000	0.415159
1210.000000	0.415165
1211.000000	0.415163
1212.000000	0.415098
1213.000000	0.415015
1214.000000	0.415005
1215.000000	0.414964
1216.000000	0.414970
1217.000000	0.414983
1218.000000	0.414975
1219.000000	0.415025
1220.000000	0.415110
1221.000000	0.414927
1222.000000	0.414931
1223.000000	0.414948
1224.000000	0.414772
1225.000000	0.414736
1226.000000	0.414782
1227.000000	0.414768
1228.000000	0.414732
1229.000000	0.414613
1230.000000	0.414441
1231.000000	0.414267
1232.000000	0.414105
1233.000000	0.414197
1234.000000	0.414474
1235.000000	0.414580
1236.000000	0.414605
1237.000000	0.414673
1238.000000	0.414650
1239.000000	0.414566
1240.000000	0.414458
1241.000000	0.414347
1242.000000	0.414240
1243.000000	0.414076
1244.000000	0.414085
1245.000000	0.414241
1246.000000	0.414211
1247.000000	0.414340
1248.000000	0.414398
1249.000000	0.414307
1250.000000	0.414328
1251.000000	0.414412
1252.000000	0.414390
1253.000000	0.414365
1254.000000	0.414437
1255.000000	0.414450
1256.000000	0.414461
1257.000000	0.414662
1258.000000	0.414773
1259.000000	0.414681
1260.000000	0.414752
1261.000000	0.414761
1262.000000	0.414826
1263.000000	0.415007
1264.000000	0.415110
1265.000000	0.415227
1266.000000	0.415224
1267.000000	0.415001
1268.000000	0.414934
1269.000000	0.414777
1270.000000	0.414763
1271.000000	0.414912
1272.000000	0.414877
1273.000000	0.414903
1274.000000	0.414878
1275.000000	0.414743
1276.000000	0.414491
1277.000000	0.414459
1278.000000	0.414295
1279.000000	0.414222
1280.000000	0.414197
1281.000000	0.414121
1282.000000	0.414118
1283.000000	0.414206
1284.000000	0.414262
1285.000000	0.414332
1286.000000	0.414437
1287.000000	0.414445
1288.000000	0.414414
1289.000000	0.414308
1290.000000	0.414047
1291.000000	0.413844
1292.000000	0.413859
1293.000000	0.413849
1294.000000	0.413702
1295.000000	0.413655
1296.000000	0.413624
1297.000000	0.413502
1298.000000	0.413526
1299.000000	0.413626
1300.000000	0.413601
1301.000000	0.413457
1302.000000	0.413281
1303.000000	0.413184
1304.000000	0.413093
1305.000000	0.413123
1306.000000	0.413045
1307.000000	0.413054
1308.000000	0.413062
1309.000000	0.412961
1310.000000	0.412897
1311.000000	0.412978
1312.000000	0.412874
1313.000000	0.412704
1314.000000	0.412677
1315.000000	0.412575
1316.000000	0.412513
1317.000000	0.412395
1318.000000	0.412151
1319.000000	0.411869
1320.000000	0.411619
1321.000000	0.411456
1322.000000	0.411260
1323.000000	0.411149
1324.000000	0.411127
1325.000000	0.410824
1326.000000	0.410499
1327.000000	0.410335
1328.000000	0.410250
1329.000000	0.410081
1330.000000	0.410121
1331.000000	0.409946
1332.000000	0.409611
1333.000000	0.409362
1334.000000	0.409175
1335.000000	0.409022
1336.000000	0.408895
1337.000000	0.408755
1338.000000	0.408615
1339.000000	0.408323
1340.000000	0.407958
1341.000000	0.407635
1342.000000	0.407233
1343.000000	0.406902
1344.000000	0.406676
1345.000000	0.406359
1346.000000	0.406229
1347.000000	0.405991
1348.000000	0.405721
1349.000000	0.405545
1350.000000	0.405304
1351.000000	0.405011
1352.000000	0.404816
1353.000000	0.404473
1354.000000	0.404217
1355.000000	0.404052
1356.000000	0.403776
1357.000000	0.403612
1358.000000	0.403456
1359.000000	0.403103
1360.000000	0.402815
1361.000000	0.402676
1362.000000	0.402369
1363.000000	0.401896
1364.000000	0.401608
1365.000000	0.401308
1366.000000	0.401058
1367.000000	0.400940
1368.000000	0.400621
1369.000000	0.400364
1370.000000	0.400046
1371.000000	0.399520
1372.000000	0.398974
1373.000000	0.398438
1374.000000	0.397842
1375.000000	0.397090
1376.000000	0.396295
1377.000000	0.395567
1378.000000	0.394526
1379.000000	0.393207
1380.000000	0.391965
1381.000000	0.390303
1382.000000	0.388375
1383.000000	0.386544
1384.000000	0.384408
1385.000000	0.382187
1386.000000	0.380325
1387.000000	0.378715
1388.000000	0.377169
1389.000000	0.375928
1390.000000	0.375009
1391.000000	0.374155
1392.000000	0.373727
1393.000000	0.373350
1394.000000	0.373337
1395.000000	0.373128
1396.000000	0.372989
1397.000000	0.372703
1398.000000	0.372340
1399.000000	0.371807
1400.000000	0.371142
1401.000000	0.370386
1402.000000	0.369570
1403.000000	0.368650
1404.000000	0.367549
1405.000000	0.366325
1406.000000	0.365034
1407.000000	0.363848
1408.000000	0.362797
1409.000000	0.361762
1410.000000	0.360712
1411.000000	0.359587
1412.000000	0.358413
1413.000000	0.357379
1414.000000	0.356404
1415.000000	0.355522
1416.000000	0.354690
1417.000000	0.353806
1418.000000	0.352839
1419.000000	0.351906
1420.000000	0.350888
1421.000000	0.350000
1422.000000	0.349249
1423.000000	0.348473
1424.000000	0.347593
1425.000000	0.346810
1426.000000	0.345964
1427.000000	0.345129
1428.000000	0.344367
1429.000000	0.343621
1430.000000	0.342954
1431.000000	0.342362
1432.000000	0.341824
1433.000000	0.341526
1434.000000	0.340989
1435.000000	0.340466
1436.000000	0.339983
1437.000000	0.339453
1438.000000	0.338863
1439.000000	0.338298
1440.000000	0.337724
1441.000000	0.337038
1442.000000	0.336491
1443.000000	0.335948
1444.000000	0.335562
1445.000000	0.335179
1446.000000	0.334768
1447.000000	0.334340
1448.000000	0.333821
1449.000000	0.333280
1450.000000	0.332849
1451.000000	0.332575
1452.000000	0.332251
1453.000000	0.331892
1454.000000	0.331508
1455.000000	0.331055
1456.000000	0.330743
1457.000000	0.330573
1458.000000	0.330351
1459.000000	0.330133
1460.000000	0.330042
1461.000000	0.329846
1462.000000	0.329558
1463.000000	0.329262
1464.000000	0.329033
1465.000000	0.328949
1466.000000	0.328852
1467.000000	0.328888
1468.000000	0.328966
1469.000000	0.328965
1470.000000	0.329014
1471.000000	0.329139
1472.000000	0.329202
1473.000000	0.329483
1474.000000	0.329767
1475.000000	0.329952
1476.000000	0.330253
1477.000000	0.330520
1478.000000	0.330743
1479.000000	0.331063
1480.000000	0.331470
1481.000000	0.331847
1482.000000	0.332223
1483.000000	0.332700
1484.000000	0.333227
1485.000000	0.333767
1486.000000	0.334440
1487.000000	0.335004
1488.000000	0.335501
1489.000000	0.336094
1490.000000	0.336556
1491.000000	0.337039
1492.000000	0.337560
1493.000000	0.338121
1494.000000	0.338617
1495.000000	0.339038
1496.000000	0.339460
1497.000000	0.339879
1498.000000	0.340204
1499.000000	0.340671
1500.000000	0.341123
1501.000000	0.341455
1502.000000	0.341824
1503.000000	0.342206
1504.000000	0.342641
1505.000000	0.343045
1506.000000	0.343455
1507.000000	0.343763
1508.000000	0.344016
1509.000000	0.344485
1510.000000	0.344831
1511.000000	0.345084
1512.000000	0.345379
1513.000000	0.345504
1514.000000	0.345634
1515.000000	0.345759
1516.000000	0.345872
1517.000000	0.346047
1518.000000	0.346286
1519.000000	0.346444
1520.000000	0.346643
1521.000000	0.346780
1522.000000	0.346792
1523.000000	0.346927
1524.000000	0.347073
1525.000000	0.347279
1526.000000	0.347494
1527.000000	0.347638
1528.000000	0.347880
1529.000000	0.348068
1530.000000	0.348212
1531.000000	0.348518
1532.000000	0.348803
1533.000000	0.349030
1534.000000	0.349170
1535.000000	0.349278
1536.000000	0.349276
1537.000000	0.349391
1538.000000	0.349708
1539.000000	0.349803
1540.000000	0.349883
1541.000000	0.350028
1542.000000	0.350050
1543.000000	0.350160
1544.000000	0.350267
1545.000000	0.350267
1546.000000	0.350270
1547.000000	0.350318
1548.000000	0.350357
1549.000000	0.350408
1550.000000	0.350454
1551.000000	0.350532
1552.000000	0.350709
1553.000000	0.350866
1554.000000	0.350938
1555.000000	0.350904
1556.000000	0.350853
1557.000000	0.350822
1558.000000	0.350829
1559.000000	0.350824
1560.000000	0.350834
1561.000000	0.350888
1562.000000	0.350909
1563.000000	0.351052
1564.000000	0.351057
1565.000000	0.350963
1566.000000	0.350889
1567.000000	0.350811
1568.000000	0.350766
1569.000000	0.350902
1570.000000	0.350904
1571.000000	0.350815
1572.000000	0.350751
1573.000000	0.350681
1574.000000	0.350609
1575.000000	0.350491
1576.000000	0.350561
1577.000000	0.350731
1578.000000	0.350789
1579.000000	0.350982
1580.000000	0.351072
1581.000000	0.351110
1582.000000	0.351187
1583.000000	0.351301
1584.000000	0.351308
1585.000000	0.351393
1586.000000	0.351376
1587.000000	0.351191
1588.000000	0.351153
1589.000000	0.351146
1590.000000	0.351129
1591.000000	0.351244
1592.000000	0.351272
1593.000000	0.351246
1594.000000	0.351215
1595.000000	0.351206
1596.000000	0.351255
1597.000000	0.351385
1598.000000	0.351413
1599.000000	0.351459
1600.000000	0.351436
1601.000000	0.351390
1602.000000	0.351411
1603.000000	0.351494
1604.000000	0.351555
1605.000000	0.351664
1606.000000	0.351697
1607.000000	0.351755
1608.000000	0.351783
1609.000000	0.351820
1610.000000	0.351854
1611.000000	0.351886
1612.000000	0.351978
1613.000000	0.352221
1614.000000	0.352360
1615.000000	0.352589
1616.000000	0.352736
1617.000000	0.352725
1618.000000	0.352761
1619.000000	0.352727
1620.000000	0.352828
1621.000000	0.353050
1622.000000	0.353315
1623.000000	0.353678
1624.000000	0.353855
1625.000000	0.353772
1626.000000	0.353756
1627.000000	0.353688
1628.000000	0.353791
1629.000000	0.353975
1630.000000	0.354195
1631.000000	0.354400
1632.000000	0.354590
1633.000000	0.354849
1634.000000	0.355080
1635.000000	0.355380
1636.000000	0.355565
1637.000000	0.355696
1638.000000	0.355840
1639.000000	0.355955
1640.000000	0.356147
1641.000000	0.356498
1642.000000	0.356746
1643.000000	0.357021
1644.000000	0.357238
1645.000000	0.357392
1646.000000	0.357509
1647.000000	0.357657
1648.000000	0.357734
1649.000000	0.357823
1650.000000	0.357973
1651.000000	0.358089
1652.000000	0.358389
1653.000000	0.358796
1654.000000	0.359115
1655.000000	0.359434
1656.000000	0.359714
1657.000000	0.360014
1658.000000	0.360254
1659.000000	0.360663
1660.000000	0.360901
1661.000000	0.360920
1662.000000	0.360964
1663.000000	0.360882
1664.000000	0.360967
1665.000000	0.361028
1666.000000	0.361274
1667.000000	0.361626
1668.000000	0.361855
1669.000000	0.362057
1670.000000	0.362240
1671.000000	0.362515
1672.000000	0.362832
1673.000000	0.363160
1674.000000	0.363413
1675.000000	0.363637
1676.000000	0.363744
1677.000000	0.363875
1678.000000	0.363933
1679.000000	0.363938
1680.000000	0.364036
1681.000000	0.364078
1682.000000	0.364116
1683.000000	0.364265
1684.000000	0.364344
1685.000000	0.364481
1686.000000	0.364654
1687.000000	0.364703
1688.000000	0.364608
1689.000000	0.364675
1690.000000	0.364867
1691.000000	0.365080
1692.000000	0.365221
1693.000000	0.365248
1694.000000	0.365227
1695.000000	0.365351
1696.000000	0.365482
1697.000000	0.365480
1698.000000	0.365296
1699.000000	0.365276
1700.000000	0.365256
1701.000000	0.365460
1702.000000	0.365706
1703.000000	0.365872
1704.000000	0.366300
1705.000000	0.366527
1706.000000	0.366645
1707.000000	0.366746
1708.000000	0.366691
1709.000000	0.366616
1710.000000	0.366545
1711.000000	0.366634
1712.000000	0.366864
1713.000000	0.366981
1714.000000	0.367244
1715.000000	0.367403
1716.000000	0.367434
1717.000000	0.367491
1718.000000	0.367474
1719.000000	0.367501
1720.000000	0.367625
1721.000000	0.367655
1722.000000	0.367704
1723.000000	0.367712
1724.000000	0.367556
1725.000000	0.367672
1726.000000	0.367848
1727.000000	0.367987
1728.000000	0.368231
1729.000000	0.368254
1730.000000	0.368235
1731.000000	0.368335
1732.000000	0.368418
1733.000000	0.368631
1734.000000	0.368830
1735.000000	0.369013
1736.000000	0.369234
1737.000000	0.369299
1738.000000	0.369310
1739.000000	0.369311
1740.000000	0.369153
1741.000000	0.369148
1742.000000	0.369216
1743.000000	0.369349
1744.000000	0.369540
1745.000000	0.369636
1746.000000	0.369752
1747.000000	0.369683
1748.000000	0.369650
1749.000000	0.369568
1750.000000	0.369578
1751.000000	0.369929
1752.000000	0.370220
1753.000000	0.370483
1754.000000	0.370561
1755.000000	0.370205
1756.000000	0.370167
1757.000000	0.370208
1758.000000	0.370284
1759.000000	0.370598
1760.000000	0.370813
1761.000000	0.370962
1762.000000	0.370999
1763.000000	0.370951
1764.000000	0.371011
1765.000000	0.370926
1766.000000	0.370999
1767.000000	0.371280
1768.000000	0.371271
1769.000000	0.371261
1770.000000	0.371223
1771.000000	0.370919
1772.000000	0.370809
1773.000000	0.370659
1774.000000	0.370682
1775.000000	0.370938
1776.000000	0.371094
1777.000000	0.371275
1778.000000	0.371444
1779.000000	0.371576
1780.000000	0.371712
1781.000000	0.371889
1782.000000	0.371877
1783.000000	0.371698
1784.000000	0.371887
1785.000000	0.372087
1786.000000	0.372360
1787.000000	0.372740
1788.000000	0.372937
1789.000000	0.372981
1790.000000	0.372945
1791.000000	0.372925
1792.000000	0.372861
1793.000000	0.372888
1794.000000	0.373091
1795.000000	0.373292
1796.000000	0.373475
1797.000000	0.373648
1798.000000	0.373849
1799.000000	0.374014
1800.000000	0.374255
1801.000000	0.373833
1802.000000	0.374016
1803.000000	0.374270
1804.000000	0.374984
1805.000000	0.376589
1806.000000	0.377302
1807.000000	0.378531
1808.000000	0.378677
1809.000000	0.377866
1810.000000	0.376865
1811.000000	0.375943
1812.000000	0.374182
1813.000000	0.373425
1814.000000	0.372983
1815.000000	0.372910
1816.000000	0.373599
1817.000000	0.373801
1818.000000	0.374701
1819.000000	0.374463
1820.000000	0.374341
1821.000000	0.374014
1822.000000	0.374495
1823.000000	0.375720
1824.000000	0.376150
1825.000000	0.376699
1826.000000	0.377231
1827.000000	0.377621
1828.000000	0.376823
1829.000000	0.377272
1830.000000	0.377404
1831.000000	0.376838
1832.000000	0.375423
1833.000000	0.374951
1834.000000	0.374240
1835.000000	0.373777
1836.000000	0.373938
1837.000000	0.373759
1838.000000	0.373330
1839.000000	0.372910
1840.000000	0.372106
1841.000000	0.371240
1842.000000	0.370765
1843.000000	0.370263
1844.000000	0.369864
1845.000000	0.370073
1846.000000	0.369751
1847.000000	0.368963
1848.000000	0.367649
1849.000000	0.367309
1850.000000	0.366926
1851.000000	0.366641
1852.000000	0.366910
1853.000000	0.366685
1854.000000	0.365727
1855.000000	0.365232
1856.000000	0.364679
1857.000000	0.364372
1858.000000	0.363974
1859.000000	0.363598
1860.000000	0.362782
1861.000000	0.361959
1862.000000	0.360924
1863.000000	0.359897
1864.000000	0.358390
1865.000000	0.356429
1866.000000	0.354501
1867.000000	0.351979
1868.000000	0.350229
1869.000000	0.348233
1870.000000	0.346404
1871.000000	0.344248
1872.000000	0.341830
1873.000000	0.339382
1874.000000	0.336483
1875.000000	0.333766
1876.000000	0.331159
1877.000000	0.327706
1878.000000	0.323808
1879.000000	0.321008
1880.000000	0.317759
1881.000000	0.314522
1882.000000	0.311401
1883.000000	0.308145
1884.000000	0.304550
1885.000000	0.300139
1886.000000	0.295988
1887.000000	0.292012
1888.000000	0.287247
1889.000000	0.282142
1890.000000	0.277786
1891.000000	0.273311
1892.000000	0.268534
1893.000000	0.264201
1894.000000	0.260253
1895.000000	0.255804
1896.000000	0.251271
1897.000000	0.246568
1898.000000	0.241717
1899.000000	0.237239
1900.000000	0.233364
1901.000000	0.229879
1902.000000	0.226832
1903.000000	0.223975
1904.000000	0.221196
1905.000000	0.218587
1906.000000	0.215719
1907.000000	0.212828
1908.000000	0.210148
1909.000000	0.207513
1910.000000	0.204666
1911.000000	0.202118
1912.000000	0.199773
1913.000000	0.197609
1914.000000	0.195762
1915.000000	0.194777
1916.000000	0.194250
1917.000000	0.193649
1918.000000	0.193392
1919.000000	0.193297
1920.000000	0.192463
1921.000000	0.191520
1922.000000	0.190349
1923.000000	0.189039
1924.000000	0.188477
1925.000000	0.188005
1926.000000	0.188023
1927.000000	0.188322
1928.000000	0.188425
1929.000000	0.188695
1930.000000	0.188952
1931.000000	0.188562
1932.000000	0.188755
1933.000000	0.189058
1934.000000	0.189389
1935.000000	0.190497
1936.000000	0.190723
1937.000000	0.190565
1938.000000	0.190273
1939.000000	0.189844
1940.000000	0.188796
1941.000000	0.188549
1942.000000	0.188666
1943.000000	0.188843
1944.000000	0.189018
1945.000000	0.188577
1946.000000	0.187922
1947.000000	0.187709
1948.000000	0.187764
1949.000000	0.187717
1950.000000	0.187983
1951.000000	0.187823
1952.000000	0.187295
1953.000000	0.186431
1954.000000	0.186095
1955.000000	0.185500
1956.000000	0.185073
1957.000000	0.184944
1958.000000	0.184632
1959.000000	0.184604
1960.000000	0.184531
1961.000000	0.184573
1962.000000	0.184599
1963.000000	0.184822
1964.000000	0.184852
1965.000000	0.184598
1966.000000	0.184089
1967.000000	0.184313
1968.000000	0.184462
1969.000000	0.184533
1970.000000	0.185159
1971.000000	0.184878
1972.000000	0.184462
1973.000000	0.184111
1974.000000	0.183503
1975.000000	0.183444
1976.000000	0.183583
1977.000000	0.184005
1978.000000	0.184928
1979.000000	0.185938
1980.000000	0.186782
1981.000000	0.187601
1982.000000	0.188054
1983.000000	0.188233
1984.000000	0.188816
1985.000000	0.189738
1986.000000	0.190174
1987.000000	0.190471
1988.000000	0.191414
1989.000000	0.191461
1990.000000	0.191310
1991.000000	0.192568
1992.000000	0.193392
1993.000000	0.194083
1994.000000	0.195207
1995.000000	0.195567
1996.000000	0.195947
1997.000000	0.196500
1998.000000	0.197184
1999.000000	0.198047
2000.000000	0.199110
2001.000000	0.199989
2002.000000	0.201130
2003.000000	0.202814
2004.000000	0.203703
2005.000000	0.204678
2006.000000	0.206289
2007.000000	0.207088
2008.000000	0.207985
2009.000000	0.209041
2010.000000	0.210005
2011.000000	0.210492
2012.000000	0.211266
2013.000000	0.212132
2014.000000	0.213039
2015.000000	0.214120
2016.000000	0.215283
2017.000000	0.216740
2018.000000	0.218536
2019.000000	0.219409
2020.000000	0.220199
2021.000000	0.221366
2022.000000	0.222356
2023.000000	0.223294
2024.000000	0.224816
2025.000000	0.225914
2026.000000	0.226450
2027.000000	0.227201
2028.000000	0.228059
2029.000000	0.228930
2030.000000	0.229649
2031.000000	0.230392
2032.000000	0.230819
2033.000000	0.231387
2034.000000	0.232340
2035.000000	0.233664
2036.000000	0.234650
2037.000000	0.236213
2038.000000	0.237365
2039.000000	0.238147
2040.000000	0.238880
2041.000000	0.240299
2042.000000	0.241294
2043.000000	0.242303
2044.000000	0.243377
2045.000000	0.243742
2046.000000	0.244142
2047.000000	0.244956
2048.000000	0.245883
2049.000000	0.246949
2050.000000	0.248154
2051.000000	0.249196
2052.000000	0.250041
2053.000000	0.250724
2054.000000	0.251486
2055.000000	0.252695
2056.000000	0.253007
2057.000000	0.253807
2058.000000	0.254303
2059.000000	0.254304
2060.000000	0.255119
2061.000000	0.256281
2062.000000	0.257203
2063.000000	0.258952
2064.000000	0.259739
2065.000000	0.260104
2066.000000	0.260438
2067.000000	0.260613
2068.000000	0.260835
2069.000000	0.261047
2070.000000	0.261582
2071.000000	0.262535
2072.000000	0.263304
2073.000000	0.263935
2074.000000	0.264315
2075.000000	0.264922
2076.000000	0.265154
2077.000000	0.265887
2078.000000	0.267102
2079.000000	0.268323
2080.000000	0.270067
2081.000000	0.271350
2082.000000	0.272632
2083.000000	0.273599
2084.000000	0.274364
2085.000000	0.274730
2086.000000	0.275336
2087.000000	0.276009
2088.000000	0.276149
2089.000000	0.276406
2090.000000	0.276724
2091.000000	0.276638
2092.000000	0.277279
2093.000000	0.278522
2094.000000	0.279517
2095.000000	0.281148
2096.000000	0.282293
2097.000000	0.282971
2098.000000	0.283778
2099.000000	0.284258
2100.000000	0.284863
2101.000000	0.285991
2102.000000	0.286521
2103.000000	0.287934
2104.000000	0.289756
2105.000000	0.290530
2106.000000	0.290911
2107.000000	0.291400
2108.000000	0.290633
2109.000000	0.290950
2110.000000	0.292040
2111.000000	0.292595
2112.000000	0.292990
2113.000000	0.293753
2114.000000	0.293915
2115.000000	0.294122
2116.000000	0.294515
2117.000000	0.294789
2118.000000	0.295122
2119.000000	0.295360
2120.000000	0.295886
2121.000000	0.296624
2122.000000	0.297227
2123.000000	0.297960
2124.000000	0.298512
2125.000000	0.299010
2126.000000	0.299454
2127.000000	0.299900
2128.000000	0.300499
2129.000000	0.301456
2130.000000	0.301339
2131.000000	0.300884
2132.000000	0.300394
2133.000000	0.300349
2134.000000	0.300941
2135.000000	0.302223
2136.000000	0.303476
2137.000000	0.304016
2138.000000	0.304005
2139.000000	0.303968
2140.000000	0.303126
2141.000000	0.303156
2142.000000	0.303612
2143.000000	0.303515
2144.000000	0.303732
2145.000000	0.304122
2146.000000	0.304702
2147.000000	0.304818
2148.000000	0.304844
2149.000000	0.304469
2150.000000	0.303448
2151.000000	0.303339
2152.000000	0.304204
2153.000000	0.305241
2154.000000	0.305829
2155.000000	0.306443
2156.000000	0.306628
2157.000000	0.306597
2158.000000	0.306600
2159.000000	0.306186
2160.000000	0.306570
2161.000000	0.307476
2162.000000	0.307461
2163.000000	0.307588
2164.000000	0.307369
2165.000000	0.306170
2166.000000	0.305361
2167.000000	0.304579
2168.000000	0.303327
2169.000000	0.302109
2170.000000	0.301663
2171.000000	0.301936
2172.000000	0.303294
2173.000000	0.304137
2174.000000	0.305698
2175.000000	0.306206
2176.000000	0.306360
2177.000000	0.306305
2178.000000	0.305537
2179.000000	0.305484
2180.000000	0.305195
2181.000000	0.305398
2182.000000	0.305317
2183.000000	0.305791
2184.000000	0.307546
2185.000000	0.308463
2186.000000	0.308758
2187.000000	0.308863
2188.000000	0.306725
2189.000000	0.304257
2190.000000	0.303350
2191.000000	0.302617
2192.000000	0.301993
2193.000000	0.302100
2194.000000	0.302099
2195.000000	0.302331
2196.000000	0.302267
2197.000000	0.301972
2198.000000	0.302254
2199.000000	0.302966
2200.000000	0.303250
2201.000000	0.304311
2202.000000	0.304440
2203.000000	0.303207
2204.000000	0.301620
2205.000000	0.301460
2206.000000	0.302587
2207.000000	0.301460
2208.000000	0.300339
2209.000000	0.300142
2210.000000	0.298968
2211.000000	0.302343
2212.000000	0.308106
2213.000000	0.309869
2214.000000	0.311510
2215.000000	0.310144
2216.000000	0.303179
2217.000000	0.301359
2218.000000	0.299392
2219.000000	0.298452
2220.000000	0.300759
2221.000000	0.302116
2222.000000	0.303421
2223.000000	0.305114
2224.000000	0.308121
2225.000000	0.309671
2226.000000	0.309122
2227.000000	0.307546
2228.000000	0.308052
2229.000000	0.307417
2230.000000	0.306033
2231.000000	0.306649
2232.000000	0.307326
2233.000000	0.306648
2234.000000	0.304975
2235.000000	0.303686
2236.000000	0.301936
2237.000000	0.296433
2238.000000	0.295539
2239.000000	0.298396
2240.000000	0.299197
2241.000000	0.301115
2242.000000	0.301756
2243.000000	0.300290
2244.000000	0.300568
2245.000000	0.301256
2246.000000	0.302426
2247.000000	0.305434
2248.000000	0.306728
2249.000000	0.307335
2250.000000	0.307965
2251.000000	0.307615
2252.000000	0.306316
2253.000000	0.306002
2254.000000	0.305578
2255.000000	0.305722
2256.000000	0.306928
2257.000000	0.306931
2258.000000	0.306381
2259.000000	0.306086
2260.000000	0.306076
2261.000000	0.305113
2262.000000	0.304270
2263.000000	0.302809
2264.000000	0.299313
2265.000000	0.297675
2266.000000	0.296544
2267.000000	0.296286
2268.000000	0.297537
2269.000000	0.298791
2270.000000	0.300924
2271.000000	0.301757
2272.000000	0.302392
2273.000000	0.302460
2274.000000	0.301619
2275.000000	0.301087
2276.000000	0.300905
2277.000000	0.299107
2278.000000	0.298589
2279.000000	0.297598
2280.000000	0.294640
2281.000000	0.291555
2282.000000	0.288306
2283.000000	0.286333
2284.000000	0.285765
2285.000000	0.285191
2286.000000	0.283741
2287.000000	0.280760
2288.000000	0.279191
2289.000000	0.279404
2290.000000	0.278787
2291.000000	0.278418
2292.000000	0.277915
2293.000000	0.276429
2294.000000	0.275425
2295.000000	0.275200
2296.000000	0.274267
2297.000000	0.271850
2298.000000	0.271389
2299.000000	0.272599
2300.000000	0.272389
2301.000000	0.273249
2302.000000	0.272747
2303.000000	0.270655
2304.000000	0.268350
2305.000000	0.265371
2306.000000	0.262272
2307.000000	0.257510
2308.000000	0.254439
2309.000000	0.255225
2310.000000	0.254771
2311.000000	0.257584
2312.000000	0.259910
2313.000000	0.257838
2314.000000	0.257033
2315.000000	0.254664
2316.000000	0.252483
2317.000000	0.252398
2318.000000	0.253511
2319.000000	0.256186
2320.000000	0.256981
2321.000000	0.258089
2322.000000	0.257877
2323.000000	0.255596
2324.000000	0.254772
2325.000000	0.252128
2326.000000	0.250391
2327.000000	0.249293
2328.000000	0.248137
2329.000000	0.249677
2330.000000	0.251146
2331.000000	0.252802
2332.000000	0.253974
2333.000000	0.255184
2334.000000	0.255107
2335.000000	0.255000
2336.000000	0.255484
2337.000000	0.253844
2338.000000	0.249800
2339.000000	0.247026
2340.000000	0.241714
2341.000000	0.240368
2342.000000	0.241852
2343.000000	0.241872
2344.000000	0.244518
2345.000000	0.243911
2346.000000	0.240759
2347.000000	0.239744
2348.000000	0.238507
2349.000000	0.237738
2350.000000	0.236449
2351.000000	0.236334
2352.000000	0.235330
2353.000000	0.233722
2354.000000	0.234326
2355.000000	0.231968
2356.000000	0.232346
2357.000000	0.231558
2358.000000	0.227656
2359.000000	0.226856
2360.000000	0.224011
2361.000000	0.220237
2362.000000	0.217886
2363.000000	0.218143
2364.000000	0.217181
2365.000000	0.214721
2366.000000	0.213417
2367.000000	0.210187
2368.000000	0.204725
2369.000000	0.201837
2370.000000	0.203497
2371.000000	0.204094
2372.000000	0.204774
2373.000000	0.209452
2374.000000	0.211258
2375.000000	0.209783
2376.000000	0.212651
2377.000000	0.213688
2378.000000	0.212175
2379.000000	0.213253
2380.000000	0.214651
2381.000000	0.213691
2382.000000	0.210130
2383.000000	0.208089
2384.000000	0.203852
2385.000000	0.197198
2386.000000	0.194464
2387.000000	0.191904
2388.000000	0.188691
2389.000000	0.190361
2390.000000	0.190979
2391.000000	0.190861
2392.000000	0.191459
2393.000000	0.190482
2394.000000	0.192721
2395.000000	0.189256
2396.000000	0.187374
2397.000000	0.189282
2398.000000	0.183712
2399.000000	0.179902
2400.000000	0.177493
2401.000000	0.180550
2402.000000	0.189487
2403.000000	0.196562
2404.000000	0.204238
2405.000000	0.203294
2406.000000	0.197923
2407.000000	0.196622
2408.000000	0.193033
2409.000000	0.188502
2410.000000	0.182300
2411.000000	0.171791
2412.000000	0.166498
2413.000000	0.168500
2414.000000	0.170982
2415.000000	0.179782
2416.000000	0.182464
2417.000000	0.178550
2418.000000	0.178841
2419.000000	0.176549
2420.000000	0.182510
2421.000000	0.185664
2422.000000	0.187973
2423.000000	0.200481
2424.000000	0.196962
2425.000000	0.191858
2426.000000	0.189906
2427.000000	0.181387
2428.000000	0.183804
2429.000000	0.183673
2430.000000	0.180907
2431.000000	0.176159
2432.000000	0.170266
2433.000000	0.172309
2434.000000	0.174466
2435.000000	0.174762
2436.000000	0.175053
2437.000000	0.180743
2438.000000	0.179864
2439.000000	0.169921
2440.000000	0.151556
2441.000000	0.140621
2442.000000	0.141392
2443.000000	0.144647
2444.000000	0.173290
2445.000000	0.179600
2446.000000	0.167690
2447.000000	0.176206
2448.000000	0.169754
2449.000000	0.169645
2450.000000	0.177164
2451.000000	0.178978
2452.000000	0.173153
2453.000000	0.152687
2454.000000	0.141232
2455.000000	0.140456
2456.000000	0.138800
2457.000000	0.156109
2458.000000	0.183663
2459.000000	0.179522
2460.000000	0.174320
2461.000000	0.173379
2462.000000	0.168907
2463.000000	0.173280
2464.000000	0.167183
2465.000000	0.157754
2466.000000	0.137694
2467.000000	0.114739
2468.000000	0.111037
2469.000000	0.109987
2470.000000	0.102005
2471.000000	0.112212
2472.000000	0.115437
2473.000000	0.094384
2474.000000	0.091457
2475.000000	0.088195
2476.000000	0.094049
2477.000000	0.104926
2478.000000	0.108084
2479.000000	0.118334
2480.000000	0.108840
2481.000000	0.103619
2482.000000	0.116256
2483.000000	0.072781
2484.000000	0.044522
2485.000000	0.072354
2486.000000	0.066383
2487.000000	0.090672
2488.000000	0.116190
2489.000000	0.087152
2490.000000	0.119129
2491.000000	0.126163
2492.000000	0.110464
2493.000000	0.026329
2494.000000	0.015474
2495.000000	0.066756
2496.000000	0.094839
2497.000000	0.211004
2498.000000	0.231245
2499.000000	0.137399
2500.000000	0.112705
