# Wavelength	SM1200H-70_HEX-10_FV7-20_00001.asd.rts.txt
350.000000	0.359079
351.000000	0.342990
352.000000	0.333389
353.000000	0.336486
354.000000	0.349306
355.000000	0.343566
356.000000	0.342782
357.000000	0.347646
358.000000	0.337069
359.000000	0.333047
360.000000	0.335013
361.000000	0.336530
362.000000	0.339182
363.000000	0.339726
364.000000	0.337625
365.000000	0.342892
366.000000	0.346016
367.000000	0.344652
368.000000	0.342898
369.000000	0.347507
370.000000	0.349556
371.000000	0.339703
372.000000	0.346279
373.000000	0.354201
374.000000	0.352756
375.000000	0.350580
376.000000	0.351876
377.000000	0.354491
378.000000	0.350001
379.000000	0.350598
380.000000	0.354432
381.000000	0.356606
382.000000	0.356003
383.000000	0.355107
384.000000	0.355566
385.000000	0.353926
386.000000	0.353779
387.000000	0.356226
388.000000	0.359422
389.000000	0.361832
390.000000	0.362372
391.000000	0.360262
392.000000	0.360524
393.000000	0.361437
394.000000	0.361583
395.000000	0.364296
396.000000	0.365302
397.000000	0.364016
398.000000	0.364909
399.000000	0.365220
400.000000	0.365424
401.000000	0.366869
402.000000	0.367124
403.000000	0.367327
404.000000	0.368606
405.000000	0.368227
406.000000	0.367939
407.000000	0.368420
408.000000	0.368065
409.000000	0.368294
410.000000	0.369077
411.000000	0.369548
412.000000	0.370699
413.000000	0.371754
414.000000	0.371849
415.000000	0.371493
416.000000	0.371777
417.000000	0.373018
418.000000	0.374004
419.000000	0.374445
420.000000	0.374518
421.000000	0.374848
422.000000	0.374795
423.000000	0.374604
424.000000	0.374851
425.000000	0.375111
426.000000	0.375622
427.000000	0.376383
428.000000	0.376471
429.000000	0.376823
430.000000	0.377520
431.000000	0.377442
432.000000	0.377495
433.000000	0.378022
434.000000	0.379223
435.000000	0.379564
436.000000	0.379534
437.000000	0.379744
438.000000	0.379455
439.000000	0.379436
440.000000	0.380031
441.000000	0.380126
442.000000	0.380564
443.000000	0.381108
444.000000	0.381036
445.000000	0.381350
446.000000	0.382064
447.000000	0.382606
448.000000	0.382770
449.000000	0.382666
450.000000	0.382561
451.000000	0.383018
452.000000	0.383517
453.000000	0.383755
454.000000	0.383962
455.000000	0.384426
456.000000	0.385040
457.000000	0.385274
458.000000	0.385766
459.000000	0.386097
460.000000	0.386025
461.000000	0.386407
462.000000	0.386660
463.000000	0.386494
464.000000	0.387092
465.000000	0.387469
466.000000	0.387471
467.000000	0.387640
468.000000	0.388074
469.000000	0.388438
470.000000	0.388588
471.000000	0.388566
472.000000	0.388572
473.000000	0.388765
474.000000	0.389008
475.000000	0.389204
476.000000	0.389503
477.000000	0.389782
478.000000	0.389993
479.000000	0.390320
480.000000	0.390503
481.000000	0.390623
482.000000	0.390835
483.000000	0.390955
484.000000	0.391249
485.000000	0.391535
486.000000	0.391969
487.000000	0.392486
488.000000	0.392686
489.000000	0.392738
490.000000	0.393175
491.000000	0.393628
492.000000	0.393975
493.000000	0.394015
494.000000	0.394313
495.000000	0.394681
496.000000	0.394893
497.000000	0.395107
498.000000	0.395375
499.000000	0.395810
500.000000	0.396334
501.000000	0.396606
502.000000	0.396786
503.000000	0.397125
504.000000	0.397488
505.000000	0.397797
506.000000	0.398038
507.000000	0.398380
508.000000	0.398722
509.000000	0.398964
510.000000	0.399225
511.000000	0.399555
512.000000	0.399943
513.000000	0.400219
514.000000	0.400569
515.000000	0.400944
516.000000	0.401142
517.000000	0.401324
518.000000	0.401671
519.000000	0.402109
520.000000	0.402345
521.000000	0.402593
522.000000	0.402949
523.000000	0.403320
524.000000	0.403610
525.000000	0.403852
526.000000	0.404230
527.000000	0.404571
528.000000	0.404854
529.000000	0.405155
530.000000	0.405326
531.000000	0.405575
532.000000	0.405901
533.000000	0.406295
534.000000	0.406594
535.000000	0.406821
536.000000	0.407276
537.000000	0.407586
538.000000	0.407786
539.000000	0.408045
540.000000	0.408323
541.000000	0.408603
542.000000	0.408905
543.000000	0.409085
544.000000	0.409339
545.000000	0.409658
546.000000	0.410020
547.000000	0.410334
548.000000	0.410636
549.000000	0.410916
550.000000	0.411193
551.000000	0.411529
552.000000	0.411893
553.000000	0.412187
554.000000	0.412446
555.000000	0.412730
556.000000	0.413119
557.000000	0.413442
558.000000	0.413786
559.000000	0.414001
560.000000	0.414277
561.000000	0.414675
562.000000	0.414971
563.000000	0.415277
564.000000	0.415629
565.000000	0.415895
566.000000	0.416199
567.000000	0.416520
568.000000	0.416817
569.000000	0.417143
570.000000	0.417434
571.000000	0.417667
572.000000	0.417890
573.000000	0.418237
574.000000	0.418562
575.000000	0.418744
576.000000	0.419117
577.000000	0.419473
578.000000	0.419732
579.000000	0.420080
580.000000	0.420401
581.000000	0.420646
582.000000	0.420888
583.000000	0.421117
584.000000	0.421364
585.000000	0.421677
586.000000	0.421934
587.000000	0.422183
588.000000	0.422486
589.000000	0.422712
590.000000	0.422970
591.000000	0.423308
592.000000	0.423552
593.000000	0.423830
594.000000	0.424153
595.000000	0.424421
596.000000	0.424675
597.000000	0.424961
598.000000	0.425174
599.000000	0.425259
600.000000	0.425434
601.000000	0.425733
602.000000	0.425952
603.000000	0.426092
604.000000	0.426199
605.000000	0.426349
606.000000	0.426417
607.000000	0.426427
608.000000	0.426489
609.000000	0.426658
610.000000	0.426843
611.000000	0.426945
612.000000	0.427144
613.000000	0.427337
614.000000	0.427496
615.000000	0.427611
616.000000	0.427748
617.000000	0.427902
618.000000	0.428149
619.000000	0.428392
620.000000	0.428562
621.000000	0.428697
622.000000	0.428794
623.000000	0.428860
624.000000	0.428919
625.000000	0.429078
626.000000	0.429276
627.000000	0.429486
628.000000	0.429740
629.000000	0.430011
630.000000	0.430159
631.000000	0.430399
632.000000	0.430591
633.000000	0.430705
634.000000	0.430741
635.000000	0.430909
636.000000	0.431078
637.000000	0.431140
638.000000	0.431177
639.000000	0.431268
640.000000	0.431438
641.000000	0.431421
642.000000	0.431457
643.000000	0.431594
644.000000	0.431811
645.000000	0.431968
646.000000	0.432137
647.000000	0.432323
648.000000	0.432408
649.000000	0.432550
650.000000	0.432733
651.000000	0.432799
652.000000	0.432834
653.000000	0.432916
654.000000	0.433004
655.000000	0.433135
656.000000	0.433313
657.000000	0.433455
658.000000	0.433638
659.000000	0.433795
660.000000	0.433899
661.000000	0.434088
662.000000	0.434277
663.000000	0.434504
664.000000	0.434717
665.000000	0.434923
666.000000	0.435095
667.000000	0.435184
668.000000	0.435348
669.000000	0.435497
670.000000	0.435594
671.000000	0.435727
672.000000	0.435840
673.000000	0.435919
674.000000	0.436007
675.000000	0.436172
676.000000	0.436396
677.000000	0.436645
678.000000	0.436845
679.000000	0.436979
680.000000	0.437067
681.000000	0.437148
682.000000	0.437320
683.000000	0.437466
684.000000	0.437576
685.000000	0.437710
686.000000	0.437900
687.000000	0.438083
688.000000	0.438190
689.000000	0.438276
690.000000	0.438435
691.000000	0.438614
692.000000	0.438711
693.000000	0.438822
694.000000	0.439031
695.000000	0.439165
696.000000	0.439256
697.000000	0.439415
698.000000	0.439570
699.000000	0.439731
700.000000	0.439916
701.000000	0.440052
702.000000	0.440216
703.000000	0.440387
704.000000	0.440483
705.000000	0.440606
706.000000	0.440735
707.000000	0.440927
708.000000	0.441081
709.000000	0.441186
710.000000	0.441288
711.000000	0.441420
712.000000	0.441564
713.000000	0.441719
714.000000	0.441812
715.000000	0.441917
716.000000	0.442045
717.000000	0.442148
718.000000	0.442342
719.000000	0.442528
720.000000	0.442647
721.000000	0.442849
722.000000	0.442970
723.000000	0.443039
724.000000	0.443077
725.000000	0.443170
726.000000	0.443342
727.000000	0.443351
728.000000	0.443348
729.000000	0.443437
730.000000	0.443584
731.000000	0.443722
732.000000	0.443840
733.000000	0.443969
734.000000	0.444014
735.000000	0.444018
736.000000	0.444166
737.000000	0.444315
738.000000	0.444345
739.000000	0.444419
740.000000	0.444438
741.000000	0.444536
742.000000	0.444656
743.000000	0.444758
744.000000	0.444947
745.000000	0.444995
746.000000	0.445045
747.000000	0.445196
748.000000	0.445354
749.000000	0.445528
750.000000	0.445666
751.000000	0.445710
752.000000	0.445734
753.000000	0.445767
754.000000	0.445762
755.000000	0.445802
756.000000	0.445841
757.000000	0.445767
758.000000	0.445828
759.000000	0.446022
760.000000	0.446191
761.000000	0.446290
762.000000	0.446327
763.000000	0.446318
764.000000	0.446398
765.000000	0.446402
766.000000	0.446410
767.000000	0.446498
768.000000	0.446571
769.000000	0.446622
770.000000	0.446637
771.000000	0.446551
772.000000	0.446587
773.000000	0.446666
774.000000	0.446780
775.000000	0.446891
776.000000	0.447015
777.000000	0.447138
778.000000	0.447247
779.000000	0.447353
780.000000	0.447426
781.000000	0.447372
782.000000	0.447345
783.000000	0.447469
784.000000	0.447558
785.000000	0.447567
786.000000	0.447551
787.000000	0.447533
788.000000	0.447474
789.000000	0.447484
790.000000	0.447536
791.000000	0.447596
792.000000	0.447609
793.000000	0.447637
794.000000	0.447712
795.000000	0.447649
796.000000	0.447578
797.000000	0.447561
798.000000	0.447613
799.000000	0.447715
800.000000	0.447835
801.000000	0.447926
802.000000	0.447852
803.000000	0.447828
804.000000	0.447969
805.000000	0.447966
806.000000	0.447867
807.000000	0.447818
808.000000	0.447794
809.000000	0.447725
810.000000	0.447696
811.000000	0.447717
812.000000	0.447580
813.000000	0.447569
814.000000	0.447678
815.000000	0.447682
816.000000	0.447738
817.000000	0.447795
818.000000	0.447691
819.000000	0.447751
820.000000	0.447829
821.000000	0.447778
822.000000	0.447691
823.000000	0.447677
824.000000	0.447677
825.000000	0.447737
826.000000	0.447797
827.000000	0.447815
828.000000	0.447832
829.000000	0.447839
830.000000	0.447690
831.000000	0.447501
832.000000	0.447300
833.000000	0.447254
834.000000	0.447262
835.000000	0.447269
836.000000	0.447295
837.000000	0.447249
838.000000	0.447158
839.000000	0.447082
840.000000	0.447055
841.000000	0.447089
842.000000	0.447104
843.000000	0.447022
844.000000	0.446911
845.000000	0.446784
846.000000	0.446707
847.000000	0.446725
848.000000	0.446733
849.000000	0.446652
850.000000	0.446430
851.000000	0.446283
852.000000	0.446335
853.000000	0.446409
854.000000	0.446356
855.000000	0.446383
856.000000	0.446474
857.000000	0.446343
858.000000	0.446271
859.000000	0.446221
860.000000	0.445934
861.000000	0.445652
862.000000	0.445567
863.000000	0.445672
864.000000	0.445654
865.000000	0.445489
866.000000	0.445304
867.000000	0.445334
868.000000	0.445364
869.000000	0.445225
870.000000	0.444970
871.000000	0.444784
872.000000	0.444666
873.000000	0.444538
874.000000	0.444521
875.000000	0.444562
876.000000	0.444585
877.000000	0.444410
878.000000	0.444053
879.000000	0.443731
880.000000	0.443409
881.000000	0.443278
882.000000	0.443176
883.000000	0.443033
884.000000	0.442753
885.000000	0.442703
886.000000	0.442572
887.000000	0.442259
888.000000	0.442018
889.000000	0.442013
890.000000	0.441975
891.000000	0.441816
892.000000	0.441525
893.000000	0.441258
894.000000	0.441227
895.000000	0.441154
896.000000	0.440869
897.000000	0.440608
898.000000	0.440654
899.000000	0.440521
900.000000	0.440413
901.000000	0.440363
902.000000	0.440311
903.000000	0.440043
904.000000	0.439726
905.000000	0.439472
906.000000	0.439491
907.000000	0.439454
908.000000	0.439269
909.000000	0.438861
910.000000	0.438570
911.000000	0.438350
912.000000	0.438122
913.000000	0.437938
914.000000	0.437682
915.000000	0.437464
916.000000	0.437310
917.000000	0.437109
918.000000	0.436925
919.000000	0.436781
920.000000	0.436665
921.000000	0.436518
922.000000	0.436289
923.000000	0.435917
924.000000	0.435604
925.000000	0.435296
926.000000	0.435040
927.000000	0.434945
928.000000	0.434623
929.000000	0.434216
930.000000	0.433995
931.000000	0.433777
932.000000	0.433532
933.000000	0.433288
934.000000	0.432980
935.000000	0.432657
936.000000	0.432443
937.000000	0.432237
938.000000	0.431830
939.000000	0.431654
940.000000	0.431579
941.000000	0.431384
942.000000	0.431092
943.000000	0.430898
944.000000	0.430654
945.000000	0.430178
946.000000	0.429585
947.000000	0.429076
948.000000	0.428742
949.000000	0.428600
950.000000	0.428430
951.000000	0.428178
952.000000	0.428134
953.000000	0.428114
954.000000	0.428008
955.000000	0.427711
956.000000	0.427500
957.000000	0.427286
958.000000	0.426997
959.000000	0.426751
960.000000	0.426513
961.000000	0.426320
962.000000	0.426098
963.000000	0.425746
964.000000	0.425737
965.000000	0.425704
966.000000	0.425237
967.000000	0.425160
968.000000	0.424831
969.000000	0.424227
970.000000	0.423818
971.000000	0.423620
972.000000	0.423537
973.000000	0.423424
974.000000	0.423378
975.000000	0.423347
976.000000	0.423268
977.000000	0.423092
978.000000	0.422827
979.000000	0.422885
980.000000	0.422708
981.000000	0.422172
982.000000	0.421953
983.000000	0.421716
984.000000	0.421593
985.000000	0.421980
986.000000	0.421803
987.000000	0.421495
988.000000	0.421315
989.000000	0.421060
990.000000	0.420849
991.000000	0.420666
992.000000	0.420517
993.000000	0.420336
994.000000	0.420033
995.000000	0.419785
996.000000	0.419447
997.000000	0.419706
998.000000	0.420046
999.000000	0.420072
1000.000000	0.419480
1001.000000	0.419851
1002.000000	0.419719
1003.000000	0.420027
1004.000000	0.420064
1005.000000	0.419093
1006.000000	0.418948
1007.000000	0.419752
1008.000000	0.419638
1009.000000	0.418579
1010.000000	0.417754
1011.000000	0.417364
1012.000000	0.417395
1013.000000	0.417920
1014.000000	0.418135
1015.000000	0.418036
1016.000000	0.418294
1017.000000	0.417923
1018.000000	0.417944
1019.000000	0.418412
1020.000000	0.419685
1021.000000	0.419320
1022.000000	0.418855
1023.000000	0.418845
1024.000000	0.418031
1025.000000	0.417046
1026.000000	0.417144
1027.000000	0.417472
1028.000000	0.417693
1029.000000	0.418027
1030.000000	0.418073
1031.000000	0.418111
1032.000000	0.417544
1033.000000	0.416703
1034.000000	0.416554
1035.000000	0.416879
1036.000000	0.416975
1037.000000	0.417551
1038.000000	0.417641
1039.000000	0.417505
1040.000000	0.417523
1041.000000	0.417320
1042.000000	0.417459
1043.000000	0.418225
1044.000000	0.418490
1045.000000	0.418409
1046.000000	0.418139
1047.000000	0.418331
1048.000000	0.418196
1049.000000	0.418530
1050.000000	0.419837
1051.000000	0.420190
1052.000000	0.419842
1053.000000	0.419907
1054.000000	0.420285
1055.000000	0.420412
1056.000000	0.420838
1057.000000	0.420732
1058.000000	0.420024
1059.000000	0.419605
1060.000000	0.419938
1061.000000	0.420573
1062.000000	0.421081
1063.000000	0.421601
1064.000000	0.421928
1065.000000	0.421805
1066.000000	0.421789
1067.000000	0.421610
1068.000000	0.421647
1069.000000	0.421541
1070.000000	0.421588
1071.000000	0.422103
1072.000000	0.422461
1073.000000	0.422930
1074.000000	0.423114
1075.000000	0.423302
1076.000000	0.423385
1077.000000	0.423323
1078.000000	0.423484
1079.000000	0.423598
1080.000000	0.423843
1081.000000	0.424003
1082.000000	0.424197
1083.000000	0.424463
1084.000000	0.424831
1085.000000	0.425230
1086.000000	0.425915
1087.000000	0.426084
1088.000000	0.425622
1089.000000	0.425644
1090.000000	0.425528
1091.000000	0.425570
1092.000000	0.425750
1093.000000	0.426081
1094.000000	0.426435
1095.000000	0.426554
1096.000000	0.426835
1097.000000	0.427519
1098.000000	0.427824
1099.000000	0.427672
1100.000000	0.427944
1101.000000	0.428444
1102.000000	0.428586
1103.000000	0.428432
1104.000000	0.428712
1105.000000	0.429125
1106.000000	0.429327
1107.000000	0.429669
1108.000000	0.429962
1109.000000	0.430303
1110.000000	0.430198
1111.000000	0.430154
1112.000000	0.430165
1113.000000	0.430202
1114.000000	0.429981
1115.000000	0.430011
1116.000000	0.430357
1117.000000	0.430494
1118.000000	0.430509
1119.000000	0.430513
1120.000000	0.430400
1121.000000	0.430495
1122.000000	0.430932
1123.000000	0.431306
1124.000000	0.431452
1125.000000	0.431642
1126.000000	0.431566
1127.000000	0.431496
1128.000000	0.431432
1129.000000	0.431432
1130.000000	0.431573
1131.000000	0.431781
1132.000000	0.431876
1133.000000	0.432207
1134.000000	0.432333
1135.000000	0.432198
1136.000000	0.432120
1137.000000	0.432035
1138.000000	0.431882
1139.000000	0.431662
1140.000000	0.431698
1141.000000	0.431844
1142.000000	0.431897
1143.000000	0.431994
1144.000000	0.432119
1145.000000	0.431834
1146.000000	0.431586
1147.000000	0.431565
1148.000000	0.431505
1149.000000	0.431509
1150.000000	0.431750
1151.000000	0.431846
1152.000000	0.431737
1153.000000	0.431819
1154.000000	0.431978
1155.000000	0.432015
1156.000000	0.432104
1157.000000	0.432114
1158.000000	0.431838
1159.000000	0.431799
1160.000000	0.431817
1161.000000	0.431856
1162.000000	0.432117
1163.000000	0.432553
1164.000000	0.432503
1165.000000	0.432364
1166.000000	0.432462
1167.000000	0.432412
1168.000000	0.432487
1169.000000	0.432888
1170.000000	0.433079
1171.000000	0.433238
1172.000000	0.433343
1173.000000	0.433358
1174.000000	0.433388
1175.000000	0.433320
1176.000000	0.433207
1177.000000	0.433193
1178.000000	0.433160
1179.000000	0.432979
1180.000000	0.432864
1181.000000	0.432915
1182.000000	0.433016
1183.000000	0.433101
1184.000000	0.433060
1185.000000	0.433123
1186.000000	0.433210
1187.000000	0.433196
1188.000000	0.433231
1189.000000	0.433156
1190.000000	0.432930
1191.000000	0.432858
1192.000000	0.432988
1193.000000	0.433156
1194.000000	0.433280
1195.000000	0.433319
1196.000000	0.433237
1197.000000	0.433192
1198.000000	0.433079
1199.000000	0.433058
1200.000000	0.433134
1201.000000	0.433087
1202.000000	0.433063
1203.000000	0.433229
1204.000000	0.433243
1205.000000	0.433354
1206.000000	0.433334
1207.000000	0.433358
1208.000000	0.433289
1209.000000	0.433182
1210.000000	0.433164
1211.000000	0.433235
1212.000000	0.433201
1213.000000	0.433185
1214.000000	0.433241
1215.000000	0.433261
1216.000000	0.433195
1217.000000	0.433073
1218.000000	0.433012
1219.000000	0.432922
1220.000000	0.432893
1221.000000	0.432957
1222.000000	0.433002
1223.000000	0.432953
1224.000000	0.432928
1225.000000	0.433023
1226.000000	0.433080
1227.000000	0.432924
1228.000000	0.432941
1229.000000	0.432884
1230.000000	0.432694
1231.000000	0.432569
1232.000000	0.432657
1233.000000	0.432786
1234.000000	0.432956
1235.000000	0.433015
1236.000000	0.433022
1237.000000	0.433005
1238.000000	0.432732
1239.000000	0.432581
1240.000000	0.432442
1241.000000	0.432353
1242.000000	0.432451
1243.000000	0.432532
1244.000000	0.432543
1245.000000	0.432778
1246.000000	0.432826
1247.000000	0.432962
1248.000000	0.433167
1249.000000	0.433119
1250.000000	0.433162
1251.000000	0.433193
1252.000000	0.433152
1253.000000	0.433198
1254.000000	0.433145
1255.000000	0.432892
1256.000000	0.432804
1257.000000	0.432790
1258.000000	0.432830
1259.000000	0.432878
1260.000000	0.432951
1261.000000	0.432985
1262.000000	0.432981
1263.000000	0.432974
1264.000000	0.433001
1265.000000	0.433025
1266.000000	0.432910
1267.000000	0.432742
1268.000000	0.432523
1269.000000	0.432377
1270.000000	0.432483
1271.000000	0.432459
1272.000000	0.432568
1273.000000	0.432684
1274.000000	0.432470
1275.000000	0.432334
1276.000000	0.432293
1277.000000	0.432236
1278.000000	0.431902
1279.000000	0.431778
1280.000000	0.431612
1281.000000	0.431581
1282.000000	0.431833
1283.000000	0.432058
1284.000000	0.432329
1285.000000	0.432436
1286.000000	0.432412
1287.000000	0.432335
1288.000000	0.432320
1289.000000	0.432360
1290.000000	0.432219
1291.000000	0.432090
1292.000000	0.432239
1293.000000	0.432208
1294.000000	0.432216
1295.000000	0.432437
1296.000000	0.432308
1297.000000	0.432056
1298.000000	0.431979
1299.000000	0.431938
1300.000000	0.431971
1301.000000	0.432073
1302.000000	0.431988
1303.000000	0.432002
1304.000000	0.431859
1305.000000	0.431627
1306.000000	0.431444
1307.000000	0.431374
1308.000000	0.431272
1309.000000	0.431161
1310.000000	0.431021
1311.000000	0.430953
1312.000000	0.430562
1313.000000	0.430393
1314.000000	0.430339
1315.000000	0.430155
1316.000000	0.430173
1317.000000	0.430196
1318.000000	0.430087
1319.000000	0.429862
1320.000000	0.429836
1321.000000	0.429772
1322.000000	0.429468
1323.000000	0.429304
1324.000000	0.429180
1325.000000	0.428971
1326.000000	0.428730
1327.000000	0.428402
1328.000000	0.428211
1329.000000	0.427891
1330.000000	0.427440
1331.000000	0.427152
1332.000000	0.426984
1333.000000	0.426727
1334.000000	0.426599
1335.000000	0.426454
1336.000000	0.426235
1337.000000	0.426127
1338.000000	0.426027
1339.000000	0.425797
1340.000000	0.425926
1341.000000	0.426004
1342.000000	0.425766
1343.000000	0.425801
1344.000000	0.425762
1345.000000	0.425463
1346.000000	0.425490
1347.000000	0.425228
1348.000000	0.424761
1349.000000	0.424490
1350.000000	0.424321
1351.000000	0.424163
1352.000000	0.424021
1353.000000	0.423806
1354.000000	0.423685
1355.000000	0.423545
1356.000000	0.423460
1357.000000	0.423294
1358.000000	0.422983
1359.000000	0.422842
1360.000000	0.422659
1361.000000	0.422547
1362.000000	0.422294
1363.000000	0.421962
1364.000000	0.421661
1365.000000	0.421302
1366.000000	0.420992
1367.000000	0.420760
1368.000000	0.420265
1369.000000	0.420035
1370.000000	0.419556
1371.000000	0.418828
1372.000000	0.418219
1373.000000	0.417332
1374.000000	0.416204
1375.000000	0.415093
1376.000000	0.413889
1377.000000	0.412221
1378.000000	0.410175
1379.000000	0.407729
1380.000000	0.404689
1381.000000	0.401198
1382.000000	0.397469
1383.000000	0.393633
1384.000000	0.389604
1385.000000	0.385719
1386.000000	0.382301
1387.000000	0.379207
1388.000000	0.376516
1389.000000	0.374390
1390.000000	0.372802
1391.000000	0.371839
1392.000000	0.371549
1393.000000	0.371625
1394.000000	0.372665
1395.000000	0.373303
1396.000000	0.374240
1397.000000	0.374775
1398.000000	0.375128
1399.000000	0.375223
1400.000000	0.375187
1401.000000	0.374718
1402.000000	0.373939
1403.000000	0.373047
1404.000000	0.372062
1405.000000	0.371108
1406.000000	0.370274
1407.000000	0.369517
1408.000000	0.368802
1409.000000	0.368097
1410.000000	0.367519
1411.000000	0.367046
1412.000000	0.366559
1413.000000	0.366250
1414.000000	0.366034
1415.000000	0.365853
1416.000000	0.365785
1417.000000	0.365794
1418.000000	0.365813
1419.000000	0.365984
1420.000000	0.366161
1421.000000	0.366383
1422.000000	0.366609
1423.000000	0.366838
1424.000000	0.366917
1425.000000	0.367109
1426.000000	0.367359
1427.000000	0.367708
1428.000000	0.368137
1429.000000	0.368441
1430.000000	0.368807
1431.000000	0.369096
1432.000000	0.369356
1433.000000	0.369690
1434.000000	0.369959
1435.000000	0.370268
1436.000000	0.370499
1437.000000	0.370635
1438.000000	0.370793
1439.000000	0.370984
1440.000000	0.371132
1441.000000	0.371340
1442.000000	0.371459
1443.000000	0.371416
1444.000000	0.371365
1445.000000	0.371376
1446.000000	0.371424
1447.000000	0.371513
1448.000000	0.371630
1449.000000	0.371719
1450.000000	0.371782
1451.000000	0.371760
1452.000000	0.371643
1453.000000	0.371509
1454.000000	0.371377
1455.000000	0.371328
1456.000000	0.371438
1457.000000	0.371651
1458.000000	0.371742
1459.000000	0.371792
1460.000000	0.371868
1461.000000	0.371813
1462.000000	0.371863
1463.000000	0.371974
1464.000000	0.372122
1465.000000	0.372432
1466.000000	0.372707
1467.000000	0.372998
1468.000000	0.373297
1469.000000	0.373649
1470.000000	0.374045
1471.000000	0.374555
1472.000000	0.374984
1473.000000	0.375461
1474.000000	0.375979
1475.000000	0.376360
1476.000000	0.376822
1477.000000	0.377405
1478.000000	0.377920
1479.000000	0.378452
1480.000000	0.378958
1481.000000	0.379388
1482.000000	0.379740
1483.000000	0.380221
1484.000000	0.380730
1485.000000	0.381242
1486.000000	0.381763
1487.000000	0.382251
1488.000000	0.382791
1489.000000	0.383308
1490.000000	0.383644
1491.000000	0.384105
1492.000000	0.384509
1493.000000	0.384951
1494.000000	0.385465
1495.000000	0.385915
1496.000000	0.386314
1497.000000	0.386732
1498.000000	0.387162
1499.000000	0.387527
1500.000000	0.387983
1501.000000	0.388370
1502.000000	0.388756
1503.000000	0.389160
1504.000000	0.389449
1505.000000	0.389790
1506.000000	0.390113
1507.000000	0.390443
1508.000000	0.390857
1509.000000	0.391244
1510.000000	0.391615
1511.000000	0.391811
1512.000000	0.391960
1513.000000	0.392224
1514.000000	0.392552
1515.000000	0.392903
1516.000000	0.393295
1517.000000	0.393556
1518.000000	0.393699
1519.000000	0.393762
1520.000000	0.393834
1521.000000	0.393872
1522.000000	0.393918
1523.000000	0.394145
1524.000000	0.394400
1525.000000	0.394593
1526.000000	0.394755
1527.000000	0.394942
1528.000000	0.395134
1529.000000	0.395368
1530.000000	0.395634
1531.000000	0.395894
1532.000000	0.396120
1533.000000	0.396239
1534.000000	0.396331
1535.000000	0.396458
1536.000000	0.396465
1537.000000	0.396626
1538.000000	0.396825
1539.000000	0.396889
1540.000000	0.397044
1541.000000	0.397222
1542.000000	0.397391
1543.000000	0.397590
1544.000000	0.397780
1545.000000	0.398016
1546.000000	0.398247
1547.000000	0.398440
1548.000000	0.398624
1549.000000	0.398841
1550.000000	0.398990
1551.000000	0.399128
1552.000000	0.399425
1553.000000	0.399636
1554.000000	0.399727
1555.000000	0.399938
1556.000000	0.400105
1557.000000	0.400101
1558.000000	0.400144
1559.000000	0.400119
1560.000000	0.400154
1561.000000	0.400201
1562.000000	0.400256
1563.000000	0.400474
1564.000000	0.400574
1565.000000	0.400593
1566.000000	0.400519
1567.000000	0.400496
1568.000000	0.400466
1569.000000	0.400454
1570.000000	0.400485
1571.000000	0.400501
1572.000000	0.400574
1573.000000	0.400724
1574.000000	0.400801
1575.000000	0.400937
1576.000000	0.401035
1577.000000	0.401030
1578.000000	0.401055
1579.000000	0.401160
1580.000000	0.401252
1581.000000	0.401471
1582.000000	0.401530
1583.000000	0.401518
1584.000000	0.401463
1585.000000	0.401321
1586.000000	0.401340
1587.000000	0.401475
1588.000000	0.401554
1589.000000	0.401732
1590.000000	0.401812
1591.000000	0.401780
1592.000000	0.401878
1593.000000	0.402124
1594.000000	0.402146
1595.000000	0.402130
1596.000000	0.402239
1597.000000	0.402338
1598.000000	0.402366
1599.000000	0.402560
1600.000000	0.402549
1601.000000	0.402365
1602.000000	0.402335
1603.000000	0.402422
1604.000000	0.402451
1605.000000	0.402517
1606.000000	0.402535
1607.000000	0.402596
1608.000000	0.402642
1609.000000	0.402749
1610.000000	0.402757
1611.000000	0.402671
1612.000000	0.402739
1613.000000	0.402997
1614.000000	0.403134
1615.000000	0.403433
1616.000000	0.403637
1617.000000	0.403641
1618.000000	0.403700
1619.000000	0.403742
1620.000000	0.403815
1621.000000	0.403902
1622.000000	0.404060
1623.000000	0.404310
1624.000000	0.404409
1625.000000	0.404261
1626.000000	0.404197
1627.000000	0.403997
1628.000000	0.404041
1629.000000	0.404325
1630.000000	0.404414
1631.000000	0.404428
1632.000000	0.404468
1633.000000	0.404428
1634.000000	0.404421
1635.000000	0.404490
1636.000000	0.404591
1637.000000	0.404687
1638.000000	0.404765
1639.000000	0.405005
1640.000000	0.405153
1641.000000	0.405357
1642.000000	0.405448
1643.000000	0.405553
1644.000000	0.405574
1645.000000	0.405420
1646.000000	0.405369
1647.000000	0.405373
1648.000000	0.405374
1649.000000	0.405576
1650.000000	0.405611
1651.000000	0.405601
1652.000000	0.405654
1653.000000	0.405549
1654.000000	0.405669
1655.000000	0.405929
1656.000000	0.405905
1657.000000	0.405920
1658.000000	0.405902
1659.000000	0.405825
1660.000000	0.405925
1661.000000	0.406091
1662.000000	0.406133
1663.000000	0.406094
1664.000000	0.406091
1665.000000	0.405988
1666.000000	0.406175
1667.000000	0.406483
1668.000000	0.406596
1669.000000	0.406698
1670.000000	0.406688
1671.000000	0.406623
1672.000000	0.406707
1673.000000	0.406861
1674.000000	0.406990
1675.000000	0.407051
1676.000000	0.407161
1677.000000	0.407220
1678.000000	0.407218
1679.000000	0.407206
1680.000000	0.406996
1681.000000	0.406917
1682.000000	0.407119
1683.000000	0.407256
1684.000000	0.407380
1685.000000	0.407453
1686.000000	0.407504
1687.000000	0.407607
1688.000000	0.407521
1689.000000	0.407594
1690.000000	0.407451
1691.000000	0.407213
1692.000000	0.407285
1693.000000	0.407441
1694.000000	0.407543
1695.000000	0.407735
1696.000000	0.407795
1697.000000	0.407785
1698.000000	0.407739
1699.000000	0.407785
1700.000000	0.407919
1701.000000	0.408032
1702.000000	0.407956
1703.000000	0.407864
1704.000000	0.407816
1705.000000	0.407702
1706.000000	0.407543
1707.000000	0.407492
1708.000000	0.407435
1709.000000	0.407286
1710.000000	0.407291
1711.000000	0.407310
1712.000000	0.407351
1713.000000	0.407271
1714.000000	0.407288
1715.000000	0.407208
1716.000000	0.406857
1717.000000	0.406747
1718.000000	0.406733
1719.000000	0.406685
1720.000000	0.406826
1721.000000	0.406839
1722.000000	0.406759
1723.000000	0.406759
1724.000000	0.406793
1725.000000	0.406864
1726.000000	0.406908
1727.000000	0.406897
1728.000000	0.406799
1729.000000	0.406631
1730.000000	0.406582
1731.000000	0.406447
1732.000000	0.406223
1733.000000	0.406176
1734.000000	0.405971
1735.000000	0.405896
1736.000000	0.405957
1737.000000	0.405863
1738.000000	0.405744
1739.000000	0.405637
1740.000000	0.405385
1741.000000	0.405403
1742.000000	0.405606
1743.000000	0.405688
1744.000000	0.405860
1745.000000	0.405839
1746.000000	0.405603
1747.000000	0.405760
1748.000000	0.405714
1749.000000	0.405631
1750.000000	0.405543
1751.000000	0.405437
1752.000000	0.405507
1753.000000	0.405494
1754.000000	0.405599
1755.000000	0.405922
1756.000000	0.405937
1757.000000	0.405814
1758.000000	0.405773
1759.000000	0.405478
1760.000000	0.405323
1761.000000	0.405288
1762.000000	0.405248
1763.000000	0.405261
1764.000000	0.405214
1765.000000	0.405157
1766.000000	0.405114
1767.000000	0.404841
1768.000000	0.404712
1769.000000	0.404921
1770.000000	0.404890
1771.000000	0.404727
1772.000000	0.404581
1773.000000	0.404201
1774.000000	0.403975
1775.000000	0.403943
1776.000000	0.403820
1777.000000	0.403623
1778.000000	0.403458
1779.000000	0.403211
1780.000000	0.403182
1781.000000	0.403231
1782.000000	0.403203
1783.000000	0.403393
1784.000000	0.403380
1785.000000	0.403115
1786.000000	0.403025
1787.000000	0.402957
1788.000000	0.403056
1789.000000	0.403183
1790.000000	0.403203
1791.000000	0.403197
1792.000000	0.403203
1793.000000	0.403203
1794.000000	0.403323
1795.000000	0.403380
1796.000000	0.403241
1797.000000	0.403242
1798.000000	0.403321
1799.000000	0.403385
1800.000000	0.403625
1801.000000	0.403003
1802.000000	0.403190
1803.000000	0.404139
1804.000000	0.404328
1805.000000	0.403951
1806.000000	0.404331
1807.000000	0.405245
1808.000000	0.405335
1809.000000	0.405241
1810.000000	0.405638
1811.000000	0.405471
1812.000000	0.404405
1813.000000	0.404015
1814.000000	0.403984
1815.000000	0.403844
1816.000000	0.403651
1817.000000	0.403373
1818.000000	0.403082
1819.000000	0.403235
1820.000000	0.403770
1821.000000	0.403351
1822.000000	0.403073
1823.000000	0.402699
1824.000000	0.402229
1825.000000	0.400901
1826.000000	0.400691
1827.000000	0.400774
1828.000000	0.401147
1829.000000	0.402067
1830.000000	0.402980
1831.000000	0.403088
1832.000000	0.402539
1833.000000	0.402607
1834.000000	0.402578
1835.000000	0.402340
1836.000000	0.402306
1837.000000	0.402124
1838.000000	0.401330
1839.000000	0.400557
1840.000000	0.400502
1841.000000	0.399843
1842.000000	0.399373
1843.000000	0.398871
1844.000000	0.398371
1845.000000	0.397619
1846.000000	0.397256
1847.000000	0.396812
1848.000000	0.396412
1849.000000	0.396446
1850.000000	0.396516
1851.000000	0.396308
1852.000000	0.396081
1853.000000	0.395823
1854.000000	0.395046
1855.000000	0.394369
1856.000000	0.393789
1857.000000	0.392815
1858.000000	0.392131
1859.000000	0.390909
1860.000000	0.389486
1861.000000	0.388040
1862.000000	0.386488
1863.000000	0.384640
1864.000000	0.383400
1865.000000	0.382717
1866.000000	0.381352
1867.000000	0.380098
1868.000000	0.378059
1869.000000	0.375500
1870.000000	0.372981
1871.000000	0.370472
1872.000000	0.368128
1873.000000	0.366082
1874.000000	0.364643
1875.000000	0.362228
1876.000000	0.359619
1877.000000	0.356233
1878.000000	0.351875
1879.000000	0.348291
1880.000000	0.344302
1881.000000	0.340169
1882.000000	0.336271
1883.000000	0.331516
1884.000000	0.326770
1885.000000	0.321747
1886.000000	0.316344
1887.000000	0.310493
1888.000000	0.304503
1889.000000	0.298034
1890.000000	0.292538
1891.000000	0.286902
1892.000000	0.280794
1893.000000	0.275485
1894.000000	0.269869
1895.000000	0.264403
1896.000000	0.259070
1897.000000	0.254392
1898.000000	0.249712
1899.000000	0.245801
1900.000000	0.242344
1901.000000	0.239576
1902.000000	0.237287
1903.000000	0.235009
1904.000000	0.233372
1905.000000	0.232163
1906.000000	0.230993
1907.000000	0.229996
1908.000000	0.229442
1909.000000	0.228952
1910.000000	0.228516
1911.000000	0.229073
1912.000000	0.229607
1913.000000	0.230386
1914.000000	0.231903
1915.000000	0.232593
1916.000000	0.233245
1917.000000	0.234018
1918.000000	0.234988
1919.000000	0.235690
1920.000000	0.236699
1921.000000	0.237925
1922.000000	0.239200
1923.000000	0.240425
1924.000000	0.241524
1925.000000	0.242539
1926.000000	0.243255
1927.000000	0.244206
1928.000000	0.245037
1929.000000	0.245788
1930.000000	0.246451
1931.000000	0.247451
1932.000000	0.248352
1933.000000	0.249830
1934.000000	0.251229
1935.000000	0.252009
1936.000000	0.253214
1937.000000	0.253796
1938.000000	0.253722
1939.000000	0.253980
1940.000000	0.254588
1941.000000	0.254577
1942.000000	0.254356
1943.000000	0.254618
1944.000000	0.254919
1945.000000	0.255267
1946.000000	0.255968
1947.000000	0.257134
1948.000000	0.258136
1949.000000	0.258602
1950.000000	0.258612
1951.000000	0.258557
1952.000000	0.257976
1953.000000	0.257599
1954.000000	0.257754
1955.000000	0.257759
1956.000000	0.257982
1957.000000	0.258316
1958.000000	0.258713
1959.000000	0.259787
1960.000000	0.261177
1961.000000	0.262306
1962.000000	0.262821
1963.000000	0.262895
1964.000000	0.263092
1965.000000	0.262747
1966.000000	0.262247
1967.000000	0.262971
1968.000000	0.263614
1969.000000	0.264231
1970.000000	0.265270
1971.000000	0.265670
1972.000000	0.265628
1973.000000	0.265957
1974.000000	0.266591
1975.000000	0.267107
1976.000000	0.267599
1977.000000	0.268651
1978.000000	0.269423
1979.000000	0.269782
1980.000000	0.270884
1981.000000	0.272081
1982.000000	0.272739
1983.000000	0.273450
1984.000000	0.274201
1985.000000	0.274801
1986.000000	0.275158
1987.000000	0.275309
1988.000000	0.276401
1989.000000	0.276971
1990.000000	0.277713
1991.000000	0.279159
1992.000000	0.279790
1993.000000	0.280959
1994.000000	0.282289
1995.000000	0.283196
1996.000000	0.284361
1997.000000	0.285012
1998.000000	0.284811
1999.000000	0.285273
2000.000000	0.285887
2001.000000	0.286319
2002.000000	0.287105
2003.000000	0.288264
2004.000000	0.289111
2005.000000	0.290251
2006.000000	0.291782
2007.000000	0.293304
2008.000000	0.294978
2009.000000	0.296966
2010.000000	0.298490
2011.000000	0.300164
2012.000000	0.301178
2013.000000	0.301300
2014.000000	0.301966
2015.000000	0.302668
2016.000000	0.302819
2017.000000	0.303634
2018.000000	0.304650
2019.000000	0.305579
2020.000000	0.306557
2021.000000	0.307410
2022.000000	0.308231
2023.000000	0.308930
2024.000000	0.309448
2025.000000	0.310052
2026.000000	0.310464
2027.000000	0.310839
2028.000000	0.311638
2029.000000	0.312533
2030.000000	0.313412
2031.000000	0.314768
2032.000000	0.316101
2033.000000	0.317635
2034.000000	0.318551
2035.000000	0.319524
2036.000000	0.319949
2037.000000	0.319636
2038.000000	0.319653
2039.000000	0.319793
2040.000000	0.319718
2041.000000	0.319719
2042.000000	0.320465
2043.000000	0.321290
2044.000000	0.322721
2045.000000	0.323631
2046.000000	0.323697
2047.000000	0.324243
2048.000000	0.324346
2049.000000	0.324717
2050.000000	0.325285
2051.000000	0.325762
2052.000000	0.325757
2053.000000	0.326106
2054.000000	0.327222
2055.000000	0.327659
2056.000000	0.327893
2057.000000	0.328851
2058.000000	0.329377
2059.000000	0.330004
2060.000000	0.330695
2061.000000	0.331646
2062.000000	0.332101
2063.000000	0.332502
2064.000000	0.332522
2065.000000	0.332104
2066.000000	0.332185
2067.000000	0.332447
2068.000000	0.333385
2069.000000	0.334025
2070.000000	0.334566
2071.000000	0.335203
2072.000000	0.335114
2073.000000	0.334978
2074.000000	0.335360
2075.000000	0.335857
2076.000000	0.336353
2077.000000	0.336954
2078.000000	0.338262
2079.000000	0.338759
2080.000000	0.338665
2081.000000	0.338925
2082.000000	0.339162
2083.000000	0.339110
2084.000000	0.339769
2085.000000	0.340487
2086.000000	0.340366
2087.000000	0.340900
2088.000000	0.341734
2089.000000	0.341885
2090.000000	0.342051
2091.000000	0.342435
2092.000000	0.342811
2093.000000	0.342584
2094.000000	0.342969
2095.000000	0.344254
2096.000000	0.344878
2097.000000	0.345066
2098.000000	0.345522
2099.000000	0.346057
2100.000000	0.346408
2101.000000	0.346719
2102.000000	0.347170
2103.000000	0.347533
2104.000000	0.347177
2105.000000	0.347639
2106.000000	0.348875
2107.000000	0.349466
2108.000000	0.350010
2109.000000	0.350688
2110.000000	0.350930
2111.000000	0.351021
2112.000000	0.351096
2113.000000	0.351027
2114.000000	0.350316
2115.000000	0.349805
2116.000000	0.349934
2117.000000	0.350118
2118.000000	0.350881
2119.000000	0.351805
2120.000000	0.352218
2121.000000	0.352434
2122.000000	0.352592
2123.000000	0.352209
2124.000000	0.352146
2125.000000	0.352129
2126.000000	0.352260
2127.000000	0.352552
2128.000000	0.353099
2129.000000	0.353754
2130.000000	0.354713
2131.000000	0.354890
2132.000000	0.354936
2133.000000	0.355480
2134.000000	0.355028
2135.000000	0.354962
2136.000000	0.354939
2137.000000	0.355059
2138.000000	0.354934
2139.000000	0.355423
2140.000000	0.357044
2141.000000	0.357525
2142.000000	0.357486
2143.000000	0.357259
2144.000000	0.356123
2145.000000	0.355847
2146.000000	0.355963
2147.000000	0.356821
2148.000000	0.357554
2149.000000	0.359283
2150.000000	0.360119
2151.000000	0.360426
2152.000000	0.361230
2153.000000	0.360358
2154.000000	0.359882
2155.000000	0.359450
2156.000000	0.359045
2157.000000	0.358204
2158.000000	0.357991
2159.000000	0.358283
2160.000000	0.358197
2161.000000	0.357766
2162.000000	0.357986
2163.000000	0.358674
2164.000000	0.358809
2165.000000	0.359215
2166.000000	0.359331
2167.000000	0.358991
2168.000000	0.358282
2169.000000	0.357678
2170.000000	0.357767
2171.000000	0.357527
2172.000000	0.356863
2173.000000	0.357028
2174.000000	0.357646
2175.000000	0.358277
2176.000000	0.359738
2177.000000	0.360435
2178.000000	0.360968
2179.000000	0.361403
2180.000000	0.361439
2181.000000	0.361405
2182.000000	0.360500
2183.000000	0.359698
2184.000000	0.358656
2185.000000	0.358449
2186.000000	0.358493
2187.000000	0.358412
2188.000000	0.358522
2189.000000	0.358566
2190.000000	0.358282
2191.000000	0.358034
2192.000000	0.357626
2193.000000	0.356962
2194.000000	0.355643
2195.000000	0.353350
2196.000000	0.352642
2197.000000	0.351062
2198.000000	0.351711
2199.000000	0.356984
2200.000000	0.359017
2201.000000	0.360347
2202.000000	0.361290
2203.000000	0.360877
2204.000000	0.358225
2205.000000	0.357396
2206.000000	0.356650
2207.000000	0.355319
2208.000000	0.356297
2209.000000	0.355644
2210.000000	0.356653
2211.000000	0.357725
2212.000000	0.357881
2213.000000	0.357819
2214.000000	0.357917
2215.000000	0.357245
2216.000000	0.355892
2217.000000	0.354375
2218.000000	0.351983
2219.000000	0.350804
2220.000000	0.348677
2221.000000	0.348538
2222.000000	0.350920
2223.000000	0.352413
2224.000000	0.355406
2225.000000	0.356396
2226.000000	0.355490
2227.000000	0.354313
2228.000000	0.349615
2229.000000	0.345883
2230.000000	0.344281
2231.000000	0.341612
2232.000000	0.341841
2233.000000	0.343170
2234.000000	0.342465
2235.000000	0.342428
2236.000000	0.342131
2237.000000	0.340406
2238.000000	0.341026
2239.000000	0.343214
2240.000000	0.344271
2241.000000	0.347021
2242.000000	0.347822
2243.000000	0.346982
2244.000000	0.346630
2245.000000	0.344604
2246.000000	0.343962
2247.000000	0.343127
2248.000000	0.343925
2249.000000	0.346987
2250.000000	0.349531
2251.000000	0.351610
2252.000000	0.352620
2253.000000	0.349837
2254.000000	0.347275
2255.000000	0.344851
2256.000000	0.343024
2257.000000	0.342754
2258.000000	0.342723
2259.000000	0.343785
2260.000000	0.344866
2261.000000	0.344170
2262.000000	0.343397
2263.000000	0.341710
2264.000000	0.336842
2265.000000	0.335167
2266.000000	0.334841
2267.000000	0.333977
2268.000000	0.333849
2269.000000	0.334116
2270.000000	0.335468
2271.000000	0.335180
2272.000000	0.334396
2273.000000	0.334092
2274.000000	0.331348
2275.000000	0.330457
2276.000000	0.332072
2277.000000	0.332243
2278.000000	0.330363
2279.000000	0.330828
2280.000000	0.327691
2281.000000	0.326395
2282.000000	0.324689
2283.000000	0.320982
2284.000000	0.319236
2285.000000	0.315168
2286.000000	0.312036
2287.000000	0.310201
2288.000000	0.307639
2289.000000	0.305372
2290.000000	0.302375
2291.000000	0.299111
2292.000000	0.295248
2293.000000	0.292487
2294.000000	0.291879
2295.000000	0.294213
2296.000000	0.294498
2297.000000	0.295863
2298.000000	0.296134
2299.000000	0.294281
2300.000000	0.294059
2301.000000	0.295657
2302.000000	0.295192
2303.000000	0.295178
2304.000000	0.292725
2305.000000	0.287778
2306.000000	0.283098
2307.000000	0.276075
2308.000000	0.270891
2309.000000	0.268792
2310.000000	0.264924
2311.000000	0.263309
2312.000000	0.262280
2313.000000	0.261705
2314.000000	0.263822
2315.000000	0.264859
2316.000000	0.267540
2317.000000	0.270587
2318.000000	0.271020
2319.000000	0.273859
2320.000000	0.277131
2321.000000	0.280688
2322.000000	0.285338
2323.000000	0.286819
2324.000000	0.290059
2325.000000	0.291802
2326.000000	0.292345
2327.000000	0.297724
2328.000000	0.302083
2329.000000	0.305802
2330.000000	0.307771
2331.000000	0.307332
2332.000000	0.305821
2333.000000	0.304111
2334.000000	0.303780
2335.000000	0.302964
2336.000000	0.301458
2337.000000	0.300284
2338.000000	0.299217
2339.000000	0.298285
2340.000000	0.296542
2341.000000	0.297390
2342.000000	0.299655
2343.000000	0.300824
2344.000000	0.304691
2345.000000	0.306038
2346.000000	0.304926
2347.000000	0.303878
2348.000000	0.302426
2349.000000	0.300051
2350.000000	0.296980
2351.000000	0.297262
2352.000000	0.298412
2353.000000	0.301338
2354.000000	0.304189
2355.000000	0.306319
2356.000000	0.308735
2357.000000	0.305972
2358.000000	0.300690
2359.000000	0.294871
2360.000000	0.288602
2361.000000	0.284323
2362.000000	0.283593
2363.000000	0.285471
2364.000000	0.284152
2365.000000	0.284691
2366.000000	0.282169
2367.000000	0.275943
2368.000000	0.275077
2369.000000	0.274905
2370.000000	0.275993
2371.000000	0.280343
2372.000000	0.285090
2373.000000	0.283952
2374.000000	0.279123
2375.000000	0.277356
2376.000000	0.273845
2377.000000	0.270425
2378.000000	0.270121
2379.000000	0.270288
2380.000000	0.266363
2381.000000	0.262153
2382.000000	0.264830
2383.000000	0.263912
2384.000000	0.262593
2385.000000	0.264592
2386.000000	0.259783
2387.000000	0.251650
2388.000000	0.245066
2389.000000	0.242371
2390.000000	0.241130
2391.000000	0.242627
2392.000000	0.247890
2393.000000	0.249820
2394.000000	0.254692
2395.000000	0.255572
2396.000000	0.251295
2397.000000	0.251712
2398.000000	0.250608
2399.000000	0.250541
2400.000000	0.247477
2401.000000	0.247204
2402.000000	0.246996
2403.000000	0.245312
2404.000000	0.258112
2405.000000	0.266594
2406.000000	0.271234
2407.000000	0.270811
2408.000000	0.259465
2409.000000	0.256499
2410.000000	0.256300
2411.000000	0.262967
2412.000000	0.274069
2413.000000	0.279900
2414.000000	0.281194
2415.000000	0.275296
2416.000000	0.269462
2417.000000	0.251978
2418.000000	0.240614
2419.000000	0.245295
2420.000000	0.240383
2421.000000	0.242649
2422.000000	0.245530
2423.000000	0.240458
2424.000000	0.240448
2425.000000	0.239416
2426.000000	0.240149
2427.000000	0.241255
2428.000000	0.247169
2429.000000	0.248857
2430.000000	0.247089
2431.000000	0.247899
2432.000000	0.243216
2433.000000	0.253922
2434.000000	0.261394
2435.000000	0.253677
2436.000000	0.241416
2437.000000	0.236223
2438.000000	0.247619
2439.000000	0.249610
2440.000000	0.260778
2441.000000	0.255223
2442.000000	0.228178
2443.000000	0.226396
2444.000000	0.217703
2445.000000	0.218223
2446.000000	0.227210
2447.000000	0.223364
2448.000000	0.226561
2449.000000	0.220465
2450.000000	0.204491
2451.000000	0.191684
2452.000000	0.189530
2453.000000	0.200556
2454.000000	0.213575
2455.000000	0.230960
2456.000000	0.234806
2457.000000	0.236195
2458.000000	0.248703
2459.000000	0.239199
2460.000000	0.245012
2461.000000	0.261752
2462.000000	0.251013
2463.000000	0.254630
2464.000000	0.257564
2465.000000	0.242333
2466.000000	0.242863
2467.000000	0.246174
2468.000000	0.232276
2469.000000	0.217148
2470.000000	0.200168
2471.000000	0.173070
2472.000000	0.181403
2473.000000	0.189240
2474.000000	0.182689
2475.000000	0.207498
2476.000000	0.196344
2477.000000	0.193535
2478.000000	0.219807
2479.000000	0.207256
2480.000000	0.202997
2481.000000	0.203215
2482.000000	0.186406
2483.000000	0.186830
2484.000000	0.218959
2485.000000	0.249820
2486.000000	0.262866
2487.000000	0.280159
2488.000000	0.283472
2489.000000	0.265604
2490.000000	0.286702
2491.000000	0.338258
2492.000000	0.367740
2493.000000	0.411209
2494.000000	0.449422
2495.000000	0.488932
2496.000000	0.463722
2497.000000	0.373991
2498.000000	0.333742
2499.000000	0.273882
2500.000000	0.251223
