# Wavelength	SM1200H-10_HEX-20_FV7-70_00001.asd.rts.txt
350.000000	0.213037
351.000000	0.228807
352.000000	0.222131
353.000000	0.218503
354.000000	0.227769
355.000000	0.216593
356.000000	0.208546
357.000000	0.209049
358.000000	0.207302
359.000000	0.216593
360.000000	0.221453
361.000000	0.206828
362.000000	0.207811
363.000000	0.215082
364.000000	0.219036
365.000000	0.220539
366.000000	0.224729
367.000000	0.228676
368.000000	0.222555
369.000000	0.218706
370.000000	0.218512
371.000000	0.219915
372.000000	0.222878
373.000000	0.222890
374.000000	0.219087
375.000000	0.218679
376.000000	0.220371
377.000000	0.222196
378.000000	0.221522
379.000000	0.223410
380.000000	0.226775
381.000000	0.229465
382.000000	0.230403
383.000000	0.229072
384.000000	0.226040
385.000000	0.222527
386.000000	0.223632
387.000000	0.227879
388.000000	0.226206
389.000000	0.225549
390.000000	0.226349
391.000000	0.226852
392.000000	0.229159
393.000000	0.230900
394.000000	0.230339
395.000000	0.229186
396.000000	0.229328
397.000000	0.230623
398.000000	0.230298
399.000000	0.231216
400.000000	0.232758
401.000000	0.232797
402.000000	0.231617
403.000000	0.231302
404.000000	0.233102
405.000000	0.233123
406.000000	0.232932
407.000000	0.233506
408.000000	0.234745
409.000000	0.234209
410.000000	0.232993
411.000000	0.234229
412.000000	0.235521
413.000000	0.236221
414.000000	0.236300
415.000000	0.236786
416.000000	0.237107
417.000000	0.237043
418.000000	0.237417
419.000000	0.237524
420.000000	0.237465
421.000000	0.238020
422.000000	0.238338
423.000000	0.238697
424.000000	0.239643
425.000000	0.240021
426.000000	0.240139
427.000000	0.240339
428.000000	0.240559
429.000000	0.240667
430.000000	0.240717
431.000000	0.241015
432.000000	0.241269
433.000000	0.241306
434.000000	0.241127
435.000000	0.241151
436.000000	0.241699
437.000000	0.242727
438.000000	0.242920
439.000000	0.242789
440.000000	0.242783
441.000000	0.242697
442.000000	0.242896
443.000000	0.243189
444.000000	0.243141
445.000000	0.243336
446.000000	0.243760
447.000000	0.244107
448.000000	0.244812
449.000000	0.245281
450.000000	0.245260
451.000000	0.245666
452.000000	0.245728
453.000000	0.245438
454.000000	0.245889
455.000000	0.246467
456.000000	0.246930
457.000000	0.247000
458.000000	0.247122
459.000000	0.247465
460.000000	0.248004
461.000000	0.247857
462.000000	0.247747
463.000000	0.247932
464.000000	0.248341
465.000000	0.248801
466.000000	0.249136
467.000000	0.249292
468.000000	0.249312
469.000000	0.249359
470.000000	0.249709
471.000000	0.249875
472.000000	0.249763
473.000000	0.249609
474.000000	0.250395
475.000000	0.250768
476.000000	0.250621
477.000000	0.250830
478.000000	0.250947
479.000000	0.251121
480.000000	0.251357
481.000000	0.251678
482.000000	0.252083
483.000000	0.252354
484.000000	0.252618
485.000000	0.252699
486.000000	0.252776
487.000000	0.253117
488.000000	0.253556
489.000000	0.253918
490.000000	0.253967
491.000000	0.254119
492.000000	0.254471
493.000000	0.254836
494.000000	0.254853
495.000000	0.254956
496.000000	0.255387
497.000000	0.255864
498.000000	0.256179
499.000000	0.256362
500.000000	0.256520
501.000000	0.256711
502.000000	0.256998
503.000000	0.257340
504.000000	0.257622
505.000000	0.257842
506.000000	0.258033
507.000000	0.258196
508.000000	0.258445
509.000000	0.258786
510.000000	0.259164
511.000000	0.259449
512.000000	0.259691
513.000000	0.260039
514.000000	0.260361
515.000000	0.260699
516.000000	0.261063
517.000000	0.261364
518.000000	0.261626
519.000000	0.261828
520.000000	0.262163
521.000000	0.262480
522.000000	0.262710
523.000000	0.262878
524.000000	0.263013
525.000000	0.263203
526.000000	0.263609
527.000000	0.263908
528.000000	0.264133
529.000000	0.264429
530.000000	0.264656
531.000000	0.264895
532.000000	0.265126
533.000000	0.265385
534.000000	0.265714
535.000000	0.266068
536.000000	0.266355
537.000000	0.266645
538.000000	0.266907
539.000000	0.267070
540.000000	0.267322
541.000000	0.267578
542.000000	0.267797
543.000000	0.268163
544.000000	0.268460
545.000000	0.268594
546.000000	0.268965
547.000000	0.269334
548.000000	0.269642
549.000000	0.269843
550.000000	0.270098
551.000000	0.270420
552.000000	0.270723
553.000000	0.271035
554.000000	0.271305
555.000000	0.271538
556.000000	0.271912
557.000000	0.272206
558.000000	0.272488
559.000000	0.272841
560.000000	0.273114
561.000000	0.273390
562.000000	0.273714
563.000000	0.273953
564.000000	0.274268
565.000000	0.274689
566.000000	0.274941
567.000000	0.275193
568.000000	0.275532
569.000000	0.275906
570.000000	0.276258
571.000000	0.276563
572.000000	0.276853
573.000000	0.277136
574.000000	0.277401
575.000000	0.277683
576.000000	0.277903
577.000000	0.278130
578.000000	0.278460
579.000000	0.278690
580.000000	0.278892
581.000000	0.279133
582.000000	0.279487
583.000000	0.279767
584.000000	0.279995
585.000000	0.280316
586.000000	0.280626
587.000000	0.280891
588.000000	0.281111
589.000000	0.281397
590.000000	0.281671
591.000000	0.281894
592.000000	0.282158
593.000000	0.282448
594.000000	0.282728
595.000000	0.282940
596.000000	0.283159
597.000000	0.283426
598.000000	0.283665
599.000000	0.283815
600.000000	0.283981
601.000000	0.284186
602.000000	0.284454
603.000000	0.284654
604.000000	0.284771
605.000000	0.284976
606.000000	0.285104
607.000000	0.285194
608.000000	0.285409
609.000000	0.285652
610.000000	0.285863
611.000000	0.286007
612.000000	0.286205
613.000000	0.286376
614.000000	0.286509
615.000000	0.286652
616.000000	0.286820
617.000000	0.286963
618.000000	0.287049
619.000000	0.287186
620.000000	0.287344
621.000000	0.287498
622.000000	0.287598
623.000000	0.287700
624.000000	0.287848
625.000000	0.288001
626.000000	0.288120
627.000000	0.288215
628.000000	0.288362
629.000000	0.288631
630.000000	0.288848
631.000000	0.288978
632.000000	0.289143
633.000000	0.289333
634.000000	0.289493
635.000000	0.289626
636.000000	0.289786
637.000000	0.289957
638.000000	0.290033
639.000000	0.290132
640.000000	0.290302
641.000000	0.290375
642.000000	0.290504
643.000000	0.290644
644.000000	0.290706
645.000000	0.290785
646.000000	0.290954
647.000000	0.291186
648.000000	0.291273
649.000000	0.291350
650.000000	0.291499
651.000000	0.291841
652.000000	0.291989
653.000000	0.292025
654.000000	0.292162
655.000000	0.292347
656.000000	0.292537
657.000000	0.292662
658.000000	0.292887
659.000000	0.293078
660.000000	0.293171
661.000000	0.293278
662.000000	0.293375
663.000000	0.293499
664.000000	0.293616
665.000000	0.293771
666.000000	0.293939
667.000000	0.294057
668.000000	0.294167
669.000000	0.294326
670.000000	0.294540
671.000000	0.294685
672.000000	0.294815
673.000000	0.294970
674.000000	0.295205
675.000000	0.295400
676.000000	0.295589
677.000000	0.295841
678.000000	0.295993
679.000000	0.296128
680.000000	0.296308
681.000000	0.296420
682.000000	0.296578
683.000000	0.296744
684.000000	0.296956
685.000000	0.297105
686.000000	0.297254
687.000000	0.297467
688.000000	0.297693
689.000000	0.297868
690.000000	0.297995
691.000000	0.298132
692.000000	0.298259
693.000000	0.298405
694.000000	0.298472
695.000000	0.298519
696.000000	0.298599
697.000000	0.298757
698.000000	0.298923
699.000000	0.299117
700.000000	0.299350
701.000000	0.299516
702.000000	0.299645
703.000000	0.299734
704.000000	0.299786
705.000000	0.299899
706.000000	0.300038
707.000000	0.300195
708.000000	0.300368
709.000000	0.300577
710.000000	0.300827
711.000000	0.300955
712.000000	0.301107
713.000000	0.301329
714.000000	0.301454
715.000000	0.301603
716.000000	0.301778
717.000000	0.301910
718.000000	0.302047
719.000000	0.302185
720.000000	0.302320
721.000000	0.302410
722.000000	0.302466
723.000000	0.302549
724.000000	0.302607
725.000000	0.302676
726.000000	0.302810
727.000000	0.302911
728.000000	0.303048
729.000000	0.303231
730.000000	0.303390
731.000000	0.303492
732.000000	0.303643
733.000000	0.303864
734.000000	0.303946
735.000000	0.303982
736.000000	0.304109
737.000000	0.304233
738.000000	0.304343
739.000000	0.304450
740.000000	0.304425
741.000000	0.304496
742.000000	0.304605
743.000000	0.304703
744.000000	0.304830
745.000000	0.304866
746.000000	0.304878
747.000000	0.304897
748.000000	0.304969
749.000000	0.305080
750.000000	0.305168
751.000000	0.305219
752.000000	0.305251
753.000000	0.305298
754.000000	0.305383
755.000000	0.305484
756.000000	0.305622
757.000000	0.305763
758.000000	0.305866
759.000000	0.305948
760.000000	0.305968
761.000000	0.306018
762.000000	0.306130
763.000000	0.306270
764.000000	0.306427
765.000000	0.306517
766.000000	0.306570
767.000000	0.306629
768.000000	0.306726
769.000000	0.306827
770.000000	0.306906
771.000000	0.306947
772.000000	0.306983
773.000000	0.306975
774.000000	0.306991
775.000000	0.307028
776.000000	0.307049
777.000000	0.307033
778.000000	0.307101
779.000000	0.307196
780.000000	0.307287
781.000000	0.307337
782.000000	0.307299
783.000000	0.307336
784.000000	0.307446
785.000000	0.307546
786.000000	0.307596
787.000000	0.307588
788.000000	0.307579
789.000000	0.307591
790.000000	0.307589
791.000000	0.307560
792.000000	0.307613
793.000000	0.307695
794.000000	0.307745
795.000000	0.307740
796.000000	0.307711
797.000000	0.307695
798.000000	0.307751
799.000000	0.307768
800.000000	0.307788
801.000000	0.307879
802.000000	0.307968
803.000000	0.307955
804.000000	0.307882
805.000000	0.307924
806.000000	0.307945
807.000000	0.307957
808.000000	0.307892
809.000000	0.307836
810.000000	0.307812
811.000000	0.307811
812.000000	0.307851
813.000000	0.307784
814.000000	0.307636
815.000000	0.307617
816.000000	0.307596
817.000000	0.307605
818.000000	0.307614
819.000000	0.307648
820.000000	0.307707
821.000000	0.307726
822.000000	0.307707
823.000000	0.307698
824.000000	0.307690
825.000000	0.307762
826.000000	0.307772
827.000000	0.307768
828.000000	0.307827
829.000000	0.307888
830.000000	0.307902
831.000000	0.307863
832.000000	0.307645
833.000000	0.307583
834.000000	0.307605
835.000000	0.307627
836.000000	0.307619
837.000000	0.307642
838.000000	0.307688
839.000000	0.307644
840.000000	0.307478
841.000000	0.307298
842.000000	0.307171
843.000000	0.307089
844.000000	0.306971
845.000000	0.306831
846.000000	0.306878
847.000000	0.306880
848.000000	0.306840
849.000000	0.306836
850.000000	0.306792
851.000000	0.306730
852.000000	0.306718
853.000000	0.306772
854.000000	0.306597
855.000000	0.306465
856.000000	0.306550
857.000000	0.306424
858.000000	0.306327
859.000000	0.306287
860.000000	0.306147
861.000000	0.306128
862.000000	0.306189
863.000000	0.306118
864.000000	0.305980
865.000000	0.305845
866.000000	0.305769
867.000000	0.305707
868.000000	0.305628
869.000000	0.305468
870.000000	0.305278
871.000000	0.305106
872.000000	0.304996
873.000000	0.304885
874.000000	0.304719
875.000000	0.304480
876.000000	0.304286
877.000000	0.304208
878.000000	0.304034
879.000000	0.303858
880.000000	0.303631
881.000000	0.303459
882.000000	0.303325
883.000000	0.303213
884.000000	0.303058
885.000000	0.303008
886.000000	0.302900
887.000000	0.302691
888.000000	0.302516
889.000000	0.302460
890.000000	0.302335
891.000000	0.302113
892.000000	0.301954
893.000000	0.301747
894.000000	0.301570
895.000000	0.301450
896.000000	0.301328
897.000000	0.301202
898.000000	0.301070
899.000000	0.300791
900.000000	0.300515
901.000000	0.300305
902.000000	0.300207
903.000000	0.300202
904.000000	0.300136
905.000000	0.299813
906.000000	0.299663
907.000000	0.299518
908.000000	0.299345
909.000000	0.299106
910.000000	0.298930
911.000000	0.298741
912.000000	0.298489
913.000000	0.298328
914.000000	0.298021
915.000000	0.297713
916.000000	0.297656
917.000000	0.297489
918.000000	0.297359
919.000000	0.297338
920.000000	0.297154
921.000000	0.296958
922.000000	0.296765
923.000000	0.296504
924.000000	0.296257
925.000000	0.295950
926.000000	0.295611
927.000000	0.295361
928.000000	0.295122
929.000000	0.294897
930.000000	0.294713
931.000000	0.294540
932.000000	0.294328
933.000000	0.294090
934.000000	0.293803
935.000000	0.293534
936.000000	0.293269
937.000000	0.292914
938.000000	0.292641
939.000000	0.292382
940.000000	0.292116
941.000000	0.291986
942.000000	0.291730
943.000000	0.291590
944.000000	0.291537
945.000000	0.291365
946.000000	0.291135
947.000000	0.290915
948.000000	0.290695
949.000000	0.290438
950.000000	0.290182
951.000000	0.289964
952.000000	0.289915
953.000000	0.289603
954.000000	0.289233
955.000000	0.288930
956.000000	0.288535
957.000000	0.288330
958.000000	0.288240
959.000000	0.288138
960.000000	0.287803
961.000000	0.287539
962.000000	0.287402
963.000000	0.287168
964.000000	0.286682
965.000000	0.286335
966.000000	0.286236
967.000000	0.285789
968.000000	0.285544
969.000000	0.285363
970.000000	0.284980
971.000000	0.284851
972.000000	0.284608
973.000000	0.284145
974.000000	0.283933
975.000000	0.283792
976.000000	0.283586
977.000000	0.283286
978.000000	0.283183
979.000000	0.283157
980.000000	0.282939
981.000000	0.282685
982.000000	0.282396
983.000000	0.282160
984.000000	0.282042
985.000000	0.281925
986.000000	0.281868
987.000000	0.281673
988.000000	0.281212
989.000000	0.281008
990.000000	0.280796
991.000000	0.280457
992.000000	0.280086
993.000000	0.280277
994.000000	0.280397
995.000000	0.280364
996.000000	0.280204
997.000000	0.280331
998.000000	0.280433
999.000000	0.280301
1000.000000	0.279792
1001.000000	0.279817
1002.000000	0.280301
1003.000000	0.280408
1004.000000	0.280131
1005.000000	0.279122
1006.000000	0.278822
1007.000000	0.278605
1008.000000	0.278396
1009.000000	0.278868
1010.000000	0.279261
1011.000000	0.278781
1012.000000	0.278960
1013.000000	0.279006
1014.000000	0.278761
1015.000000	0.278915
1016.000000	0.278915
1017.000000	0.278985
1018.000000	0.279031
1019.000000	0.279158
1020.000000	0.280035
1021.000000	0.279646
1022.000000	0.278494
1023.000000	0.278270
1024.000000	0.277769
1025.000000	0.277280
1026.000000	0.277982
1027.000000	0.278440
1028.000000	0.278220
1029.000000	0.278232
1030.000000	0.278233
1031.000000	0.277748
1032.000000	0.277163
1033.000000	0.277300
1034.000000	0.277598
1035.000000	0.278367
1036.000000	0.278414
1037.000000	0.278389
1038.000000	0.278414
1039.000000	0.277933
1040.000000	0.277957
1041.000000	0.278445
1042.000000	0.278725
1043.000000	0.278760
1044.000000	0.278863
1045.000000	0.278833
1046.000000	0.278684
1047.000000	0.278962
1048.000000	0.279249
1049.000000	0.279520
1050.000000	0.280421
1051.000000	0.280789
1052.000000	0.280644
1053.000000	0.280665
1054.000000	0.280741
1055.000000	0.280816
1056.000000	0.280888
1057.000000	0.281160
1058.000000	0.281091
1059.000000	0.280950
1060.000000	0.280855
1061.000000	0.280907
1062.000000	0.281720
1063.000000	0.282247
1064.000000	0.282415
1065.000000	0.282327
1066.000000	0.282532
1067.000000	0.282294
1068.000000	0.282461
1069.000000	0.283290
1070.000000	0.283550
1071.000000	0.283562
1072.000000	0.283634
1073.000000	0.283599
1074.000000	0.283598
1075.000000	0.283520
1076.000000	0.283476
1077.000000	0.283918
1078.000000	0.284289
1079.000000	0.284509
1080.000000	0.285015
1081.000000	0.285135
1082.000000	0.284726
1083.000000	0.284834
1084.000000	0.285302
1085.000000	0.285530
1086.000000	0.285805
1087.000000	0.286029
1088.000000	0.285877
1089.000000	0.285891
1090.000000	0.285843
1091.000000	0.286161
1092.000000	0.286389
1093.000000	0.286927
1094.000000	0.287038
1095.000000	0.286912
1096.000000	0.287089
1097.000000	0.287133
1098.000000	0.287340
1099.000000	0.287781
1100.000000	0.288274
1101.000000	0.288864
1102.000000	0.289137
1103.000000	0.289550
1104.000000	0.289659
1105.000000	0.288903
1106.000000	0.288921
1107.000000	0.289350
1108.000000	0.289553
1109.000000	0.290010
1110.000000	0.290699
1111.000000	0.290744
1112.000000	0.290268
1113.000000	0.290240
1114.000000	0.290038
1115.000000	0.290152
1116.000000	0.290724
1117.000000	0.290854
1118.000000	0.290766
1119.000000	0.290856
1120.000000	0.290898
1121.000000	0.290925
1122.000000	0.291118
1123.000000	0.291473
1124.000000	0.291540
1125.000000	0.291776
1126.000000	0.292205
1127.000000	0.292512
1128.000000	0.292780
1129.000000	0.293040
1130.000000	0.293311
1131.000000	0.293591
1132.000000	0.293778
1133.000000	0.294077
1134.000000	0.294151
1135.000000	0.293989
1136.000000	0.293905
1137.000000	0.293540
1138.000000	0.293540
1139.000000	0.293927
1140.000000	0.294154
1141.000000	0.294482
1142.000000	0.294701
1143.000000	0.294680
1144.000000	0.294806
1145.000000	0.294877
1146.000000	0.294847
1147.000000	0.294792
1148.000000	0.294517
1149.000000	0.294543
1150.000000	0.294636
1151.000000	0.294797
1152.000000	0.295166
1153.000000	0.295324
1154.000000	0.295354
1155.000000	0.295410
1156.000000	0.295328
1157.000000	0.295429
1158.000000	0.295711
1159.000000	0.295777
1160.000000	0.295847
1161.000000	0.295804
1162.000000	0.295549
1163.000000	0.295459
1164.000000	0.295417
1165.000000	0.295426
1166.000000	0.295541
1167.000000	0.295850
1168.000000	0.295804
1169.000000	0.295678
1170.000000	0.295622
1171.000000	0.295361
1172.000000	0.295358
1173.000000	0.295533
1174.000000	0.295625
1175.000000	0.295766
1176.000000	0.295822
1177.000000	0.295931
1178.000000	0.295967
1179.000000	0.295875
1180.000000	0.295823
1181.000000	0.295839
1182.000000	0.295843
1183.000000	0.296011
1184.000000	0.295990
1185.000000	0.295990
1186.000000	0.295932
1187.000000	0.295970
1188.000000	0.296054
1189.000000	0.296016
1190.000000	0.296011
1191.000000	0.295954
1192.000000	0.295807
1193.000000	0.295936
1194.000000	0.296198
1195.000000	0.296235
1196.000000	0.296200
1197.000000	0.296165
1198.000000	0.295947
1199.000000	0.295887
1200.000000	0.296017
1201.000000	0.295976
1202.000000	0.295891
1203.000000	0.295813
1204.000000	0.295758
1205.000000	0.295800
1206.000000	0.295765
1207.000000	0.295900
1208.000000	0.295838
1209.000000	0.295651
1210.000000	0.295612
1211.000000	0.295605
1212.000000	0.295592
1213.000000	0.295677
1214.000000	0.295743
1215.000000	0.295726
1216.000000	0.295778
1217.000000	0.295889
1218.000000	0.295949
1219.000000	0.296009
1220.000000	0.296163
1221.000000	0.296260
1222.000000	0.296272
1223.000000	0.296237
1224.000000	0.296156
1225.000000	0.295923
1226.000000	0.295767
1227.000000	0.295749
1228.000000	0.295793
1229.000000	0.295769
1230.000000	0.295810
1231.000000	0.295757
1232.000000	0.295686
1233.000000	0.295715
1234.000000	0.295842
1235.000000	0.295832
1236.000000	0.295599
1237.000000	0.295596
1238.000000	0.295617
1239.000000	0.295591
1240.000000	0.295591
1241.000000	0.295750
1242.000000	0.295755
1243.000000	0.295719
1244.000000	0.295927
1245.000000	0.296097
1246.000000	0.296165
1247.000000	0.296221
1248.000000	0.296061
1249.000000	0.295961
1250.000000	0.295811
1251.000000	0.295625
1252.000000	0.295611
1253.000000	0.295785
1254.000000	0.295781
1255.000000	0.295844
1256.000000	0.295823
1257.000000	0.295652
1258.000000	0.295598
1259.000000	0.295484
1260.000000	0.295515
1261.000000	0.295614
1262.000000	0.295622
1263.000000	0.295661
1264.000000	0.295743
1265.000000	0.295720
1266.000000	0.295738
1267.000000	0.295839
1268.000000	0.295848
1269.000000	0.295841
1270.000000	0.295851
1271.000000	0.295888
1272.000000	0.295987
1273.000000	0.295921
1274.000000	0.295872
1275.000000	0.295759
1276.000000	0.295488
1277.000000	0.295409
1278.000000	0.295320
1279.000000	0.295250
1280.000000	0.295130
1281.000000	0.295105
1282.000000	0.295282
1283.000000	0.295359
1284.000000	0.295388
1285.000000	0.295398
1286.000000	0.295328
1287.000000	0.295199
1288.000000	0.295124
1289.000000	0.295187
1290.000000	0.295233
1291.000000	0.295235
1292.000000	0.295346
1293.000000	0.295431
1294.000000	0.295397
1295.000000	0.295389
1296.000000	0.295265
1297.000000	0.295064
1298.000000	0.295092
1299.000000	0.295178
1300.000000	0.295252
1301.000000	0.295337
1302.000000	0.295351
1303.000000	0.295359
1304.000000	0.295317
1305.000000	0.295437
1306.000000	0.295391
1307.000000	0.295208
1308.000000	0.295151
1309.000000	0.294985
1310.000000	0.294930
1311.000000	0.295035
1312.000000	0.295098
1313.000000	0.295104
1314.000000	0.295179
1315.000000	0.294971
1316.000000	0.294810
1317.000000	0.294670
1318.000000	0.294513
1319.000000	0.294544
1320.000000	0.294558
1321.000000	0.294600
1322.000000	0.294630
1323.000000	0.294422
1324.000000	0.294207
1325.000000	0.293981
1326.000000	0.293765
1327.000000	0.293906
1328.000000	0.294265
1329.000000	0.294332
1330.000000	0.294383
1331.000000	0.294413
1332.000000	0.294352
1333.000000	0.294185
1334.000000	0.293953
1335.000000	0.293922
1336.000000	0.293865
1337.000000	0.293815
1338.000000	0.293865
1339.000000	0.293983
1340.000000	0.293908
1341.000000	0.293685
1342.000000	0.293502
1343.000000	0.293476
1344.000000	0.293450
1345.000000	0.293303
1346.000000	0.293286
1347.000000	0.293234
1348.000000	0.293222
1349.000000	0.293178
1350.000000	0.293196
1351.000000	0.293188
1352.000000	0.293018
1353.000000	0.292838
1354.000000	0.292768
1355.000000	0.292694
1356.000000	0.292684
1357.000000	0.292744
1358.000000	0.292831
1359.000000	0.292876
1360.000000	0.292845
1361.000000	0.292788
1362.000000	0.292745
1363.000000	0.292612
1364.000000	0.292507
1365.000000	0.292402
1366.000000	0.292361
1367.000000	0.292331
1368.000000	0.292233
1369.000000	0.292374
1370.000000	0.292366
1371.000000	0.292106
1372.000000	0.291935
1373.000000	0.291670
1374.000000	0.291477
1375.000000	0.291513
1376.000000	0.291577
1377.000000	0.291531
1378.000000	0.291394
1379.000000	0.291182
1380.000000	0.290969
1381.000000	0.290772
1382.000000	0.290458
1383.000000	0.290013
1384.000000	0.289476
1385.000000	0.289032
1386.000000	0.288737
1387.000000	0.288546
1388.000000	0.288415
1389.000000	0.288252
1390.000000	0.288128
1391.000000	0.288001
1392.000000	0.287993
1393.000000	0.287965
1394.000000	0.288041
1395.000000	0.288068
1396.000000	0.288106
1397.000000	0.288007
1398.000000	0.287800
1399.000000	0.287678
1400.000000	0.287502
1401.000000	0.287310
1402.000000	0.287194
1403.000000	0.287031
1404.000000	0.286846
1405.000000	0.286683
1406.000000	0.286401
1407.000000	0.286116
1408.000000	0.285820
1409.000000	0.285468
1410.000000	0.285366
1411.000000	0.285260
1412.000000	0.285076
1413.000000	0.285080
1414.000000	0.284998
1415.000000	0.284855
1416.000000	0.284672
1417.000000	0.284392
1418.000000	0.284036
1419.000000	0.283836
1420.000000	0.283746
1421.000000	0.283620
1422.000000	0.283502
1423.000000	0.283467
1424.000000	0.283286
1425.000000	0.283155
1426.000000	0.283065
1427.000000	0.282922
1428.000000	0.282816
1429.000000	0.282800
1430.000000	0.282778
1431.000000	0.282663
1432.000000	0.282528
1433.000000	0.282387
1434.000000	0.282204
1435.000000	0.282039
1436.000000	0.281902
1437.000000	0.281711
1438.000000	0.281570
1439.000000	0.281507
1440.000000	0.281470
1441.000000	0.281547
1442.000000	0.281510
1443.000000	0.281358
1444.000000	0.281290
1445.000000	0.281181
1446.000000	0.281031
1447.000000	0.281036
1448.000000	0.280956
1449.000000	0.280792
1450.000000	0.280708
1451.000000	0.280651
1452.000000	0.280560
1453.000000	0.280479
1454.000000	0.280435
1455.000000	0.280369
1456.000000	0.280302
1457.000000	0.280341
1458.000000	0.280406
1459.000000	0.280393
1460.000000	0.280429
1461.000000	0.280473
1462.000000	0.280450
1463.000000	0.280392
1464.000000	0.280329
1465.000000	0.280280
1466.000000	0.280205
1467.000000	0.280196
1468.000000	0.280216
1469.000000	0.280205
1470.000000	0.280138
1471.000000	0.280150
1472.000000	0.280168
1473.000000	0.280195
1474.000000	0.280256
1475.000000	0.280382
1476.000000	0.280497
1477.000000	0.280579
1478.000000	0.280674
1479.000000	0.280668
1480.000000	0.280657
1481.000000	0.280692
1482.000000	0.280839
1483.000000	0.280890
1484.000000	0.280953
1485.000000	0.280968
1486.000000	0.280854
1487.000000	0.280864
1488.000000	0.280921
1489.000000	0.280997
1490.000000	0.281058
1491.000000	0.281121
1492.000000	0.281115
1493.000000	0.281195
1494.000000	0.281292
1495.000000	0.281375
1496.000000	0.281499
1497.000000	0.281601
1498.000000	0.281708
1499.000000	0.281763
1500.000000	0.281835
1501.000000	0.281937
1502.000000	0.282042
1503.000000	0.282195
1504.000000	0.282368
1505.000000	0.282518
1506.000000	0.282611
1507.000000	0.282683
1508.000000	0.282871
1509.000000	0.283007
1510.000000	0.283114
1511.000000	0.283203
1512.000000	0.283153
1513.000000	0.283221
1514.000000	0.283381
1515.000000	0.283443
1516.000000	0.283519
1517.000000	0.283523
1518.000000	0.283545
1519.000000	0.283615
1520.000000	0.283606
1521.000000	0.283529
1522.000000	0.283541
1523.000000	0.283630
1524.000000	0.283729
1525.000000	0.283882
1526.000000	0.283872
1527.000000	0.283760
1528.000000	0.283789
1529.000000	0.283747
1530.000000	0.283552
1531.000000	0.283470
1532.000000	0.283342
1533.000000	0.283112
1534.000000	0.283053
1535.000000	0.283063
1536.000000	0.282992
1537.000000	0.283106
1538.000000	0.283258
1539.000000	0.283212
1540.000000	0.283239
1541.000000	0.283405
1542.000000	0.283499
1543.000000	0.283544
1544.000000	0.283505
1545.000000	0.283452
1546.000000	0.283387
1547.000000	0.283333
1548.000000	0.283384
1549.000000	0.283371
1550.000000	0.283387
1551.000000	0.283501
1552.000000	0.283516
1553.000000	0.283385
1554.000000	0.283284
1555.000000	0.283227
1556.000000	0.283201
1557.000000	0.283287
1558.000000	0.283370
1559.000000	0.283445
1560.000000	0.283450
1561.000000	0.283478
1562.000000	0.283469
1563.000000	0.283440
1564.000000	0.283404
1565.000000	0.283330
1566.000000	0.283278
1567.000000	0.283308
1568.000000	0.283278
1569.000000	0.283398
1570.000000	0.283343
1571.000000	0.283066
1572.000000	0.282950
1573.000000	0.282838
1574.000000	0.282793
1575.000000	0.282928
1576.000000	0.282959
1577.000000	0.282894
1578.000000	0.282847
1579.000000	0.282846
1580.000000	0.282845
1581.000000	0.282973
1582.000000	0.282975
1583.000000	0.282843
1584.000000	0.282797
1585.000000	0.282805
1586.000000	0.282841
1587.000000	0.282988
1588.000000	0.283027
1589.000000	0.282996
1590.000000	0.283038
1591.000000	0.283153
1592.000000	0.283178
1593.000000	0.283213
1594.000000	0.283155
1595.000000	0.283011
1596.000000	0.282940
1597.000000	0.282902
1598.000000	0.282842
1599.000000	0.282825
1600.000000	0.282737
1601.000000	0.282733
1602.000000	0.282636
1603.000000	0.282396
1604.000000	0.282348
1605.000000	0.282332
1606.000000	0.282321
1607.000000	0.282585
1608.000000	0.282631
1609.000000	0.282555
1610.000000	0.282567
1611.000000	0.282622
1612.000000	0.282606
1613.000000	0.282652
1614.000000	0.282674
1615.000000	0.282704
1616.000000	0.282683
1617.000000	0.282594
1618.000000	0.282574
1619.000000	0.282518
1620.000000	0.282470
1621.000000	0.282503
1622.000000	0.282561
1623.000000	0.282526
1624.000000	0.282577
1625.000000	0.282642
1626.000000	0.282646
1627.000000	0.282622
1628.000000	0.282700
1629.000000	0.282804
1630.000000	0.282897
1631.000000	0.283002
1632.000000	0.283085
1633.000000	0.283090
1634.000000	0.283198
1635.000000	0.283480
1636.000000	0.283520
1637.000000	0.283534
1638.000000	0.283462
1639.000000	0.283214
1640.000000	0.283149
1641.000000	0.283193
1642.000000	0.283196
1643.000000	0.283303
1644.000000	0.283315
1645.000000	0.283290
1646.000000	0.283214
1647.000000	0.283046
1648.000000	0.283007
1649.000000	0.283074
1650.000000	0.283148
1651.000000	0.283373
1652.000000	0.283561
1653.000000	0.283705
1654.000000	0.283770
1655.000000	0.283797
1656.000000	0.283734
1657.000000	0.283564
1658.000000	0.283525
1659.000000	0.283645
1660.000000	0.283647
1661.000000	0.283571
1662.000000	0.283532
1663.000000	0.283403
1664.000000	0.283358
1665.000000	0.283362
1666.000000	0.283403
1667.000000	0.283384
1668.000000	0.283414
1669.000000	0.283535
1670.000000	0.283462
1671.000000	0.283368
1672.000000	0.283434
1673.000000	0.283424
1674.000000	0.283582
1675.000000	0.283810
1676.000000	0.283811
1677.000000	0.283740
1678.000000	0.283784
1679.000000	0.283798
1680.000000	0.283781
1681.000000	0.283903
1682.000000	0.283904
1683.000000	0.283934
1684.000000	0.284024
1685.000000	0.283978
1686.000000	0.284034
1687.000000	0.284082
1688.000000	0.283994
1689.000000	0.284051
1690.000000	0.284067
1691.000000	0.284026
1692.000000	0.283981
1693.000000	0.283947
1694.000000	0.283830
1695.000000	0.283657
1696.000000	0.283599
1697.000000	0.283547
1698.000000	0.283598
1699.000000	0.283648
1700.000000	0.283773
1701.000000	0.283836
1702.000000	0.283644
1703.000000	0.283562
1704.000000	0.283537
1705.000000	0.283545
1706.000000	0.283793
1707.000000	0.283826
1708.000000	0.283622
1709.000000	0.283543
1710.000000	0.283473
1711.000000	0.283499
1712.000000	0.283699
1713.000000	0.283865
1714.000000	0.284142
1715.000000	0.284301
1716.000000	0.284492
1717.000000	0.284572
1718.000000	0.284426
1719.000000	0.284399
1720.000000	0.284464
1721.000000	0.284442
1722.000000	0.284420
1723.000000	0.284405
1724.000000	0.284276
1725.000000	0.284330
1726.000000	0.284505
1727.000000	0.284509
1728.000000	0.284462
1729.000000	0.284360
1730.000000	0.284183
1731.000000	0.284151
1732.000000	0.284227
1733.000000	0.284306
1734.000000	0.284298
1735.000000	0.284362
1736.000000	0.284476
1737.000000	0.284471
1738.000000	0.284470
1739.000000	0.284441
1740.000000	0.284266
1741.000000	0.284236
1742.000000	0.284283
1743.000000	0.284373
1744.000000	0.284542
1745.000000	0.284500
1746.000000	0.284401
1747.000000	0.284297
1748.000000	0.284109
1749.000000	0.283852
1750.000000	0.283715
1751.000000	0.283674
1752.000000	0.283733
1753.000000	0.283913
1754.000000	0.284006
1755.000000	0.283950
1756.000000	0.283980
1757.000000	0.284037
1758.000000	0.284129
1759.000000	0.284298
1760.000000	0.284415
1761.000000	0.284544
1762.000000	0.284551
1763.000000	0.284472
1764.000000	0.284410
1765.000000	0.284129
1766.000000	0.284125
1767.000000	0.284296
1768.000000	0.284272
1769.000000	0.284390
1770.000000	0.284430
1771.000000	0.284223
1772.000000	0.284160
1773.000000	0.284124
1774.000000	0.284137
1775.000000	0.284211
1776.000000	0.284348
1777.000000	0.284574
1778.000000	0.284697
1779.000000	0.284812
1780.000000	0.284897
1781.000000	0.284868
1782.000000	0.284931
1783.000000	0.285104
1784.000000	0.285054
1785.000000	0.285037
1786.000000	0.284950
1787.000000	0.284814
1788.000000	0.284604
1789.000000	0.284413
1790.000000	0.284285
1791.000000	0.284128
1792.000000	0.284126
1793.000000	0.284152
1794.000000	0.284135
1795.000000	0.284248
1796.000000	0.284622
1797.000000	0.284725
1798.000000	0.284734
1799.000000	0.284707
1800.000000	0.284527
1801.000000	0.283680
1802.000000	0.284280
1803.000000	0.286007
1804.000000	0.286072
1805.000000	0.284286
1806.000000	0.283492
1807.000000	0.282615
1808.000000	0.281947
1809.000000	0.281621
1810.000000	0.280768
1811.000000	0.280307
1812.000000	0.279948
1813.000000	0.279792
1814.000000	0.279669
1815.000000	0.279959
1816.000000	0.280903
1817.000000	0.281212
1818.000000	0.281703
1819.000000	0.282022
1820.000000	0.281073
1821.000000	0.281124
1822.000000	0.281088
1823.000000	0.280656
1824.000000	0.280732
1825.000000	0.281658
1826.000000	0.281814
1827.000000	0.281261
1828.000000	0.281792
1829.000000	0.281520
1830.000000	0.280915
1831.000000	0.280782
1832.000000	0.280865
1833.000000	0.280673
1834.000000	0.280683
1835.000000	0.280396
1836.000000	0.279409
1837.000000	0.279134
1838.000000	0.279105
1839.000000	0.278974
1840.000000	0.279144
1841.000000	0.278901
1842.000000	0.278680
1843.000000	0.278012
1844.000000	0.277910
1845.000000	0.277898
1846.000000	0.278139
1847.000000	0.278867
1848.000000	0.278837
1849.000000	0.278991
1850.000000	0.279636
1851.000000	0.279743
1852.000000	0.279671
1853.000000	0.279566
1854.000000	0.278837
1855.000000	0.278344
1856.000000	0.277696
1857.000000	0.277235
1858.000000	0.277201
1859.000000	0.277280
1860.000000	0.277240
1861.000000	0.277499
1862.000000	0.277518
1863.000000	0.277563
1864.000000	0.277461
1865.000000	0.277169
1866.000000	0.276800
1867.000000	0.276370
1868.000000	0.275724
1869.000000	0.274367
1870.000000	0.274073
1871.000000	0.273511
1872.000000	0.273080
1873.000000	0.273099
1874.000000	0.273832
1875.000000	0.273937
1876.000000	0.274123
1877.000000	0.273368
1878.000000	0.272514
1879.000000	0.271932
1880.000000	0.270795
1881.000000	0.270468
1882.000000	0.269769
1883.000000	0.269100
1884.000000	0.268429
1885.000000	0.267551
1886.000000	0.266501
1887.000000	0.265551
1888.000000	0.264050
1889.000000	0.262130
1890.000000	0.260778
1891.000000	0.259436
1892.000000	0.258007
1893.000000	0.257169
1894.000000	0.256830
1895.000000	0.256161
1896.000000	0.255529
1897.000000	0.255273
1898.000000	0.255016
1899.000000	0.254364
1900.000000	0.253300
1901.000000	0.251947
1902.000000	0.250762
1903.000000	0.249444
1904.000000	0.248837
1905.000000	0.248323
1906.000000	0.247120
1907.000000	0.245286
1908.000000	0.243831
1909.000000	0.242642
1910.000000	0.241819
1911.000000	0.241767
1912.000000	0.241918
1913.000000	0.241668
1914.000000	0.241097
1915.000000	0.240606
1916.000000	0.240090
1917.000000	0.239687
1918.000000	0.239477
1919.000000	0.239476
1920.000000	0.239456
1921.000000	0.239383
1922.000000	0.239007
1923.000000	0.238578
1924.000000	0.238042
1925.000000	0.237530
1926.000000	0.237451
1927.000000	0.237360
1928.000000	0.237356
1929.000000	0.237599
1930.000000	0.238014
1931.000000	0.237703
1932.000000	0.237594
1933.000000	0.237699
1934.000000	0.237590
1935.000000	0.237876
1936.000000	0.238447
1937.000000	0.238593
1938.000000	0.238286
1939.000000	0.238266
1940.000000	0.238283
1941.000000	0.238315
1942.000000	0.238528
1943.000000	0.238657
1944.000000	0.238351
1945.000000	0.238005
1946.000000	0.237748
1947.000000	0.237618
1948.000000	0.237682
1949.000000	0.237868
1950.000000	0.237742
1951.000000	0.237353
1952.000000	0.236759
1953.000000	0.236218
1954.000000	0.235622
1955.000000	0.235198
1956.000000	0.235449
1957.000000	0.235677
1958.000000	0.235917
1959.000000	0.236261
1960.000000	0.236012
1961.000000	0.236049
1962.000000	0.236023
1963.000000	0.235908
1964.000000	0.235994
1965.000000	0.236165
1966.000000	0.235790
1967.000000	0.235827
1968.000000	0.235702
1969.000000	0.235972
1970.000000	0.236099
1971.000000	0.235925
1972.000000	0.236095
1973.000000	0.235702
1974.000000	0.234561
1975.000000	0.234462
1976.000000	0.234773
1977.000000	0.234631
1978.000000	0.235164
1979.000000	0.236212
1980.000000	0.236565
1981.000000	0.236570
1982.000000	0.236653
1983.000000	0.236647
1984.000000	0.236876
1985.000000	0.237480
1986.000000	0.237675
1987.000000	0.237906
1988.000000	0.238151
1989.000000	0.237840
1990.000000	0.238125
1991.000000	0.238914
1992.000000	0.239350
1993.000000	0.240038
1994.000000	0.240267
1995.000000	0.239751
1996.000000	0.239198
1997.000000	0.239126
1998.000000	0.239061
1999.000000	0.239547
2000.000000	0.240764
2001.000000	0.241924
2002.000000	0.242621
2003.000000	0.242240
2004.000000	0.241772
2005.000000	0.241477
2006.000000	0.241017
2007.000000	0.241230
2008.000000	0.241413
2009.000000	0.241426
2010.000000	0.241787
2011.000000	0.242774
2012.000000	0.243194
2013.000000	0.243491
2014.000000	0.243394
2015.000000	0.243593
2016.000000	0.243689
2017.000000	0.244287
2018.000000	0.245746
2019.000000	0.247084
2020.000000	0.247506
2021.000000	0.247686
2022.000000	0.247093
2023.000000	0.247010
2024.000000	0.246720
2025.000000	0.246902
2026.000000	0.247481
2027.000000	0.247851
2028.000000	0.247846
2029.000000	0.247820
2030.000000	0.247860
2031.000000	0.247703
2032.000000	0.248345
2033.000000	0.248988
2034.000000	0.249050
2035.000000	0.248840
2036.000000	0.248869
2037.000000	0.248394
2038.000000	0.248642
2039.000000	0.249647
2040.000000	0.250323
2041.000000	0.251065
2042.000000	0.251866
2043.000000	0.251490
2044.000000	0.251875
2045.000000	0.252258
2046.000000	0.251799
2047.000000	0.252226
2048.000000	0.253450
2049.000000	0.253850
2050.000000	0.254128
2051.000000	0.254072
2052.000000	0.253198
2053.000000	0.252603
2054.000000	0.251995
2055.000000	0.251609
2056.000000	0.251866
2057.000000	0.251710
2058.000000	0.251650
2059.000000	0.251941
2060.000000	0.252341
2061.000000	0.253033
2062.000000	0.253186
2063.000000	0.253400
2064.000000	0.253412
2065.000000	0.252816
2066.000000	0.252675
2067.000000	0.253031
2068.000000	0.253625
2069.000000	0.254038
2070.000000	0.254399
2071.000000	0.254783
2072.000000	0.255298
2073.000000	0.255557
2074.000000	0.255586
2075.000000	0.255904
2076.000000	0.256392
2077.000000	0.256620
2078.000000	0.256785
2079.000000	0.257056
2080.000000	0.257455
2081.000000	0.257367
2082.000000	0.256991
2083.000000	0.256924
2084.000000	0.257082
2085.000000	0.256877
2086.000000	0.256857
2087.000000	0.258043
2088.000000	0.258132
2089.000000	0.257441
2090.000000	0.257215
2091.000000	0.256830
2092.000000	0.256638
2093.000000	0.256618
2094.000000	0.256828
2095.000000	0.257465
2096.000000	0.257864
2097.000000	0.258209
2098.000000	0.258575
2099.000000	0.258714
2100.000000	0.258757
2101.000000	0.259535
2102.000000	0.260190
2103.000000	0.260798
2104.000000	0.261241
2105.000000	0.261401
2106.000000	0.260948
2107.000000	0.260954
2108.000000	0.260964
2109.000000	0.261147
2110.000000	0.261246
2111.000000	0.261392
2112.000000	0.261643
2113.000000	0.261752
2114.000000	0.261537
2115.000000	0.261896
2116.000000	0.261776
2117.000000	0.261333
2118.000000	0.261272
2119.000000	0.260947
2120.000000	0.260891
2121.000000	0.261030
2122.000000	0.261137
2123.000000	0.261524
2124.000000	0.261391
2125.000000	0.260772
2126.000000	0.260644
2127.000000	0.260423
2128.000000	0.260543
2129.000000	0.261003
2130.000000	0.261753
2131.000000	0.262346
2132.000000	0.261957
2133.000000	0.261910
2134.000000	0.261841
2135.000000	0.261339
2136.000000	0.261177
2137.000000	0.260835
2138.000000	0.260278
2139.000000	0.260068
2140.000000	0.259731
2141.000000	0.259904
2142.000000	0.260605
2143.000000	0.261074
2144.000000	0.262159
2145.000000	0.262900
2146.000000	0.264046
2147.000000	0.264305
2148.000000	0.263555
2149.000000	0.262987
2150.000000	0.262479
2151.000000	0.262193
2152.000000	0.262232
2153.000000	0.262057
2154.000000	0.261753
2155.000000	0.260683
2156.000000	0.260702
2157.000000	0.261512
2158.000000	0.261752
2159.000000	0.262339
2160.000000	0.262461
2161.000000	0.261784
2162.000000	0.261841
2163.000000	0.262060
2164.000000	0.262493
2165.000000	0.263502
2166.000000	0.264079
2167.000000	0.264698
2168.000000	0.264816
2169.000000	0.264514
2170.000000	0.264570
2171.000000	0.264656
2172.000000	0.265083
2173.000000	0.264828
2174.000000	0.264214
2175.000000	0.263948
2176.000000	0.263065
2177.000000	0.263035
2178.000000	0.263864
2179.000000	0.264532
2180.000000	0.265703
2181.000000	0.266498
2182.000000	0.267049
2183.000000	0.266788
2184.000000	0.266020
2185.000000	0.265383
2186.000000	0.264733
2187.000000	0.264525
2188.000000	0.264683
2189.000000	0.264852
2190.000000	0.264159
2191.000000	0.264556
2192.000000	0.264621
2193.000000	0.264445
2194.000000	0.264406
2195.000000	0.265022
2196.000000	0.264212
2197.000000	0.262338
2198.000000	0.261207
2199.000000	0.258985
2200.000000	0.258684
2201.000000	0.260563
2202.000000	0.260828
2203.000000	0.260904
2204.000000	0.261133
2205.000000	0.261015
2206.000000	0.261224
2207.000000	0.262138
2208.000000	0.263459
2209.000000	0.262756
2210.000000	0.262738
2211.000000	0.263451
2212.000000	0.263795
2213.000000	0.263934
2214.000000	0.264409
2215.000000	0.264076
2216.000000	0.262724
2217.000000	0.261692
2218.000000	0.260692
2219.000000	0.259779
2220.000000	0.258536
2221.000000	0.258137
2222.000000	0.257974
2223.000000	0.257925
2224.000000	0.257846
2225.000000	0.259027
2226.000000	0.260799
2227.000000	0.260737
2228.000000	0.261875
2229.000000	0.262290
2230.000000	0.261301
2231.000000	0.262822
2232.000000	0.262982
2233.000000	0.262074
2234.000000	0.262367
2235.000000	0.261382
2236.000000	0.261269
2237.000000	0.262097
2238.000000	0.262148
2239.000000	0.261677
2240.000000	0.261903
2241.000000	0.262177
2242.000000	0.261708
2243.000000	0.261404
2244.000000	0.261445
2245.000000	0.260577
2246.000000	0.260505
2247.000000	0.262266
2248.000000	0.261911
2249.000000	0.260052
2250.000000	0.259730
2251.000000	0.256544
2252.000000	0.253240
2253.000000	0.252860
2254.000000	0.254090
2255.000000	0.257490
2256.000000	0.260927
2257.000000	0.263241
2258.000000	0.264339
2259.000000	0.265012
2260.000000	0.266402
2261.000000	0.265311
2262.000000	0.262091
2263.000000	0.260266
2264.000000	0.256237
2265.000000	0.255665
2266.000000	0.259157
2267.000000	0.258884
2268.000000	0.257836
2269.000000	0.257131
2270.000000	0.253799
2271.000000	0.252793
2272.000000	0.253460
2273.000000	0.254493
2274.000000	0.255894
2275.000000	0.258024
2276.000000	0.261760
2277.000000	0.265118
2278.000000	0.265941
2279.000000	0.266646
2280.000000	0.264745
2281.000000	0.262107
2282.000000	0.260527
2283.000000	0.259233
2284.000000	0.260041
2285.000000	0.258400
2286.000000	0.256758
2287.000000	0.258195
2288.000000	0.256494
2289.000000	0.255610
2290.000000	0.257380
2291.000000	0.254951
2292.000000	0.253662
2293.000000	0.254291
2294.000000	0.253477
2295.000000	0.251344
2296.000000	0.251866
2297.000000	0.253279
2298.000000	0.253324
2299.000000	0.254297
2300.000000	0.254517
2301.000000	0.253607
2302.000000	0.253297
2303.000000	0.253137
2304.000000	0.252633
2305.000000	0.250919
2306.000000	0.250375
2307.000000	0.250113
2308.000000	0.252692
2309.000000	0.251536
2310.000000	0.250438
2311.000000	0.250683
2312.000000	0.248778
2313.000000	0.247821
2314.000000	0.248437
2315.000000	0.249136
2316.000000	0.248253
2317.000000	0.247953
2318.000000	0.248495
2319.000000	0.248416
2320.000000	0.249058
2321.000000	0.249593
2322.000000	0.250379
2323.000000	0.249559
2324.000000	0.247956
2325.000000	0.247784
2326.000000	0.247138
2327.000000	0.246214
2328.000000	0.246899
2329.000000	0.248177
2330.000000	0.248636
2331.000000	0.250166
2332.000000	0.251946
2333.000000	0.251913
2334.000000	0.251119
2335.000000	0.251159
2336.000000	0.250691
2337.000000	0.249725
2338.000000	0.249716
2339.000000	0.247616
2340.000000	0.242723
2341.000000	0.241087
2342.000000	0.239923
2343.000000	0.240456
2344.000000	0.243235
2345.000000	0.244966
2346.000000	0.247999
2347.000000	0.247136
2348.000000	0.244140
2349.000000	0.243759
2350.000000	0.239108
2351.000000	0.236382
2352.000000	0.235912
2353.000000	0.237671
2354.000000	0.237959
2355.000000	0.237317
2356.000000	0.239096
2357.000000	0.241614
2358.000000	0.243569
2359.000000	0.245044
2360.000000	0.248026
2361.000000	0.244180
2362.000000	0.238685
2363.000000	0.237682
2364.000000	0.232541
2365.000000	0.228727
2366.000000	0.231334
2367.000000	0.233129
2368.000000	0.233347
2369.000000	0.236318
2370.000000	0.237655
2371.000000	0.239029
2372.000000	0.244141
2373.000000	0.247208
2374.000000	0.249191
2375.000000	0.249319
2376.000000	0.245163
2377.000000	0.240822
2378.000000	0.235956
2379.000000	0.233659
2380.000000	0.234697
2381.000000	0.235912
2382.000000	0.236824
2383.000000	0.232896
2384.000000	0.227942
2385.000000	0.228986
2386.000000	0.231381
2387.000000	0.233684
2388.000000	0.238292
2389.000000	0.237164
2390.000000	0.230334
2391.000000	0.226630
2392.000000	0.223100
2393.000000	0.222753
2394.000000	0.222650
2395.000000	0.218186
2396.000000	0.218988
2397.000000	0.219715
2398.000000	0.223670
2399.000000	0.233695
2400.000000	0.237272
2401.000000	0.234115
2402.000000	0.227724
2403.000000	0.224599
2404.000000	0.225360
2405.000000	0.228136
2406.000000	0.229513
2407.000000	0.226781
2408.000000	0.223432
2409.000000	0.215222
2410.000000	0.210736
2411.000000	0.212512
2412.000000	0.204748
2413.000000	0.200150
2414.000000	0.203927
2415.000000	0.200394
2416.000000	0.204271
2417.000000	0.213444
2418.000000	0.208221
2419.000000	0.203100
2420.000000	0.202036
2421.000000	0.196028
2422.000000	0.197084
2423.000000	0.202146
2424.000000	0.208357
2425.000000	0.226692
2426.000000	0.240924
2427.000000	0.248429
2428.000000	0.248770
2429.000000	0.236434
2430.000000	0.227407
2431.000000	0.217351
2432.000000	0.209428
2433.000000	0.202406
2434.000000	0.193478
2435.000000	0.192195
2436.000000	0.187859
2437.000000	0.189546
2438.000000	0.198289
2439.000000	0.198251
2440.000000	0.206840
2441.000000	0.221920
2442.000000	0.221325
2443.000000	0.220398
2444.000000	0.223240
2445.000000	0.212184
2446.000000	0.214616
2447.000000	0.235137
2448.000000	0.233165
2449.000000	0.230214
2450.000000	0.228803
2451.000000	0.208952
2452.000000	0.207933
2453.000000	0.209117
2454.000000	0.192405
2455.000000	0.187177
2456.000000	0.177381
2457.000000	0.170272
2458.000000	0.188920
2459.000000	0.206589
2460.000000	0.226416
2461.000000	0.249606
2462.000000	0.254294
2463.000000	0.246179
2464.000000	0.232364
2465.000000	0.232608
2466.000000	0.238345
2467.000000	0.243897
2468.000000	0.243691
2469.000000	0.208786
2470.000000	0.190993
2471.000000	0.199083
2472.000000	0.213044
2473.000000	0.238191
2474.000000	0.231210
2475.000000	0.201884
2476.000000	0.186076
2477.000000	0.183681
2478.000000	0.200093
2479.000000	0.243631
2480.000000	0.278011
2481.000000	0.294600
2482.000000	0.294852
2483.000000	0.260765
2484.000000	0.218387
2485.000000	0.210483
2486.000000	0.238283
2487.000000	0.259133
2488.000000	0.280352
2489.000000	0.287905
2490.000000	0.237543
2491.000000	0.220915
2492.000000	0.200759
2493.000000	0.153344
2494.000000	0.163572
2495.000000	0.223521
2496.000000	0.249428
2497.000000	0.326790
2498.000000	0.340312
2499.000000	0.279661
2500.000000	0.246541
