# Wavelength	SM1200H-40_HEX-50_FV7-10_00000.asd.rts.txt
350.000000	0.387652
351.000000	0.397247
352.000000	0.403041
353.000000	0.397005
354.000000	0.387598
355.000000	0.396612
356.000000	0.409243
357.000000	0.416281
358.000000	0.403155
359.000000	0.396093
360.000000	0.398859
361.000000	0.406602
362.000000	0.408647
363.000000	0.405860
364.000000	0.402188
365.000000	0.410711
366.000000	0.414910
367.000000	0.411570
368.000000	0.410348
369.000000	0.414554
370.000000	0.419710
371.000000	0.419433
372.000000	0.414482
373.000000	0.411528
374.000000	0.414529
375.000000	0.416313
376.000000	0.418235
377.000000	0.420252
378.000000	0.421551
379.000000	0.422809
380.000000	0.423754
381.000000	0.425028
382.000000	0.422714
383.000000	0.420422
384.000000	0.420926
385.000000	0.420660
386.000000	0.423392
387.000000	0.427645
388.000000	0.424960
389.000000	0.426103
390.000000	0.429370
391.000000	0.428869
392.000000	0.429253
393.000000	0.429670
394.000000	0.429307
395.000000	0.429934
396.000000	0.431025
397.000000	0.432112
398.000000	0.433044
399.000000	0.433770
400.000000	0.434245
401.000000	0.434202
402.000000	0.433866
403.000000	0.433592
404.000000	0.433790
405.000000	0.433588
406.000000	0.434321
407.000000	0.436032
408.000000	0.436144
409.000000	0.436975
410.000000	0.438140
411.000000	0.437738
412.000000	0.438748
413.000000	0.440145
414.000000	0.440404
415.000000	0.440394
416.000000	0.440544
417.000000	0.440942
418.000000	0.440997
419.000000	0.441234
420.000000	0.441740
421.000000	0.442245
422.000000	0.442763
423.000000	0.442967
424.000000	0.442748
425.000000	0.443490
426.000000	0.444201
427.000000	0.444151
428.000000	0.444400
429.000000	0.444808
430.000000	0.445224
431.000000	0.445377
432.000000	0.446131
433.000000	0.446897
434.000000	0.446684
435.000000	0.447104
436.000000	0.447527
437.000000	0.447270
438.000000	0.447677
439.000000	0.448191
440.000000	0.448529
441.000000	0.448345
442.000000	0.448656
443.000000	0.449281
444.000000	0.449481
445.000000	0.449660
446.000000	0.450021
447.000000	0.450394
448.000000	0.450992
449.000000	0.451564
450.000000	0.451909
451.000000	0.451913
452.000000	0.452109
453.000000	0.452362
454.000000	0.452124
455.000000	0.452315
456.000000	0.452982
457.000000	0.453471
458.000000	0.453821
459.000000	0.454244
460.000000	0.454907
461.000000	0.455107
462.000000	0.455313
463.000000	0.455523
464.000000	0.455805
465.000000	0.456100
466.000000	0.456233
467.000000	0.456189
468.000000	0.456594
469.000000	0.457007
470.000000	0.457117
471.000000	0.457178
472.000000	0.457275
473.000000	0.457488
474.000000	0.457720
475.000000	0.458078
476.000000	0.458618
477.000000	0.458656
478.000000	0.458800
479.000000	0.459288
480.000000	0.459583
481.000000	0.459700
482.000000	0.459847
483.000000	0.459899
484.000000	0.460493
485.000000	0.460711
486.000000	0.460615
487.000000	0.461096
488.000000	0.461363
489.000000	0.461474
490.000000	0.461980
491.000000	0.462185
492.000000	0.462443
493.000000	0.462997
494.000000	0.463119
495.000000	0.463288
496.000000	0.463751
497.000000	0.464084
498.000000	0.464404
499.000000	0.464829
500.000000	0.465144
501.000000	0.465386
502.000000	0.465677
503.000000	0.466018
504.000000	0.466270
505.000000	0.466509
506.000000	0.466804
507.000000	0.466868
508.000000	0.467164
509.000000	0.467744
510.000000	0.468024
511.000000	0.468261
512.000000	0.468595
513.000000	0.469008
514.000000	0.469232
515.000000	0.469505
516.000000	0.470038
517.000000	0.470314
518.000000	0.470570
519.000000	0.470882
520.000000	0.471176
521.000000	0.471478
522.000000	0.471796
523.000000	0.472074
524.000000	0.472372
525.000000	0.472649
526.000000	0.472895
527.000000	0.473203
528.000000	0.473502
529.000000	0.473787
530.000000	0.474007
531.000000	0.474319
532.000000	0.474638
533.000000	0.474864
534.000000	0.475136
535.000000	0.475448
536.000000	0.475718
537.000000	0.475972
538.000000	0.476218
539.000000	0.476447
540.000000	0.476771
541.000000	0.477077
542.000000	0.477331
543.000000	0.477607
544.000000	0.477982
545.000000	0.478333
546.000000	0.478571
547.000000	0.478881
548.000000	0.479285
549.000000	0.479529
550.000000	0.479828
551.000000	0.480202
552.000000	0.480523
553.000000	0.480762
554.000000	0.481062
555.000000	0.481504
556.000000	0.481907
557.000000	0.482148
558.000000	0.482429
559.000000	0.482751
560.000000	0.483031
561.000000	0.483387
562.000000	0.483756
563.000000	0.483947
564.000000	0.484193
565.000000	0.484552
566.000000	0.484928
567.000000	0.485296
568.000000	0.485603
569.000000	0.485845
570.000000	0.486104
571.000000	0.486362
572.000000	0.486552
573.000000	0.486809
574.000000	0.487096
575.000000	0.487416
576.000000	0.487678
577.000000	0.487924
578.000000	0.488285
579.000000	0.488589
580.000000	0.488814
581.000000	0.488988
582.000000	0.489229
583.000000	0.489507
584.000000	0.489812
585.000000	0.490132
586.000000	0.490398
587.000000	0.490618
588.000000	0.490837
589.000000	0.491188
590.000000	0.491481
591.000000	0.491643
592.000000	0.491929
593.000000	0.492219
594.000000	0.492463
595.000000	0.492673
596.000000	0.492869
597.000000	0.493138
598.000000	0.493412
599.000000	0.493623
600.000000	0.493811
601.000000	0.493919
602.000000	0.494185
603.000000	0.494380
604.000000	0.494452
605.000000	0.494609
606.000000	0.494824
607.000000	0.495021
608.000000	0.495075
609.000000	0.495244
610.000000	0.495465
611.000000	0.495615
612.000000	0.495807
613.000000	0.495972
614.000000	0.496130
615.000000	0.496334
616.000000	0.496416
617.000000	0.496394
618.000000	0.496662
619.000000	0.496881
620.000000	0.496946
621.000000	0.496957
622.000000	0.497065
623.000000	0.497201
624.000000	0.497285
625.000000	0.497370
626.000000	0.497487
627.000000	0.497650
628.000000	0.497860
629.000000	0.498089
630.000000	0.498188
631.000000	0.498413
632.000000	0.498549
633.000000	0.498686
634.000000	0.498898
635.000000	0.498988
636.000000	0.499116
637.000000	0.499330
638.000000	0.499534
639.000000	0.499689
640.000000	0.499860
641.000000	0.499929
642.000000	0.499985
643.000000	0.500095
644.000000	0.500300
645.000000	0.500401
646.000000	0.500485
647.000000	0.500592
648.000000	0.500707
649.000000	0.500813
650.000000	0.500893
651.000000	0.501040
652.000000	0.501130
653.000000	0.501233
654.000000	0.501362
655.000000	0.501536
656.000000	0.501751
657.000000	0.501898
658.000000	0.502005
659.000000	0.502108
660.000000	0.502205
661.000000	0.502322
662.000000	0.502382
663.000000	0.502487
664.000000	0.502668
665.000000	0.502861
666.000000	0.503019
667.000000	0.503077
668.000000	0.503189
669.000000	0.503326
670.000000	0.503453
671.000000	0.503498
672.000000	0.503606
673.000000	0.503785
674.000000	0.503972
675.000000	0.504120
676.000000	0.504262
677.000000	0.504468
678.000000	0.504625
679.000000	0.504734
680.000000	0.504821
681.000000	0.504865
682.000000	0.504985
683.000000	0.505105
684.000000	0.505334
685.000000	0.505484
686.000000	0.505616
687.000000	0.505782
688.000000	0.505950
689.000000	0.506102
690.000000	0.506267
691.000000	0.506369
692.000000	0.506451
693.000000	0.506617
694.000000	0.506750
695.000000	0.506892
696.000000	0.507026
697.000000	0.507125
698.000000	0.507266
699.000000	0.507445
700.000000	0.507646
701.000000	0.507779
702.000000	0.507959
703.000000	0.508155
704.000000	0.508220
705.000000	0.508432
706.000000	0.508645
707.000000	0.508707
708.000000	0.508827
709.000000	0.508934
710.000000	0.508994
711.000000	0.509112
712.000000	0.509230
713.000000	0.509348
714.000000	0.509456
715.000000	0.509611
716.000000	0.509782
717.000000	0.509862
718.000000	0.510004
719.000000	0.510143
720.000000	0.510234
721.000000	0.510347
722.000000	0.510417
723.000000	0.510524
724.000000	0.510640
725.000000	0.510695
726.000000	0.510817
727.000000	0.510933
728.000000	0.511008
729.000000	0.511058
730.000000	0.511045
731.000000	0.511167
732.000000	0.511266
733.000000	0.511359
734.000000	0.511503
735.000000	0.511576
736.000000	0.511755
737.000000	0.511890
738.000000	0.511873
739.000000	0.511898
740.000000	0.511869
741.000000	0.511981
742.000000	0.512122
743.000000	0.512202
744.000000	0.512295
745.000000	0.512334
746.000000	0.512379
747.000000	0.512365
748.000000	0.512398
749.000000	0.512512
750.000000	0.512644
751.000000	0.512718
752.000000	0.512790
753.000000	0.512902
754.000000	0.513040
755.000000	0.513118
756.000000	0.513160
757.000000	0.513141
758.000000	0.513103
759.000000	0.513129
760.000000	0.513161
761.000000	0.513334
762.000000	0.513441
763.000000	0.513455
764.000000	0.513582
765.000000	0.513600
766.000000	0.513604
767.000000	0.513689
768.000000	0.513743
769.000000	0.513783
770.000000	0.513830
771.000000	0.513882
772.000000	0.514020
773.000000	0.514077
774.000000	0.514030
775.000000	0.514027
776.000000	0.514077
777.000000	0.514134
778.000000	0.514177
779.000000	0.514238
780.000000	0.514321
781.000000	0.514364
782.000000	0.514474
783.000000	0.514695
784.000000	0.514761
785.000000	0.514801
786.000000	0.514839
787.000000	0.514853
788.000000	0.514763
789.000000	0.514686
790.000000	0.514644
791.000000	0.514688
792.000000	0.514714
793.000000	0.514738
794.000000	0.514794
795.000000	0.514855
796.000000	0.514879
797.000000	0.514857
798.000000	0.514830
799.000000	0.514851
800.000000	0.514884
801.000000	0.514881
802.000000	0.514870
803.000000	0.514902
804.000000	0.515010
805.000000	0.514967
806.000000	0.514880
807.000000	0.514886
808.000000	0.514880
809.000000	0.514891
810.000000	0.514914
811.000000	0.514935
812.000000	0.515046
813.000000	0.515093
814.000000	0.515054
815.000000	0.515061
816.000000	0.514986
817.000000	0.514949
818.000000	0.514947
819.000000	0.515001
820.000000	0.515047
821.000000	0.514991
822.000000	0.514954
823.000000	0.515014
824.000000	0.515047
825.000000	0.515067
826.000000	0.515085
827.000000	0.515003
828.000000	0.514878
829.000000	0.514862
830.000000	0.514724
831.000000	0.514568
832.000000	0.514402
833.000000	0.514341
834.000000	0.514339
835.000000	0.514362
836.000000	0.514245
837.000000	0.514139
838.000000	0.514151
839.000000	0.514273
840.000000	0.514280
841.000000	0.514180
842.000000	0.513990
843.000000	0.513862
844.000000	0.513865
845.000000	0.513914
846.000000	0.513891
847.000000	0.513868
848.000000	0.513816
849.000000	0.513740
850.000000	0.513562
851.000000	0.513371
852.000000	0.513283
853.000000	0.513259
854.000000	0.513199
855.000000	0.513242
856.000000	0.513266
857.000000	0.513241
858.000000	0.513185
859.000000	0.513018
860.000000	0.512914
861.000000	0.512874
862.000000	0.512920
863.000000	0.512927
864.000000	0.512904
865.000000	0.512856
866.000000	0.512798
867.000000	0.512602
868.000000	0.512608
869.000000	0.512639
870.000000	0.512524
871.000000	0.512372
872.000000	0.512163
873.000000	0.511858
874.000000	0.511786
875.000000	0.511573
876.000000	0.511328
877.000000	0.511214
878.000000	0.511083
879.000000	0.511067
880.000000	0.510979
881.000000	0.510805
882.000000	0.510664
883.000000	0.510542
884.000000	0.510271
885.000000	0.510042
886.000000	0.509869
887.000000	0.509741
888.000000	0.509468
889.000000	0.509391
890.000000	0.509289
891.000000	0.509147
892.000000	0.509065
893.000000	0.508977
894.000000	0.508995
895.000000	0.508887
896.000000	0.508636
897.000000	0.508321
898.000000	0.508067
899.000000	0.507951
900.000000	0.507856
901.000000	0.507690
902.000000	0.507628
903.000000	0.507414
904.000000	0.507217
905.000000	0.507092
906.000000	0.507032
907.000000	0.506907
908.000000	0.506757
909.000000	0.506511
910.000000	0.506211
911.000000	0.505976
912.000000	0.505902
913.000000	0.505830
914.000000	0.505701
915.000000	0.505504
916.000000	0.505019
917.000000	0.504742
918.000000	0.504609
919.000000	0.504472
920.000000	0.504408
921.000000	0.504354
922.000000	0.504179
923.000000	0.503733
924.000000	0.503476
925.000000	0.503233
926.000000	0.502964
927.000000	0.502801
928.000000	0.502695
929.000000	0.502479
930.000000	0.502057
931.000000	0.501883
932.000000	0.501767
933.000000	0.501596
934.000000	0.501215
935.000000	0.500963
936.000000	0.500788
937.000000	0.500419
938.000000	0.499940
939.000000	0.499722
940.000000	0.499652
941.000000	0.499574
942.000000	0.499309
943.000000	0.498891
944.000000	0.498243
945.000000	0.497746
946.000000	0.497279
947.000000	0.496952
948.000000	0.496766
949.000000	0.496552
950.000000	0.496506
951.000000	0.496527
952.000000	0.496426
953.000000	0.496233
954.000000	0.496009
955.000000	0.495683
956.000000	0.495292
957.000000	0.494878
958.000000	0.494547
959.000000	0.494561
960.000000	0.494465
961.000000	0.494156
962.000000	0.493680
963.000000	0.493318
964.000000	0.493126
965.000000	0.492968
966.000000	0.492594
967.000000	0.492457
968.000000	0.492356
969.000000	0.492140
970.000000	0.491917
971.000000	0.491722
972.000000	0.491620
973.000000	0.491389
974.000000	0.490808
975.000000	0.490281
976.000000	0.490094
977.000000	0.490215
978.000000	0.489853
979.000000	0.489883
980.000000	0.489869
981.000000	0.489676
982.000000	0.489405
983.000000	0.489091
984.000000	0.488959
985.000000	0.489117
986.000000	0.488785
987.000000	0.488520
988.000000	0.488514
989.000000	0.488257
990.000000	0.487927
991.000000	0.487659
992.000000	0.487608
993.000000	0.487617
994.000000	0.487592
995.000000	0.487576
996.000000	0.487168
997.000000	0.487444
998.000000	0.487566
999.000000	0.487273
1000.000000	0.487073
1001.000000	0.487329
1002.000000	0.487147
1003.000000	0.487437
1004.000000	0.487485
1005.000000	0.486999
1006.000000	0.486423
1007.000000	0.485589
1008.000000	0.485727
1009.000000	0.486156
1010.000000	0.486278
1011.000000	0.486658
1012.000000	0.487093
1013.000000	0.486451
1014.000000	0.485558
1015.000000	0.485390
1016.000000	0.485386
1017.000000	0.484594
1018.000000	0.484553
1019.000000	0.484838
1020.000000	0.485699
1021.000000	0.485315
1022.000000	0.485250
1023.000000	0.485417
1024.000000	0.484859
1025.000000	0.484345
1026.000000	0.484163
1027.000000	0.483932
1028.000000	0.483796
1029.000000	0.483852
1030.000000	0.484631
1031.000000	0.485455
1032.000000	0.485396
1033.000000	0.485257
1034.000000	0.485146
1035.000000	0.484729
1036.000000	0.484539
1037.000000	0.484371
1038.000000	0.484390
1039.000000	0.484845
1040.000000	0.484890
1041.000000	0.485417
1042.000000	0.486315
1043.000000	0.485748
1044.000000	0.485465
1045.000000	0.485864
1046.000000	0.485216
1047.000000	0.485418
1048.000000	0.486695
1049.000000	0.486931
1050.000000	0.486893
1051.000000	0.486847
1052.000000	0.486049
1053.000000	0.485849
1054.000000	0.486012
1055.000000	0.486325
1056.000000	0.486985
1057.000000	0.488004
1058.000000	0.488580
1059.000000	0.488519
1060.000000	0.488362
1061.000000	0.488456
1062.000000	0.488585
1063.000000	0.489041
1064.000000	0.489105
1065.000000	0.488794
1066.000000	0.488868
1067.000000	0.488731
1068.000000	0.488873
1069.000000	0.489576
1070.000000	0.489835
1071.000000	0.489878
1072.000000	0.490125
1073.000000	0.490605
1074.000000	0.490702
1075.000000	0.490794
1076.000000	0.491226
1077.000000	0.490836
1078.000000	0.490358
1079.000000	0.490369
1080.000000	0.490415
1081.000000	0.490715
1082.000000	0.491893
1083.000000	0.492400
1084.000000	0.492939
1085.000000	0.493138
1086.000000	0.492661
1087.000000	0.492682
1088.000000	0.492586
1089.000000	0.492552
1090.000000	0.492956
1091.000000	0.492886
1092.000000	0.492316
1093.000000	0.492602
1094.000000	0.492897
1095.000000	0.493388
1096.000000	0.493575
1097.000000	0.493788
1098.000000	0.494163
1099.000000	0.494410
1100.000000	0.494591
1101.000000	0.495051
1102.000000	0.495147
1103.000000	0.494405
1104.000000	0.494440
1105.000000	0.494974
1106.000000	0.495254
1107.000000	0.495608
1108.000000	0.495947
1109.000000	0.496234
1110.000000	0.496516
1111.000000	0.496757
1112.000000	0.497204
1113.000000	0.497343
1114.000000	0.497206
1115.000000	0.497236
1116.000000	0.497191
1117.000000	0.497298
1118.000000	0.497493
1119.000000	0.497594
1120.000000	0.497727
1121.000000	0.497885
1122.000000	0.498363
1123.000000	0.498704
1124.000000	0.498531
1125.000000	0.498570
1126.000000	0.498231
1127.000000	0.498107
1128.000000	0.498115
1129.000000	0.498392
1130.000000	0.498671
1131.000000	0.499272
1132.000000	0.499250
1133.000000	0.499106
1134.000000	0.499040
1135.000000	0.498451
1136.000000	0.498262
1137.000000	0.498509
1138.000000	0.498353
1139.000000	0.498187
1140.000000	0.498102
1141.000000	0.497718
1142.000000	0.497568
1143.000000	0.497460
1144.000000	0.497545
1145.000000	0.497569
1146.000000	0.497447
1147.000000	0.497444
1148.000000	0.497375
1149.000000	0.497259
1150.000000	0.497172
1151.000000	0.497103
1152.000000	0.496898
1153.000000	0.496750
1154.000000	0.496560
1155.000000	0.496411
1156.000000	0.496225
1157.000000	0.496130
1158.000000	0.496117
1159.000000	0.496010
1160.000000	0.495835
1161.000000	0.495710
1162.000000	0.495661
1163.000000	0.495766
1164.000000	0.495736
1165.000000	0.495546
1166.000000	0.495550
1167.000000	0.495454
1168.000000	0.495397
1169.000000	0.495522
1170.000000	0.495582
1171.000000	0.495676
1172.000000	0.495739
1173.000000	0.495789
1174.000000	0.495755
1175.000000	0.495488
1176.000000	0.495360
1177.000000	0.495415
1178.000000	0.495449
1179.000000	0.495670
1180.000000	0.495577
1181.000000	0.495471
1182.000000	0.495187
1183.000000	0.495062
1184.000000	0.494940
1185.000000	0.494970
1186.000000	0.495287
1187.000000	0.495277
1188.000000	0.495193
1189.000000	0.495058
1190.000000	0.494879
1191.000000	0.494670
1192.000000	0.494515
1193.000000	0.494541
1194.000000	0.494368
1195.000000	0.494297
1196.000000	0.494307
1197.000000	0.494322
1198.000000	0.494449
1199.000000	0.494441
1200.000000	0.494403
1201.000000	0.494264
1202.000000	0.494064
1203.000000	0.494058
1204.000000	0.494190
1205.000000	0.494295
1206.000000	0.494278
1207.000000	0.494383
1208.000000	0.494354
1209.000000	0.494287
1210.000000	0.494229
1211.000000	0.494148
1212.000000	0.494002
1213.000000	0.493884
1214.000000	0.493797
1215.000000	0.493544
1216.000000	0.493503
1217.000000	0.493584
1218.000000	0.493571
1219.000000	0.493645
1220.000000	0.493834
1221.000000	0.493782
1222.000000	0.493772
1223.000000	0.493822
1224.000000	0.493819
1225.000000	0.493866
1226.000000	0.493733
1227.000000	0.493522
1228.000000	0.493445
1229.000000	0.493353
1230.000000	0.493325
1231.000000	0.493163
1232.000000	0.493092
1233.000000	0.493211
1234.000000	0.493340
1235.000000	0.493330
1236.000000	0.493250
1237.000000	0.493318
1238.000000	0.493276
1239.000000	0.493220
1240.000000	0.493260
1241.000000	0.493284
1242.000000	0.493242
1243.000000	0.493088
1244.000000	0.493119
1245.000000	0.493181
1246.000000	0.493092
1247.000000	0.493168
1248.000000	0.493156
1249.000000	0.493177
1250.000000	0.493120
1251.000000	0.493062
1252.000000	0.493010
1253.000000	0.492993
1254.000000	0.492953
1255.000000	0.492931
1256.000000	0.492888
1257.000000	0.492860
1258.000000	0.492899
1259.000000	0.492792
1260.000000	0.492876
1261.000000	0.493114
1262.000000	0.493145
1263.000000	0.493174
1264.000000	0.493127
1265.000000	0.492966
1266.000000	0.492863
1267.000000	0.492949
1268.000000	0.492948
1269.000000	0.492960
1270.000000	0.492945
1271.000000	0.492723
1272.000000	0.492754
1273.000000	0.492853
1274.000000	0.492692
1275.000000	0.492663
1276.000000	0.492815
1277.000000	0.492943
1278.000000	0.492936
1279.000000	0.492913
1280.000000	0.492747
1281.000000	0.492593
1282.000000	0.492491
1283.000000	0.492493
1284.000000	0.492461
1285.000000	0.492447
1286.000000	0.492406
1287.000000	0.492352
1288.000000	0.492339
1289.000000	0.492265
1290.000000	0.492023
1291.000000	0.491722
1292.000000	0.491666
1293.000000	0.491788
1294.000000	0.491849
1295.000000	0.492031
1296.000000	0.491973
1297.000000	0.491676
1298.000000	0.491620
1299.000000	0.491483
1300.000000	0.491428
1301.000000	0.491393
1302.000000	0.491247
1303.000000	0.491212
1304.000000	0.491061
1305.000000	0.490997
1306.000000	0.490881
1307.000000	0.490793
1308.000000	0.490694
1309.000000	0.490494
1310.000000	0.490390
1311.000000	0.490407
1312.000000	0.490239
1313.000000	0.490089
1314.000000	0.489911
1315.000000	0.489511
1316.000000	0.489203
1317.000000	0.489106
1318.000000	0.489098
1319.000000	0.488890
1320.000000	0.488638
1321.000000	0.488255
1322.000000	0.487676
1323.000000	0.487280
1324.000000	0.487085
1325.000000	0.486820
1326.000000	0.486590
1327.000000	0.486363
1328.000000	0.486201
1329.000000	0.485898
1330.000000	0.485511
1331.000000	0.485154
1332.000000	0.484872
1333.000000	0.484505
1334.000000	0.484159
1335.000000	0.483996
1336.000000	0.483906
1337.000000	0.483693
1338.000000	0.483490
1339.000000	0.483125
1340.000000	0.482715
1341.000000	0.482196
1342.000000	0.481663
1343.000000	0.481337
1344.000000	0.480910
1345.000000	0.480331
1346.000000	0.480040
1347.000000	0.479617
1348.000000	0.479272
1349.000000	0.479101
1350.000000	0.478885
1351.000000	0.478421
1352.000000	0.477902
1353.000000	0.477547
1354.000000	0.477161
1355.000000	0.476639
1356.000000	0.476238
1357.000000	0.475643
1358.000000	0.475063
1359.000000	0.474649
1360.000000	0.474150
1361.000000	0.473744
1362.000000	0.473229
1363.000000	0.472514
1364.000000	0.472040
1365.000000	0.471682
1366.000000	0.471168
1367.000000	0.470668
1368.000000	0.470125
1369.000000	0.469549
1370.000000	0.468750
1371.000000	0.467973
1372.000000	0.467055
1373.000000	0.465928
1374.000000	0.464889
1375.000000	0.463731
1376.000000	0.462564
1377.000000	0.461207
1378.000000	0.459336
1379.000000	0.456975
1380.000000	0.454125
1381.000000	0.450939
1382.000000	0.447684
1383.000000	0.444270
1384.000000	0.440547
1385.000000	0.436858
1386.000000	0.433323
1387.000000	0.430154
1388.000000	0.427643
1389.000000	0.425729
1390.000000	0.424365
1391.000000	0.423288
1392.000000	0.422673
1393.000000	0.422316
1394.000000	0.422528
1395.000000	0.422475
1396.000000	0.422786
1397.000000	0.422528
1398.000000	0.421946
1399.000000	0.421234
1400.000000	0.420346
1401.000000	0.419161
1402.000000	0.417817
1403.000000	0.416219
1404.000000	0.414583
1405.000000	0.412768
1406.000000	0.410999
1407.000000	0.409416
1408.000000	0.407638
1409.000000	0.405946
1410.000000	0.404427
1411.000000	0.402936
1412.000000	0.401431
1413.000000	0.399971
1414.000000	0.398571
1415.000000	0.397123
1416.000000	0.395852
1417.000000	0.394823
1418.000000	0.393806
1419.000000	0.392854
1420.000000	0.391689
1421.000000	0.390597
1422.000000	0.389573
1423.000000	0.388627
1424.000000	0.387714
1425.000000	0.386819
1426.000000	0.385887
1427.000000	0.384957
1428.000000	0.384081
1429.000000	0.383263
1430.000000	0.382465
1431.000000	0.381664
1432.000000	0.380871
1433.000000	0.380172
1434.000000	0.379365
1435.000000	0.378572
1436.000000	0.377847
1437.000000	0.377127
1438.000000	0.376308
1439.000000	0.375500
1440.000000	0.374831
1441.000000	0.374118
1442.000000	0.373543
1443.000000	0.373093
1444.000000	0.372646
1445.000000	0.372059
1446.000000	0.371428
1447.000000	0.370714
1448.000000	0.369988
1449.000000	0.369322
1450.000000	0.368705
1451.000000	0.368221
1452.000000	0.367707
1453.000000	0.367217
1454.000000	0.366792
1455.000000	0.366352
1456.000000	0.366028
1457.000000	0.365681
1458.000000	0.365347
1459.000000	0.365129
1460.000000	0.364835
1461.000000	0.364600
1462.000000	0.364464
1463.000000	0.364117
1464.000000	0.363846
1465.000000	0.363832
1466.000000	0.363693
1467.000000	0.363701
1468.000000	0.363967
1469.000000	0.364189
1470.000000	0.364273
1471.000000	0.364364
1472.000000	0.364457
1473.000000	0.364741
1474.000000	0.365172
1475.000000	0.365733
1476.000000	0.366293
1477.000000	0.366733
1478.000000	0.367160
1479.000000	0.367671
1480.000000	0.368275
1481.000000	0.368836
1482.000000	0.369481
1483.000000	0.370166
1484.000000	0.370846
1485.000000	0.371537
1486.000000	0.372290
1487.000000	0.373032
1488.000000	0.373764
1489.000000	0.374530
1490.000000	0.375247
1491.000000	0.375944
1492.000000	0.376533
1493.000000	0.377184
1494.000000	0.377783
1495.000000	0.378409
1496.000000	0.379109
1497.000000	0.379739
1498.000000	0.380395
1499.000000	0.380904
1500.000000	0.381423
1501.000000	0.381978
1502.000000	0.382483
1503.000000	0.383045
1504.000000	0.383679
1505.000000	0.384226
1506.000000	0.384789
1507.000000	0.385283
1508.000000	0.385788
1509.000000	0.386358
1510.000000	0.386753
1511.000000	0.387250
1512.000000	0.387703
1513.000000	0.387923
1514.000000	0.388370
1515.000000	0.388830
1516.000000	0.389135
1517.000000	0.389400
1518.000000	0.389613
1519.000000	0.389846
1520.000000	0.390161
1521.000000	0.390405
1522.000000	0.390724
1523.000000	0.391055
1524.000000	0.391279
1525.000000	0.391583
1526.000000	0.391783
1527.000000	0.391931
1528.000000	0.392238
1529.000000	0.392526
1530.000000	0.392761
1531.000000	0.393028
1532.000000	0.393130
1533.000000	0.393254
1534.000000	0.393407
1535.000000	0.393541
1536.000000	0.393593
1537.000000	0.393685
1538.000000	0.393953
1539.000000	0.394049
1540.000000	0.394168
1541.000000	0.394449
1542.000000	0.394577
1543.000000	0.394755
1544.000000	0.395030
1545.000000	0.395296
1546.000000	0.395581
1547.000000	0.395852
1548.000000	0.396017
1549.000000	0.396071
1550.000000	0.396045
1551.000000	0.395973
1552.000000	0.396018
1553.000000	0.396090
1554.000000	0.396212
1555.000000	0.396436
1556.000000	0.396553
1557.000000	0.396687
1558.000000	0.396802
1559.000000	0.396758
1560.000000	0.396743
1561.000000	0.396838
1562.000000	0.396783
1563.000000	0.396649
1564.000000	0.396680
1565.000000	0.396716
1566.000000	0.396670
1567.000000	0.396792
1568.000000	0.396800
1569.000000	0.396864
1570.000000	0.396842
1571.000000	0.396704
1572.000000	0.396676
1573.000000	0.396604
1574.000000	0.396587
1575.000000	0.396727
1576.000000	0.396849
1577.000000	0.396953
1578.000000	0.396985
1579.000000	0.397078
1580.000000	0.397120
1581.000000	0.397188
1582.000000	0.397221
1583.000000	0.397268
1584.000000	0.397204
1585.000000	0.397097
1586.000000	0.397084
1587.000000	0.397035
1588.000000	0.397037
1589.000000	0.397145
1590.000000	0.397244
1591.000000	0.397429
1592.000000	0.397541
1593.000000	0.397669
1594.000000	0.397754
1595.000000	0.397873
1596.000000	0.397882
1597.000000	0.397817
1598.000000	0.397858
1599.000000	0.397925
1600.000000	0.397923
1601.000000	0.398062
1602.000000	0.398133
1603.000000	0.398113
1604.000000	0.398163
1605.000000	0.398361
1606.000000	0.398470
1607.000000	0.398603
1608.000000	0.398692
1609.000000	0.398764
1610.000000	0.398855
1611.000000	0.398978
1612.000000	0.399091
1613.000000	0.399382
1614.000000	0.399509
1615.000000	0.399597
1616.000000	0.399758
1617.000000	0.399820
1618.000000	0.399949
1619.000000	0.400078
1620.000000	0.400298
1621.000000	0.400651
1622.000000	0.400974
1623.000000	0.401317
1624.000000	0.401620
1625.000000	0.401708
1626.000000	0.401775
1627.000000	0.401804
1628.000000	0.402032
1629.000000	0.402225
1630.000000	0.402573
1631.000000	0.403153
1632.000000	0.403468
1633.000000	0.403698
1634.000000	0.403978
1635.000000	0.404183
1636.000000	0.404454
1637.000000	0.404896
1638.000000	0.405117
1639.000000	0.405319
1640.000000	0.405475
1641.000000	0.405500
1642.000000	0.405714
1643.000000	0.406118
1644.000000	0.406372
1645.000000	0.406672
1646.000000	0.406811
1647.000000	0.406795
1648.000000	0.406875
1649.000000	0.407023
1650.000000	0.407313
1651.000000	0.407746
1652.000000	0.408154
1653.000000	0.408638
1654.000000	0.408969
1655.000000	0.409147
1656.000000	0.409319
1657.000000	0.409465
1658.000000	0.409713
1659.000000	0.410193
1660.000000	0.410507
1661.000000	0.410670
1662.000000	0.410927
1663.000000	0.411040
1664.000000	0.411339
1665.000000	0.411907
1666.000000	0.412176
1667.000000	0.412205
1668.000000	0.412427
1669.000000	0.412508
1670.000000	0.412615
1671.000000	0.413020
1672.000000	0.413326
1673.000000	0.413441
1674.000000	0.413900
1675.000000	0.414344
1676.000000	0.414736
1677.000000	0.414912
1678.000000	0.414850
1679.000000	0.415004
1680.000000	0.415105
1681.000000	0.415212
1682.000000	0.415587
1683.000000	0.415846
1684.000000	0.416020
1685.000000	0.416343
1686.000000	0.416485
1687.000000	0.416630
1688.000000	0.416717
1689.000000	0.416732
1690.000000	0.416864
1691.000000	0.417010
1692.000000	0.417130
1693.000000	0.417411
1694.000000	0.417607
1695.000000	0.417807
1696.000000	0.417973
1697.000000	0.418087
1698.000000	0.418157
1699.000000	0.418335
1700.000000	0.418691
1701.000000	0.418960
1702.000000	0.418968
1703.000000	0.418967
1704.000000	0.418901
1705.000000	0.418931
1706.000000	0.419108
1707.000000	0.419247
1708.000000	0.419414
1709.000000	0.419441
1710.000000	0.419504
1711.000000	0.419577
1712.000000	0.419543
1713.000000	0.419656
1714.000000	0.419953
1715.000000	0.420186
1716.000000	0.420544
1717.000000	0.420746
1718.000000	0.420784
1719.000000	0.420848
1720.000000	0.420866
1721.000000	0.421031
1722.000000	0.421304
1723.000000	0.421515
1724.000000	0.421868
1725.000000	0.422098
1726.000000	0.422101
1727.000000	0.422185
1728.000000	0.422187
1729.000000	0.422133
1730.000000	0.422182
1731.000000	0.422289
1732.000000	0.422444
1733.000000	0.422636
1734.000000	0.422683
1735.000000	0.422898
1736.000000	0.423155
1737.000000	0.423315
1738.000000	0.423619
1739.000000	0.423716
1740.000000	0.423560
1741.000000	0.423592
1742.000000	0.423665
1743.000000	0.423820
1744.000000	0.424045
1745.000000	0.424136
1746.000000	0.424230
1747.000000	0.424103
1748.000000	0.423973
1749.000000	0.423701
1750.000000	0.423573
1751.000000	0.423807
1752.000000	0.424010
1753.000000	0.424124
1754.000000	0.424209
1755.000000	0.424062
1756.000000	0.424061
1757.000000	0.424143
1758.000000	0.424273
1759.000000	0.424512
1760.000000	0.424681
1761.000000	0.424782
1762.000000	0.424902
1763.000000	0.425054
1764.000000	0.425161
1765.000000	0.425160
1766.000000	0.425303
1767.000000	0.425400
1768.000000	0.425440
1769.000000	0.425671
1770.000000	0.425879
1771.000000	0.425996
1772.000000	0.426034
1773.000000	0.425930
1774.000000	0.426014
1775.000000	0.426150
1776.000000	0.426335
1777.000000	0.426628
1778.000000	0.426917
1779.000000	0.427233
1780.000000	0.427350
1781.000000	0.427389
1782.000000	0.427524
1783.000000	0.427561
1784.000000	0.427743
1785.000000	0.427961
1786.000000	0.428040
1787.000000	0.428094
1788.000000	0.428184
1789.000000	0.428169
1790.000000	0.428206
1791.000000	0.428199
1792.000000	0.428320
1793.000000	0.428473
1794.000000	0.428721
1795.000000	0.428856
1796.000000	0.428974
1797.000000	0.429079
1798.000000	0.428900
1799.000000	0.429003
1800.000000	0.429480
1801.000000	0.428349
1802.000000	0.429097
1803.000000	0.429936
1804.000000	0.430772
1805.000000	0.432872
1806.000000	0.433630
1807.000000	0.433752
1808.000000	0.433394
1809.000000	0.432262
1810.000000	0.431215
1811.000000	0.430227
1812.000000	0.428435
1813.000000	0.428278
1814.000000	0.428887
1815.000000	0.429529
1816.000000	0.431359
1817.000000	0.432037
1818.000000	0.432548
1819.000000	0.433247
1820.000000	0.432672
1821.000000	0.431989
1822.000000	0.431571
1823.000000	0.430640
1824.000000	0.430170
1825.000000	0.430093
1826.000000	0.430135
1827.000000	0.430439
1828.000000	0.429863
1829.000000	0.430549
1830.000000	0.430377
1831.000000	0.430537
1832.000000	0.430871
1833.000000	0.431218
1834.000000	0.432089
1835.000000	0.431998
1836.000000	0.431269
1837.000000	0.430571
1838.000000	0.429218
1839.000000	0.427348
1840.000000	0.426420
1841.000000	0.425968
1842.000000	0.425477
1843.000000	0.425567
1844.000000	0.425156
1845.000000	0.424468
1846.000000	0.423838
1847.000000	0.422910
1848.000000	0.421559
1849.000000	0.420947
1850.000000	0.420082
1851.000000	0.419776
1852.000000	0.420106
1853.000000	0.419864
1854.000000	0.419676
1855.000000	0.419027
1856.000000	0.418002
1857.000000	0.416478
1858.000000	0.414714
1859.000000	0.412980
1860.000000	0.411378
1861.000000	0.409097
1862.000000	0.407068
1863.000000	0.405530
1864.000000	0.403366
1865.000000	0.400872
1866.000000	0.398568
1867.000000	0.396311
1868.000000	0.393021
1869.000000	0.390535
1870.000000	0.387490
1871.000000	0.383954
1872.000000	0.380634
1873.000000	0.377176
1874.000000	0.373424
1875.000000	0.369827
1876.000000	0.366341
1877.000000	0.361922
1878.000000	0.357094
1879.000000	0.352179
1880.000000	0.347272
1881.000000	0.342382
1882.000000	0.337200
1883.000000	0.331916
1884.000000	0.326648
1885.000000	0.320458
1886.000000	0.314950
1887.000000	0.310136
1888.000000	0.304749
1889.000000	0.298163
1890.000000	0.291934
1891.000000	0.285458
1892.000000	0.278406
1893.000000	0.272351
1894.000000	0.266436
1895.000000	0.260508
1896.000000	0.254633
1897.000000	0.249298
1898.000000	0.243949
1899.000000	0.239072
1900.000000	0.234406
1901.000000	0.229583
1902.000000	0.225132
1903.000000	0.220871
1904.000000	0.216633
1905.000000	0.213134
1906.000000	0.209891
1907.000000	0.206950
1908.000000	0.204490
1909.000000	0.202591
1910.000000	0.200289
1911.000000	0.198078
1912.000000	0.196331
1913.000000	0.194831
1914.000000	0.193188
1915.000000	0.191777
1916.000000	0.190615
1917.000000	0.189273
1918.000000	0.187686
1919.000000	0.186707
1920.000000	0.186178
1921.000000	0.185642
1922.000000	0.185309
1923.000000	0.185231
1924.000000	0.184902
1925.000000	0.184621
1926.000000	0.184346
1927.000000	0.184110
1928.000000	0.184086
1929.000000	0.184381
1930.000000	0.184279
1931.000000	0.184428
1932.000000	0.184985
1933.000000	0.185365
1934.000000	0.185526
1935.000000	0.186040
1936.000000	0.186925
1937.000000	0.186880
1938.000000	0.187048
1939.000000	0.187379
1940.000000	0.187734
1941.000000	0.187344
1942.000000	0.187655
1943.000000	0.188199
1944.000000	0.188245
1945.000000	0.188053
1946.000000	0.187896
1947.000000	0.187458
1948.000000	0.186686
1949.000000	0.185985
1950.000000	0.185189
1951.000000	0.184459
1952.000000	0.183686
1953.000000	0.183051
1954.000000	0.182767
1955.000000	0.182776
1956.000000	0.182844
1957.000000	0.183188
1958.000000	0.183616
1959.000000	0.183748
1960.000000	0.183482
1961.000000	0.183133
1962.000000	0.183092
1963.000000	0.183057
1964.000000	0.183201
1965.000000	0.183530
1966.000000	0.183788
1967.000000	0.183332
1968.000000	0.182836
1969.000000	0.182533
1970.000000	0.182293
1971.000000	0.182488
1972.000000	0.182806
1973.000000	0.183115
1974.000000	0.183755
1975.000000	0.184149
1976.000000	0.184414
1977.000000	0.184925
1978.000000	0.185377
1979.000000	0.185937
1980.000000	0.186645
1981.000000	0.186953
1982.000000	0.186752
1983.000000	0.187073
1984.000000	0.187828
1985.000000	0.189149
1986.000000	0.190128
1987.000000	0.191644
1988.000000	0.192544
1989.000000	0.192996
1990.000000	0.193595
1991.000000	0.194520
1992.000000	0.195481
1993.000000	0.196433
1994.000000	0.197453
1995.000000	0.197915
1996.000000	0.198626
1997.000000	0.199252
1998.000000	0.199508
1999.000000	0.200333
2000.000000	0.201446
2001.000000	0.202554
2002.000000	0.204166
2003.000000	0.205736
2004.000000	0.207099
2005.000000	0.208511
2006.000000	0.209663
2007.000000	0.211141
2008.000000	0.212499
2009.000000	0.213641
2010.000000	0.214999
2011.000000	0.216577
2012.000000	0.217794
2013.000000	0.218665
2014.000000	0.219974
2015.000000	0.221541
2016.000000	0.222665
2017.000000	0.223765
2018.000000	0.225139
2019.000000	0.226311
2020.000000	0.227088
2021.000000	0.227997
2022.000000	0.228859
2023.000000	0.230121
2024.000000	0.231453
2025.000000	0.232858
2026.000000	0.234616
2027.000000	0.236418
2028.000000	0.237389
2029.000000	0.238542
2030.000000	0.239809
2031.000000	0.240423
2032.000000	0.241856
2033.000000	0.243665
2034.000000	0.245019
2035.000000	0.246789
2036.000000	0.247917
2037.000000	0.248463
2038.000000	0.249160
2039.000000	0.249649
2040.000000	0.250388
2041.000000	0.251113
2042.000000	0.252198
2043.000000	0.253603
2044.000000	0.254887
2045.000000	0.255736
2046.000000	0.256574
2047.000000	0.257782
2048.000000	0.258930
2049.000000	0.260232
2050.000000	0.261882
2051.000000	0.262905
2052.000000	0.263503
2053.000000	0.263948
2054.000000	0.263823
2055.000000	0.264767
2056.000000	0.266071
2057.000000	0.267092
2058.000000	0.268800
2059.000000	0.270212
2060.000000	0.271412
2061.000000	0.272288
2062.000000	0.273307
2063.000000	0.274381
2064.000000	0.275240
2065.000000	0.276169
2066.000000	0.276913
2067.000000	0.277695
2068.000000	0.278626
2069.000000	0.279624
2070.000000	0.280203
2071.000000	0.280953
2072.000000	0.281764
2073.000000	0.282547
2074.000000	0.283721
2075.000000	0.284495
2076.000000	0.285144
2077.000000	0.285871
2078.000000	0.286049
2079.000000	0.286783
2080.000000	0.288154
2081.000000	0.289289
2082.000000	0.290336
2083.000000	0.291991
2084.000000	0.293115
2085.000000	0.294170
2086.000000	0.295695
2087.000000	0.296845
2088.000000	0.298373
2089.000000	0.299321
2090.000000	0.300081
2091.000000	0.300369
2092.000000	0.301217
2093.000000	0.302186
2094.000000	0.302938
2095.000000	0.303776
2096.000000	0.304595
2097.000000	0.304943
2098.000000	0.305724
2099.000000	0.306796
2100.000000	0.307878
2101.000000	0.308968
2102.000000	0.310161
2103.000000	0.311061
2104.000000	0.312229
2105.000000	0.313091
2106.000000	0.313730
2107.000000	0.314145
2108.000000	0.314271
2109.000000	0.314557
2110.000000	0.314349
2111.000000	0.314612
2112.000000	0.315003
2113.000000	0.315316
2114.000000	0.316257
2115.000000	0.317277
2116.000000	0.318324
2117.000000	0.318995
2118.000000	0.319328
2119.000000	0.320037
2120.000000	0.320944
2121.000000	0.322156
2122.000000	0.323044
2123.000000	0.324178
2124.000000	0.324905
2125.000000	0.325311
2126.000000	0.325838
2127.000000	0.326467
2128.000000	0.326640
2129.000000	0.326379
2130.000000	0.325963
2131.000000	0.325416
2132.000000	0.325882
2133.000000	0.326620
2134.000000	0.327607
2135.000000	0.329254
2136.000000	0.330035
2137.000000	0.330476
2138.000000	0.330795
2139.000000	0.330863
2140.000000	0.329760
2141.000000	0.329797
2142.000000	0.330625
2143.000000	0.330468
2144.000000	0.330291
2145.000000	0.330413
2146.000000	0.330013
2147.000000	0.330463
2148.000000	0.331560
2149.000000	0.333065
2150.000000	0.333992
2151.000000	0.334652
2152.000000	0.334513
2153.000000	0.333614
2154.000000	0.333457
2155.000000	0.333062
2156.000000	0.333172
2157.000000	0.334529
2158.000000	0.334727
2159.000000	0.334301
2160.000000	0.334369
2161.000000	0.333478
2162.000000	0.333801
2163.000000	0.335522
2164.000000	0.336576
2165.000000	0.337886
2166.000000	0.339335
2167.000000	0.339770
2168.000000	0.338873
2169.000000	0.338343
2170.000000	0.337476
2171.000000	0.336813
2172.000000	0.336265
2173.000000	0.335815
2174.000000	0.335054
2175.000000	0.335006
2176.000000	0.335624
2177.000000	0.335714
2178.000000	0.335976
2179.000000	0.336600
2180.000000	0.337372
2181.000000	0.338073
2182.000000	0.339180
2183.000000	0.338599
2184.000000	0.336792
2185.000000	0.334933
2186.000000	0.334020
2187.000000	0.334054
2188.000000	0.335825
2189.000000	0.336598
2190.000000	0.335804
2191.000000	0.335854
2192.000000	0.335831
2193.000000	0.335706
2194.000000	0.335529
2195.000000	0.335734
2196.000000	0.335489
2197.000000	0.334300
2198.000000	0.333348
2199.000000	0.332404
2200.000000	0.332409
2201.000000	0.333439
2202.000000	0.333611
2203.000000	0.334193
2204.000000	0.333391
2205.000000	0.333232
2206.000000	0.333843
2207.000000	0.334413
2208.000000	0.335564
2209.000000	0.333625
2210.000000	0.331491
2211.000000	0.330771
2212.000000	0.330565
2213.000000	0.331991
2214.000000	0.335909
2215.000000	0.337609
2216.000000	0.340609
2217.000000	0.340918
2218.000000	0.339302
2219.000000	0.338133
2220.000000	0.334500
2221.000000	0.333641
2222.000000	0.334078
2223.000000	0.333578
2224.000000	0.333788
2225.000000	0.334164
2226.000000	0.333751
2227.000000	0.335022
2228.000000	0.335429
2229.000000	0.334962
2230.000000	0.335180
2231.000000	0.334063
2232.000000	0.334145
2233.000000	0.335343
2234.000000	0.333297
2235.000000	0.331765
2236.000000	0.331196
2237.000000	0.329445
2238.000000	0.330724
2239.000000	0.335454
2240.000000	0.337751
2241.000000	0.341765
2242.000000	0.342641
2243.000000	0.340459
2244.000000	0.339269
2245.000000	0.336384
2246.000000	0.334978
2247.000000	0.333475
2248.000000	0.333435
2249.000000	0.335745
2250.000000	0.336252
2251.000000	0.336018
2252.000000	0.337568
2253.000000	0.334591
2254.000000	0.332059
2255.000000	0.330743
2256.000000	0.329187
2257.000000	0.330207
2258.000000	0.330706
2259.000000	0.331577
2260.000000	0.331567
2261.000000	0.331378
2262.000000	0.331827
2263.000000	0.330602
2264.000000	0.327370
2265.000000	0.326250
2266.000000	0.324082
2267.000000	0.322977
2268.000000	0.323963
2269.000000	0.324652
2270.000000	0.325989
2271.000000	0.326151
2272.000000	0.327519
2273.000000	0.326645
2274.000000	0.321952
2275.000000	0.320093
2276.000000	0.319354
2277.000000	0.316700
2278.000000	0.315358
2279.000000	0.315313
2280.000000	0.312904
2281.000000	0.310844
2282.000000	0.311183
2283.000000	0.311059
2284.000000	0.310665
2285.000000	0.309706
2286.000000	0.306312
2287.000000	0.302200
2288.000000	0.300442
2289.000000	0.297531
2290.000000	0.294358
2291.000000	0.293746
2292.000000	0.291746
2293.000000	0.290425
2294.000000	0.289690
2295.000000	0.290367
2296.000000	0.289224
2297.000000	0.287417
2298.000000	0.286327
2299.000000	0.284414
2300.000000	0.283666
2301.000000	0.283849
2302.000000	0.283661
2303.000000	0.285533
2304.000000	0.283908
2305.000000	0.280479
2306.000000	0.277212
2307.000000	0.271719
2308.000000	0.265644
2309.000000	0.263750
2310.000000	0.263576
2311.000000	0.263119
2312.000000	0.263698
2313.000000	0.262654
2314.000000	0.259411
2315.000000	0.257972
2316.000000	0.257187
2317.000000	0.254915
2318.000000	0.254281
2319.000000	0.256537
2320.000000	0.258407
2321.000000	0.262100
2322.000000	0.264567
2323.000000	0.263683
2324.000000	0.264101
2325.000000	0.263403
2326.000000	0.264947
2327.000000	0.266327
2328.000000	0.263096
2329.000000	0.262488
2330.000000	0.263250
2331.000000	0.262276
2332.000000	0.264541
2333.000000	0.266108
2334.000000	0.263320
2335.000000	0.263926
2336.000000	0.266887
2337.000000	0.266552
2338.000000	0.267328
2339.000000	0.265935
2340.000000	0.259262
2341.000000	0.256734
2342.000000	0.254857
2343.000000	0.253809
2344.000000	0.256402
2345.000000	0.256168
2346.000000	0.255645
2347.000000	0.253339
2348.000000	0.248352
2349.000000	0.244713
2350.000000	0.242822
2351.000000	0.238693
2352.000000	0.238293
2353.000000	0.239338
2354.000000	0.234894
2355.000000	0.236537
2356.000000	0.240152
2357.000000	0.235811
2358.000000	0.232701
2359.000000	0.231356
2360.000000	0.224163
2361.000000	0.219771
2362.000000	0.221561
2363.000000	0.220696
2364.000000	0.221804
2365.000000	0.224776
2366.000000	0.226126
2367.000000	0.226804
2368.000000	0.225178
2369.000000	0.224771
2370.000000	0.224759
2371.000000	0.223293
2372.000000	0.222583
2373.000000	0.218883
2374.000000	0.214420
2375.000000	0.212937
2376.000000	0.214341
2377.000000	0.220428
2378.000000	0.224136
2379.000000	0.224198
2380.000000	0.220483
2381.000000	0.213701
2382.000000	0.209728
2383.000000	0.207512
2384.000000	0.207143
2385.000000	0.207244
2386.000000	0.206595
2387.000000	0.202351
2388.000000	0.202440
2389.000000	0.204903
2390.000000	0.196855
2391.000000	0.195013
2392.000000	0.191436
2393.000000	0.179950
2394.000000	0.182150
2395.000000	0.187345
2396.000000	0.190438
2397.000000	0.198023
2398.000000	0.201076
2399.000000	0.200606
2400.000000	0.197869
2401.000000	0.190497
2402.000000	0.186724
2403.000000	0.180605
2404.000000	0.177055
2405.000000	0.181323
2406.000000	0.180238
2407.000000	0.187883
2408.000000	0.193845
2409.000000	0.188487
2410.000000	0.191589
2411.000000	0.193176
2412.000000	0.194456
2413.000000	0.200992
2414.000000	0.204763
2415.000000	0.199327
2416.000000	0.195056
2417.000000	0.195223
2418.000000	0.190993
2419.000000	0.194379
2420.000000	0.193049
2421.000000	0.186437
2422.000000	0.182098
2423.000000	0.179261
2424.000000	0.183659
2425.000000	0.183704
2426.000000	0.185887
2427.000000	0.191637
2428.000000	0.193810
2429.000000	0.199018
2430.000000	0.195008
2431.000000	0.186987
2432.000000	0.185567
2433.000000	0.178239
2434.000000	0.178023
2435.000000	0.180230
2436.000000	0.176287
2437.000000	0.177272
2438.000000	0.170611
2439.000000	0.162083
2440.000000	0.156251
2441.000000	0.141339
2442.000000	0.141433
2443.000000	0.156027
2444.000000	0.170941
2445.000000	0.190953
2446.000000	0.199244
2447.000000	0.186917
2448.000000	0.156119
2449.000000	0.134624
2450.000000	0.126428
2451.000000	0.124636
2452.000000	0.143027
2453.000000	0.151257
2454.000000	0.148698
2455.000000	0.153712
2456.000000	0.145775
2457.000000	0.143283
2458.000000	0.158138
2459.000000	0.162262
2460.000000	0.172662
2461.000000	0.193249
2462.000000	0.189483
2463.000000	0.182114
2464.000000	0.178768
2465.000000	0.163189
2466.000000	0.148269
2467.000000	0.133168
2468.000000	0.129982
2469.000000	0.123894
2470.000000	0.117196
2471.000000	0.128606
2472.000000	0.145843
2473.000000	0.184843
2474.000000	0.213967
2475.000000	0.232288
2476.000000	0.255497
2477.000000	0.227806
2478.000000	0.210479
2479.000000	0.214513
2480.000000	0.190065
2481.000000	0.188481
2482.000000	0.210894
2483.000000	0.223014
2484.000000	0.219675
2485.000000	0.227004
2486.000000	0.197884
2487.000000	0.161541
2488.000000	0.172294
2489.000000	0.143162
2490.000000	0.149253
2491.000000	0.151576
2492.000000	0.143722
2493.000000	0.144533
2494.000000	0.153699
2495.000000	0.174976
2496.000000	0.181978
2497.000000	0.188721
2498.000000	0.193258
2499.000000	0.174403
2500.000000	0.170675
