# Wavelength	SM1200H-50-75_00000.asd.rts.txt
350.000000	0.601109
351.000000	0.595504
352.000000	0.583152
353.000000	0.578237
354.000000	0.588078
355.000000	0.590701
356.000000	0.595813
357.000000	0.604142
358.000000	0.600155
359.000000	0.597934
360.000000	0.598777
361.000000	0.599959
362.000000	0.602338
363.000000	0.605290
364.000000	0.606968
365.000000	0.608119
366.000000	0.608991
367.000000	0.609179
368.000000	0.609222
369.000000	0.615941
370.000000	0.622509
371.000000	0.620366
372.000000	0.624821
373.000000	0.629038
374.000000	0.629365
375.000000	0.631323
376.000000	0.631821
377.000000	0.631242
378.000000	0.634198
379.000000	0.637014
380.000000	0.638344
381.000000	0.639838
382.000000	0.640650
383.000000	0.641426
384.000000	0.642884
385.000000	0.642442
386.000000	0.644968
387.000000	0.650247
388.000000	0.651515
389.000000	0.652219
390.000000	0.653337
391.000000	0.654385
392.000000	0.656234
393.000000	0.657544
394.000000	0.657670
395.000000	0.659072
396.000000	0.661086
397.000000	0.662748
398.000000	0.662830
399.000000	0.663351
400.000000	0.664725
401.000000	0.666242
402.000000	0.666434
403.000000	0.666878
404.000000	0.669089
405.000000	0.670123
406.000000	0.670791
407.000000	0.671681
408.000000	0.672400
409.000000	0.673032
410.000000	0.673688
411.000000	0.674396
412.000000	0.674963
413.000000	0.675569
414.000000	0.676444
415.000000	0.677133
416.000000	0.677969
417.000000	0.679107
418.000000	0.680220
419.000000	0.681009
420.000000	0.681701
421.000000	0.682988
422.000000	0.684257
423.000000	0.685178
424.000000	0.685869
425.000000	0.687485
426.000000	0.688857
427.000000	0.689214
428.000000	0.689977
429.000000	0.691206
430.000000	0.692671
431.000000	0.693662
432.000000	0.694847
433.000000	0.696115
434.000000	0.697333
435.000000	0.698561
436.000000	0.699774
437.000000	0.700893
438.000000	0.701990
439.000000	0.702986
440.000000	0.704094
441.000000	0.705150
442.000000	0.706226
443.000000	0.707235
444.000000	0.708460
445.000000	0.709327
446.000000	0.710341
447.000000	0.711634
448.000000	0.712644
449.000000	0.713649
450.000000	0.714825
451.000000	0.715638
452.000000	0.716608
453.000000	0.717679
454.000000	0.718822
455.000000	0.719725
456.000000	0.720634
457.000000	0.721493
458.000000	0.722237
459.000000	0.723000
460.000000	0.723941
461.000000	0.724352
462.000000	0.724994
463.000000	0.725725
464.000000	0.726242
465.000000	0.726688
466.000000	0.727049
467.000000	0.727634
468.000000	0.728344
469.000000	0.728873
470.000000	0.729404
471.000000	0.730061
472.000000	0.730541
473.000000	0.730822
474.000000	0.731386
475.000000	0.731658
476.000000	0.731995
477.000000	0.732800
478.000000	0.733197
479.000000	0.733744
480.000000	0.734503
481.000000	0.735024
482.000000	0.735826
483.000000	0.736716
484.000000	0.737471
485.000000	0.737875
486.000000	0.738419
487.000000	0.739182
488.000000	0.739876
489.000000	0.740562
490.000000	0.741456
491.000000	0.742299
492.000000	0.743143
493.000000	0.743757
494.000000	0.744576
495.000000	0.745449
496.000000	0.746158
497.000000	0.747018
498.000000	0.747834
499.000000	0.748725
500.000000	0.749626
501.000000	0.750426
502.000000	0.751244
503.000000	0.752047
504.000000	0.752987
505.000000	0.753944
506.000000	0.754792
507.000000	0.755541
508.000000	0.756394
509.000000	0.757321
510.000000	0.758236
511.000000	0.759073
512.000000	0.759905
513.000000	0.760752
514.000000	0.761591
515.000000	0.762466
516.000000	0.763256
517.000000	0.764063
518.000000	0.764931
519.000000	0.765653
520.000000	0.766408
521.000000	0.767128
522.000000	0.767832
523.000000	0.768636
524.000000	0.769425
525.000000	0.770154
526.000000	0.770946
527.000000	0.771726
528.000000	0.772385
529.000000	0.772999
530.000000	0.773680
531.000000	0.774493
532.000000	0.775211
533.000000	0.775929
534.000000	0.776739
535.000000	0.777569
536.000000	0.778288
537.000000	0.778965
538.000000	0.779632
539.000000	0.780278
540.000000	0.780973
541.000000	0.781603
542.000000	0.782195
543.000000	0.782909
544.000000	0.783693
545.000000	0.784342
546.000000	0.785082
547.000000	0.785838
548.000000	0.786638
549.000000	0.787295
550.000000	0.788054
551.000000	0.788903
552.000000	0.789611
553.000000	0.790256
554.000000	0.790912
555.000000	0.791657
556.000000	0.792553
557.000000	0.793234
558.000000	0.793939
559.000000	0.794641
560.000000	0.795167
561.000000	0.795764
562.000000	0.796442
563.000000	0.796949
564.000000	0.797520
565.000000	0.798120
566.000000	0.798811
567.000000	0.799517
568.000000	0.800129
569.000000	0.800702
570.000000	0.801301
571.000000	0.801875
572.000000	0.802322
573.000000	0.802824
574.000000	0.803286
575.000000	0.803714
576.000000	0.804250
577.000000	0.804751
578.000000	0.805266
579.000000	0.805803
580.000000	0.806312
581.000000	0.806765
582.000000	0.807188
583.000000	0.807600
584.000000	0.808018
585.000000	0.808466
586.000000	0.808947
587.000000	0.809419
588.000000	0.809842
589.000000	0.810233
590.000000	0.810603
591.000000	0.810959
592.000000	0.811285
593.000000	0.811624
594.000000	0.811981
595.000000	0.812351
596.000000	0.812638
597.000000	0.812954
598.000000	0.813213
599.000000	0.813414
600.000000	0.813715
601.000000	0.814014
602.000000	0.814299
603.000000	0.814560
604.000000	0.814822
605.000000	0.815089
606.000000	0.815298
607.000000	0.815457
608.000000	0.815605
609.000000	0.815753
610.000000	0.815931
611.000000	0.816166
612.000000	0.816473
613.000000	0.816722
614.000000	0.816960
615.000000	0.817296
616.000000	0.817663
617.000000	0.817961
618.000000	0.818332
619.000000	0.818720
620.000000	0.819001
621.000000	0.819210
622.000000	0.819477
623.000000	0.819754
624.000000	0.819968
625.000000	0.820110
626.000000	0.820235
627.000000	0.820381
628.000000	0.820543
629.000000	0.820838
630.000000	0.820962
631.000000	0.821179
632.000000	0.821368
633.000000	0.821562
634.000000	0.821760
635.000000	0.821916
636.000000	0.822103
637.000000	0.822307
638.000000	0.822490
639.000000	0.822652
640.000000	0.822887
641.000000	0.822912
642.000000	0.823015
643.000000	0.823183
644.000000	0.823325
645.000000	0.823448
646.000000	0.823581
647.000000	0.823666
648.000000	0.823675
649.000000	0.823785
650.000000	0.823979
651.000000	0.824169
652.000000	0.824224
653.000000	0.824316
654.000000	0.824511
655.000000	0.824687
656.000000	0.824899
657.000000	0.825046
658.000000	0.825142
659.000000	0.825297
660.000000	0.825471
661.000000	0.825484
662.000000	0.825497
663.000000	0.825630
664.000000	0.825686
665.000000	0.825761
666.000000	0.825873
667.000000	0.825941
668.000000	0.826048
669.000000	0.826170
670.000000	0.826301
671.000000	0.826408
672.000000	0.826524
673.000000	0.826652
674.000000	0.826829
675.000000	0.826986
676.000000	0.827139
677.000000	0.827352
678.000000	0.827467
679.000000	0.827533
680.000000	0.827610
681.000000	0.827596
682.000000	0.827697
683.000000	0.827756
684.000000	0.827866
685.000000	0.827935
686.000000	0.828034
687.000000	0.828129
688.000000	0.828206
689.000000	0.828300
690.000000	0.828516
691.000000	0.828754
692.000000	0.828887
693.000000	0.829079
694.000000	0.829358
695.000000	0.829643
696.000000	0.829841
697.000000	0.829877
698.000000	0.829944
699.000000	0.830057
700.000000	0.830197
701.000000	0.830194
702.000000	0.830305
703.000000	0.830497
704.000000	0.830474
705.000000	0.830566
706.000000	0.830651
707.000000	0.830696
708.000000	0.830812
709.000000	0.830938
710.000000	0.831055
711.000000	0.831116
712.000000	0.831216
713.000000	0.831400
714.000000	0.831477
715.000000	0.831512
716.000000	0.831577
717.000000	0.831677
718.000000	0.831754
719.000000	0.831796
720.000000	0.831837
721.000000	0.831843
722.000000	0.831766
723.000000	0.831762
724.000000	0.831769
725.000000	0.831664
726.000000	0.831657
727.000000	0.831646
728.000000	0.831725
729.000000	0.831887
730.000000	0.831975
731.000000	0.832149
732.000000	0.832223
733.000000	0.832241
734.000000	0.832223
735.000000	0.832115
736.000000	0.832228
737.000000	0.832296
738.000000	0.832145
739.000000	0.832157
740.000000	0.832180
741.000000	0.832396
742.000000	0.832661
743.000000	0.832824
744.000000	0.832947
745.000000	0.833042
746.000000	0.833203
747.000000	0.833274
748.000000	0.833377
749.000000	0.833447
750.000000	0.833368
751.000000	0.833293
752.000000	0.833324
753.000000	0.833504
754.000000	0.833749
755.000000	0.833965
756.000000	0.834104
757.000000	0.834051
758.000000	0.834087
759.000000	0.834166
760.000000	0.834116
761.000000	0.834333
762.000000	0.834486
763.000000	0.834519
764.000000	0.834744
765.000000	0.835040
766.000000	0.835307
767.000000	0.835445
768.000000	0.835459
769.000000	0.835373
770.000000	0.835264
771.000000	0.835244
772.000000	0.835376
773.000000	0.835454
774.000000	0.835530
775.000000	0.835586
776.000000	0.835625
777.000000	0.835626
778.000000	0.835693
779.000000	0.835833
780.000000	0.836035
781.000000	0.836198
782.000000	0.836354
783.000000	0.836594
784.000000	0.836566
785.000000	0.836635
786.000000	0.836694
787.000000	0.836680
788.000000	0.836714
789.000000	0.836779
790.000000	0.836774
791.000000	0.836693
792.000000	0.836639
793.000000	0.836633
794.000000	0.836684
795.000000	0.836769
796.000000	0.836852
797.000000	0.836871
798.000000	0.836760
799.000000	0.836721
800.000000	0.836751
801.000000	0.836799
802.000000	0.836882
803.000000	0.836953
804.000000	0.837055
805.000000	0.837035
806.000000	0.836994
807.000000	0.837128
808.000000	0.837252
809.000000	0.837375
810.000000	0.837497
811.000000	0.837582
812.000000	0.837643
813.000000	0.837729
814.000000	0.837792
815.000000	0.837759
816.000000	0.837613
817.000000	0.837507
818.000000	0.837375
819.000000	0.837363
820.000000	0.837370
821.000000	0.837251
822.000000	0.837227
823.000000	0.837282
824.000000	0.837306
825.000000	0.837464
826.000000	0.837502
827.000000	0.837363
828.000000	0.837215
829.000000	0.837236
830.000000	0.837165
831.000000	0.837105
832.000000	0.836904
833.000000	0.836824
834.000000	0.836859
835.000000	0.836986
836.000000	0.836893
837.000000	0.836752
838.000000	0.836678
839.000000	0.836623
840.000000	0.836606
841.000000	0.836754
842.000000	0.836986
843.000000	0.836946
844.000000	0.836909
845.000000	0.836925
846.000000	0.836998
847.000000	0.837142
848.000000	0.837245
849.000000	0.837290
850.000000	0.837330
851.000000	0.837306
852.000000	0.837321
853.000000	0.837409
854.000000	0.837279
855.000000	0.837270
856.000000	0.837336
857.000000	0.837277
858.000000	0.837466
859.000000	0.837772
860.000000	0.837863
861.000000	0.837973
862.000000	0.838164
863.000000	0.838221
864.000000	0.838162
865.000000	0.838234
866.000000	0.838511
867.000000	0.838481
868.000000	0.838404
869.000000	0.838247
870.000000	0.838185
871.000000	0.838093
872.000000	0.837957
873.000000	0.837693
874.000000	0.837659
875.000000	0.837549
876.000000	0.837511
877.000000	0.837636
878.000000	0.837627
879.000000	0.837613
880.000000	0.837359
881.000000	0.837225
882.000000	0.837261
883.000000	0.837457
884.000000	0.837556
885.000000	0.837499
886.000000	0.837304
887.000000	0.837142
888.000000	0.837208
889.000000	0.837335
890.000000	0.837192
891.000000	0.837067
892.000000	0.837057
893.000000	0.837054
894.000000	0.837236
895.000000	0.837170
896.000000	0.837158
897.000000	0.837317
898.000000	0.837641
899.000000	0.837821
900.000000	0.837937
901.000000	0.837976
902.000000	0.838135
903.000000	0.838156
904.000000	0.838168
905.000000	0.838100
906.000000	0.838208
907.000000	0.838273
908.000000	0.838379
909.000000	0.838460
910.000000	0.838397
911.000000	0.838242
912.000000	0.838108
913.000000	0.837898
914.000000	0.837702
915.000000	0.837729
916.000000	0.837788
917.000000	0.837622
918.000000	0.837531
919.000000	0.837667
920.000000	0.837786
921.000000	0.837836
922.000000	0.837842
923.000000	0.837784
924.000000	0.837589
925.000000	0.837396
926.000000	0.837319
927.000000	0.837054
928.000000	0.836841
929.000000	0.836702
930.000000	0.836576
931.000000	0.836317
932.000000	0.836148
933.000000	0.836136
934.000000	0.835864
935.000000	0.835482
936.000000	0.835178
937.000000	0.834740
938.000000	0.833944
939.000000	0.833330
940.000000	0.832591
941.000000	0.831358
942.000000	0.829401
943.000000	0.827088
944.000000	0.824375
945.000000	0.821470
946.000000	0.818964
947.000000	0.817530
948.000000	0.817433
949.000000	0.818214
950.000000	0.819810
951.000000	0.821769
952.000000	0.823593
953.000000	0.824793
954.000000	0.825366
955.000000	0.825335
956.000000	0.825229
957.000000	0.824828
958.000000	0.824307
959.000000	0.824259
960.000000	0.824206
961.000000	0.824309
962.000000	0.824565
963.000000	0.824906
964.000000	0.825241
965.000000	0.825634
966.000000	0.825835
967.000000	0.825996
968.000000	0.826322
969.000000	0.826638
970.000000	0.826960
971.000000	0.827283
972.000000	0.827680
973.000000	0.827955
974.000000	0.828128
975.000000	0.828295
976.000000	0.828553
977.000000	0.828897
978.000000	0.829098
979.000000	0.829824
980.000000	0.830278
981.000000	0.830515
982.000000	0.830803
983.000000	0.830910
984.000000	0.831073
985.000000	0.831576
986.000000	0.832068
987.000000	0.832524
988.000000	0.832702
989.000000	0.832902
990.000000	0.833377
991.000000	0.833817
992.000000	0.834020
993.000000	0.834667
994.000000	0.834903
995.000000	0.834956
996.000000	0.834825
997.000000	0.835415
998.000000	0.836120
999.000000	0.836666
1000.000000	0.836867
1001.000000	0.836326
1002.000000	0.836642
1003.000000	0.836685
1004.000000	0.836655
1005.000000	0.836181
1006.000000	0.835854
1007.000000	0.835595
1008.000000	0.835540
1009.000000	0.835787
1010.000000	0.835500
1011.000000	0.835938
1012.000000	0.836810
1013.000000	0.836476
1014.000000	0.835984
1015.000000	0.835785
1016.000000	0.836023
1017.000000	0.836624
1018.000000	0.837797
1019.000000	0.838563
1020.000000	0.839638
1021.000000	0.839338
1022.000000	0.838729
1023.000000	0.839066
1024.000000	0.838851
1025.000000	0.839210
1026.000000	0.839794
1027.000000	0.839470
1028.000000	0.839200
1029.000000	0.839497
1030.000000	0.839769
1031.000000	0.840328
1032.000000	0.840970
1033.000000	0.840836
1034.000000	0.840966
1035.000000	0.841214
1036.000000	0.841373
1037.000000	0.841635
1038.000000	0.841438
1039.000000	0.841243
1040.000000	0.841001
1041.000000	0.840745
1042.000000	0.840570
1043.000000	0.841225
1044.000000	0.841841
1045.000000	0.841912
1046.000000	0.842293
1047.000000	0.842700
1048.000000	0.842879
1049.000000	0.842808
1050.000000	0.842797
1051.000000	0.842687
1052.000000	0.841902
1053.000000	0.841690
1054.000000	0.842391
1055.000000	0.842947
1056.000000	0.843885
1057.000000	0.844437
1058.000000	0.844430
1059.000000	0.844113
1060.000000	0.844080
1061.000000	0.844065
1062.000000	0.844013
1063.000000	0.844431
1064.000000	0.844802
1065.000000	0.845000
1066.000000	0.845149
1067.000000	0.845519
1068.000000	0.845480
1069.000000	0.844741
1070.000000	0.844523
1071.000000	0.844644
1072.000000	0.844641
1073.000000	0.844898
1074.000000	0.845211
1075.000000	0.845226
1076.000000	0.844992
1077.000000	0.844616
1078.000000	0.844265
1079.000000	0.844007
1080.000000	0.843828
1081.000000	0.843692
1082.000000	0.843954
1083.000000	0.843957
1084.000000	0.843947
1085.000000	0.844030
1086.000000	0.843924
1087.000000	0.844071
1088.000000	0.844303
1089.000000	0.844321
1090.000000	0.844287
1091.000000	0.844141
1092.000000	0.843846
1093.000000	0.843815
1094.000000	0.843461
1095.000000	0.842550
1096.000000	0.842632
1097.000000	0.843146
1098.000000	0.843280
1099.000000	0.843720
1100.000000	0.844065
1101.000000	0.843907
1102.000000	0.843800
1103.000000	0.843841
1104.000000	0.843925
1105.000000	0.843753
1106.000000	0.843654
1107.000000	0.843815
1108.000000	0.843634
1109.000000	0.843358
1110.000000	0.842908
1111.000000	0.842586
1112.000000	0.842181
1113.000000	0.841970
1114.000000	0.841901
1115.000000	0.841787
1116.000000	0.841800
1117.000000	0.841664
1118.000000	0.841406
1119.000000	0.841104
1120.000000	0.840779
1121.000000	0.840421
1122.000000	0.840249
1123.000000	0.840462
1124.000000	0.840336
1125.000000	0.840112
1126.000000	0.839741
1127.000000	0.839205
1128.000000	0.838512
1129.000000	0.837624
1130.000000	0.836962
1131.000000	0.836460
1132.000000	0.835567
1133.000000	0.834758
1134.000000	0.833834
1135.000000	0.832482
1136.000000	0.831273
1137.000000	0.830295
1138.000000	0.828824
1139.000000	0.827175
1140.000000	0.825884
1141.000000	0.824377
1142.000000	0.822953
1143.000000	0.821614
1144.000000	0.820488
1145.000000	0.818918
1146.000000	0.817202
1147.000000	0.815869
1148.000000	0.814368
1149.000000	0.813307
1150.000000	0.812634
1151.000000	0.811901
1152.000000	0.811021
1153.000000	0.810617
1154.000000	0.810228
1155.000000	0.810110
1156.000000	0.810515
1157.000000	0.810744
1158.000000	0.810859
1159.000000	0.811099
1160.000000	0.811276
1161.000000	0.811625
1162.000000	0.812282
1163.000000	0.813259
1164.000000	0.813813
1165.000000	0.814347
1166.000000	0.815073
1167.000000	0.815655
1168.000000	0.816170
1169.000000	0.816991
1170.000000	0.817544
1171.000000	0.817908
1172.000000	0.818431
1173.000000	0.818950
1174.000000	0.819355
1175.000000	0.819655
1176.000000	0.819814
1177.000000	0.820077
1178.000000	0.820246
1179.000000	0.820268
1180.000000	0.820203
1181.000000	0.820262
1182.000000	0.820243
1183.000000	0.820477
1184.000000	0.820720
1185.000000	0.820869
1186.000000	0.821082
1187.000000	0.821130
1188.000000	0.821011
1189.000000	0.820937
1190.000000	0.820956
1191.000000	0.820961
1192.000000	0.821161
1193.000000	0.821547
1194.000000	0.821735
1195.000000	0.821946
1196.000000	0.822066
1197.000000	0.822238
1198.000000	0.822515
1199.000000	0.822718
1200.000000	0.822896
1201.000000	0.823059
1202.000000	0.823158
1203.000000	0.823206
1204.000000	0.823241
1205.000000	0.823475
1206.000000	0.823510
1207.000000	0.823704
1208.000000	0.823751
1209.000000	0.823840
1210.000000	0.823956
1211.000000	0.824110
1212.000000	0.824199
1213.000000	0.824351
1214.000000	0.824551
1215.000000	0.824729
1216.000000	0.824822
1217.000000	0.824844
1218.000000	0.824839
1219.000000	0.824783
1220.000000	0.824813
1221.000000	0.824968
1222.000000	0.825137
1223.000000	0.825335
1224.000000	0.825508
1225.000000	0.825507
1226.000000	0.825514
1227.000000	0.825382
1228.000000	0.825337
1229.000000	0.825262
1230.000000	0.825152
1231.000000	0.824986
1232.000000	0.825125
1233.000000	0.825347
1234.000000	0.825572
1235.000000	0.825643
1236.000000	0.825412
1237.000000	0.825502
1238.000000	0.825542
1239.000000	0.825524
1240.000000	0.825638
1241.000000	0.825703
1242.000000	0.825594
1243.000000	0.825498
1244.000000	0.825501
1245.000000	0.825696
1246.000000	0.825742
1247.000000	0.825943
1248.000000	0.826168
1249.000000	0.826267
1250.000000	0.826286
1251.000000	0.826221
1252.000000	0.826161
1253.000000	0.826111
1254.000000	0.826049
1255.000000	0.826001
1256.000000	0.825895
1257.000000	0.825782
1258.000000	0.825784
1259.000000	0.825641
1260.000000	0.825629
1261.000000	0.825598
1262.000000	0.825437
1263.000000	0.825266
1264.000000	0.825074
1265.000000	0.824833
1266.000000	0.824579
1267.000000	0.824119
1268.000000	0.823480
1269.000000	0.822764
1270.000000	0.822244
1271.000000	0.821753
1272.000000	0.821381
1273.000000	0.821126
1274.000000	0.820754
1275.000000	0.820485
1276.000000	0.820381
1277.000000	0.820447
1278.000000	0.820387
1279.000000	0.820339
1280.000000	0.820254
1281.000000	0.820122
1282.000000	0.820075
1283.000000	0.820207
1284.000000	0.820315
1285.000000	0.820319
1286.000000	0.820260
1287.000000	0.820172
1288.000000	0.820066
1289.000000	0.819648
1290.000000	0.819066
1291.000000	0.818451
1292.000000	0.817879
1293.000000	0.817432
1294.000000	0.816992
1295.000000	0.816695
1296.000000	0.816259
1297.000000	0.815756
1298.000000	0.815501
1299.000000	0.815204
1300.000000	0.815017
1301.000000	0.814706
1302.000000	0.814215
1303.000000	0.813863
1304.000000	0.813399
1305.000000	0.813063
1306.000000	0.812588
1307.000000	0.812166
1308.000000	0.811753
1309.000000	0.811299
1310.000000	0.810703
1311.000000	0.810164
1312.000000	0.809397
1313.000000	0.808488
1314.000000	0.807617
1315.000000	0.806841
1316.000000	0.806171
1317.000000	0.805344
1318.000000	0.804408
1319.000000	0.803246
1320.000000	0.802048
1321.000000	0.800850
1322.000000	0.799642
1323.000000	0.798587
1324.000000	0.797552
1325.000000	0.796205
1326.000000	0.794820
1327.000000	0.793521
1328.000000	0.792228
1329.000000	0.790761
1330.000000	0.789376
1331.000000	0.787922
1332.000000	0.786374
1333.000000	0.784904
1334.000000	0.783624
1335.000000	0.782402
1336.000000	0.781198
1337.000000	0.779965
1338.000000	0.778670
1339.000000	0.777345
1340.000000	0.776049
1341.000000	0.774728
1342.000000	0.773363
1343.000000	0.772066
1344.000000	0.770760
1345.000000	0.769460
1346.000000	0.768452
1347.000000	0.767228
1348.000000	0.766109
1349.000000	0.764912
1350.000000	0.763837
1351.000000	0.762830
1352.000000	0.761611
1353.000000	0.760411
1354.000000	0.759223
1355.000000	0.757801
1356.000000	0.756582
1357.000000	0.755267
1358.000000	0.753735
1359.000000	0.752154
1360.000000	0.750524
1361.000000	0.748948
1362.000000	0.747142
1363.000000	0.745264
1364.000000	0.743178
1365.000000	0.740859
1366.000000	0.738353
1367.000000	0.735665
1368.000000	0.732714
1369.000000	0.729683
1370.000000	0.725956
1371.000000	0.721772
1372.000000	0.717114
1373.000000	0.711691
1374.000000	0.705745
1375.000000	0.698892
1376.000000	0.690917
1377.000000	0.681688
1378.000000	0.670629
1379.000000	0.658096
1380.000000	0.644096
1381.000000	0.628280
1382.000000	0.611781
1383.000000	0.594668
1384.000000	0.576964
1385.000000	0.559997
1386.000000	0.544226
1387.000000	0.530266
1388.000000	0.518694
1389.000000	0.509714
1390.000000	0.503482
1391.000000	0.499655
1392.000000	0.498118
1393.000000	0.497950
1394.000000	0.500673
1395.000000	0.502702
1396.000000	0.506241
1397.000000	0.508344
1398.000000	0.510393
1399.000000	0.511337
1400.000000	0.511584
1401.000000	0.511006
1402.000000	0.509698
1403.000000	0.507706
1404.000000	0.505322
1405.000000	0.502518
1406.000000	0.499674
1407.000000	0.497092
1408.000000	0.494707
1409.000000	0.492772
1410.000000	0.491347
1411.000000	0.490204
1412.000000	0.489373
1413.000000	0.488972
1414.000000	0.488922
1415.000000	0.489173
1416.000000	0.489715
1417.000000	0.490568
1418.000000	0.491568
1419.000000	0.492934
1420.000000	0.494373
1421.000000	0.496045
1422.000000	0.497941
1423.000000	0.499928
1424.000000	0.501926
1425.000000	0.504003
1426.000000	0.505945
1427.000000	0.507992
1428.000000	0.510152
1429.000000	0.512217
1430.000000	0.514404
1431.000000	0.516580
1432.000000	0.518605
1433.000000	0.520615
1434.000000	0.522566
1435.000000	0.524569
1436.000000	0.526448
1437.000000	0.528284
1438.000000	0.529942
1439.000000	0.531515
1440.000000	0.533017
1441.000000	0.534464
1442.000000	0.535863
1443.000000	0.537099
1444.000000	0.538287
1445.000000	0.539351
1446.000000	0.540216
1447.000000	0.540975
1448.000000	0.541622
1449.000000	0.542217
1450.000000	0.542767
1451.000000	0.543200
1452.000000	0.543433
1453.000000	0.543540
1454.000000	0.543568
1455.000000	0.543675
1456.000000	0.543903
1457.000000	0.544126
1458.000000	0.544415
1459.000000	0.544739
1460.000000	0.545110
1461.000000	0.545567
1462.000000	0.546115
1463.000000	0.546680
1464.000000	0.547443
1465.000000	0.548603
1466.000000	0.549878
1467.000000	0.551290
1468.000000	0.552898
1469.000000	0.554589
1470.000000	0.556270
1471.000000	0.558176
1472.000000	0.560137
1473.000000	0.562250
1474.000000	0.564306
1475.000000	0.566340
1476.000000	0.568505
1477.000000	0.570588
1478.000000	0.572638
1479.000000	0.574678
1480.000000	0.576601
1481.000000	0.578534
1482.000000	0.580515
1483.000000	0.582547
1484.000000	0.584678
1485.000000	0.586658
1486.000000	0.588547
1487.000000	0.590464
1488.000000	0.592309
1489.000000	0.594209
1490.000000	0.595961
1491.000000	0.597772
1492.000000	0.599498
1493.000000	0.601283
1494.000000	0.603033
1495.000000	0.604718
1496.000000	0.606380
1497.000000	0.608036
1498.000000	0.609676
1499.000000	0.611305
1500.000000	0.612998
1501.000000	0.614584
1502.000000	0.616171
1503.000000	0.617845
1504.000000	0.619424
1505.000000	0.620998
1506.000000	0.622577
1507.000000	0.624056
1508.000000	0.625666
1509.000000	0.627332
1510.000000	0.628841
1511.000000	0.630355
1512.000000	0.631755
1513.000000	0.632995
1514.000000	0.634351
1515.000000	0.635677
1516.000000	0.637096
1517.000000	0.638530
1518.000000	0.639831
1519.000000	0.640973
1520.000000	0.642123
1521.000000	0.643182
1522.000000	0.644420
1523.000000	0.645842
1524.000000	0.647088
1525.000000	0.648378
1526.000000	0.649543
1527.000000	0.650669
1528.000000	0.651890
1529.000000	0.652943
1530.000000	0.653880
1531.000000	0.654967
1532.000000	0.656062
1533.000000	0.657146
1534.000000	0.658279
1535.000000	0.659382
1536.000000	0.660371
1537.000000	0.661479
1538.000000	0.662633
1539.000000	0.663718
1540.000000	0.664854
1541.000000	0.666048
1542.000000	0.667167
1543.000000	0.668249
1544.000000	0.669307
1545.000000	0.670402
1546.000000	0.671497
1547.000000	0.672531
1548.000000	0.673613
1549.000000	0.674617
1550.000000	0.675494
1551.000000	0.676447
1552.000000	0.677376
1553.000000	0.678172
1554.000000	0.679012
1555.000000	0.679907
1556.000000	0.680736
1557.000000	0.681540
1558.000000	0.682352
1559.000000	0.683048
1560.000000	0.683676
1561.000000	0.684339
1562.000000	0.684912
1563.000000	0.685431
1564.000000	0.686057
1565.000000	0.686706
1566.000000	0.687210
1567.000000	0.687941
1568.000000	0.688569
1569.000000	0.689231
1570.000000	0.689892
1571.000000	0.690521
1572.000000	0.691085
1573.000000	0.691644
1574.000000	0.692190
1575.000000	0.692736
1576.000000	0.693333
1577.000000	0.693918
1578.000000	0.694422
1579.000000	0.695046
1580.000000	0.695542
1581.000000	0.696076
1582.000000	0.696579
1583.000000	0.697019
1584.000000	0.697412
1585.000000	0.697943
1586.000000	0.698475
1587.000000	0.699005
1588.000000	0.699439
1589.000000	0.699889
1590.000000	0.700310
1591.000000	0.700656
1592.000000	0.701104
1593.000000	0.701664
1594.000000	0.702141
1595.000000	0.702767
1596.000000	0.703271
1597.000000	0.703767
1598.000000	0.704248
1599.000000	0.704732
1600.000000	0.705133
1601.000000	0.705691
1602.000000	0.706117
1603.000000	0.706514
1604.000000	0.706870
1605.000000	0.707235
1606.000000	0.707517
1607.000000	0.707861
1608.000000	0.708115
1609.000000	0.708387
1610.000000	0.708614
1611.000000	0.708806
1612.000000	0.709026
1613.000000	0.709478
1614.000000	0.709757
1615.000000	0.710137
1616.000000	0.710525
1617.000000	0.710743
1618.000000	0.710973
1619.000000	0.711151
1620.000000	0.711379
1621.000000	0.711660
1622.000000	0.712040
1623.000000	0.712445
1624.000000	0.712786
1625.000000	0.712831
1626.000000	0.712875
1627.000000	0.712898
1628.000000	0.713102
1629.000000	0.713315
1630.000000	0.713606
1631.000000	0.713908
1632.000000	0.714098
1633.000000	0.714279
1634.000000	0.714494
1635.000000	0.714782
1636.000000	0.715006
1637.000000	0.715275
1638.000000	0.715428
1639.000000	0.715659
1640.000000	0.715779
1641.000000	0.715926
1642.000000	0.716072
1643.000000	0.716259
1644.000000	0.716353
1645.000000	0.716412
1646.000000	0.716418
1647.000000	0.716398
1648.000000	0.716381
1649.000000	0.716575
1650.000000	0.716725
1651.000000	0.716926
1652.000000	0.717182
1653.000000	0.717367
1654.000000	0.717597
1655.000000	0.717742
1656.000000	0.717706
1657.000000	0.717745
1658.000000	0.717814
1659.000000	0.718091
1660.000000	0.718297
1661.000000	0.718329
1662.000000	0.718418
1663.000000	0.718349
1664.000000	0.718431
1665.000000	0.718663
1666.000000	0.718900
1667.000000	0.719018
1668.000000	0.719039
1669.000000	0.718909
1670.000000	0.718812
1671.000000	0.718870
1672.000000	0.719014
1673.000000	0.719199
1674.000000	0.719346
1675.000000	0.719527
1676.000000	0.719657
1677.000000	0.719628
1678.000000	0.719589
1679.000000	0.719584
1680.000000	0.719424
1681.000000	0.719394
1682.000000	0.719407
1683.000000	0.719372
1684.000000	0.719360
1685.000000	0.719323
1686.000000	0.719097
1687.000000	0.718906
1688.000000	0.718713
1689.000000	0.718493
1690.000000	0.718163
1691.000000	0.717973
1692.000000	0.717659
1693.000000	0.717312
1694.000000	0.717098
1695.000000	0.716977
1696.000000	0.716781
1697.000000	0.716491
1698.000000	0.716264
1699.000000	0.716084
1700.000000	0.715878
1701.000000	0.715885
1702.000000	0.715623
1703.000000	0.715325
1704.000000	0.715268
1705.000000	0.715140
1706.000000	0.714993
1707.000000	0.714944
1708.000000	0.714924
1709.000000	0.714724
1710.000000	0.714780
1711.000000	0.714687
1712.000000	0.714472
1713.000000	0.714235
1714.000000	0.714022
1715.000000	0.713805
1716.000000	0.713595
1717.000000	0.713326
1718.000000	0.712933
1719.000000	0.712576
1720.000000	0.712357
1721.000000	0.712013
1722.000000	0.711677
1723.000000	0.711284
1724.000000	0.710787
1725.000000	0.710428
1726.000000	0.709926
1727.000000	0.709491
1728.000000	0.709027
1729.000000	0.708384
1730.000000	0.707941
1731.000000	0.707473
1732.000000	0.707000
1733.000000	0.706569
1734.000000	0.705861
1735.000000	0.705295
1736.000000	0.704613
1737.000000	0.704075
1738.000000	0.703728
1739.000000	0.703285
1740.000000	0.702823
1741.000000	0.702264
1742.000000	0.701673
1743.000000	0.701223
1744.000000	0.700731
1745.000000	0.700159
1746.000000	0.699609
1747.000000	0.699029
1748.000000	0.698310
1749.000000	0.697655
1750.000000	0.696857
1751.000000	0.696119
1752.000000	0.695585
1753.000000	0.694746
1754.000000	0.694054
1755.000000	0.693468
1756.000000	0.692731
1757.000000	0.692016
1758.000000	0.691252
1759.000000	0.690238
1760.000000	0.689389
1761.000000	0.688524
1762.000000	0.687674
1763.000000	0.686932
1764.000000	0.686205
1765.000000	0.685417
1766.000000	0.684696
1767.000000	0.683797
1768.000000	0.683052
1769.000000	0.682599
1770.000000	0.682173
1771.000000	0.681849
1772.000000	0.681383
1773.000000	0.680670
1774.000000	0.680215
1775.000000	0.680004
1776.000000	0.679634
1777.000000	0.679277
1778.000000	0.678811
1779.000000	0.678115
1780.000000	0.677661
1781.000000	0.677235
1782.000000	0.676797
1783.000000	0.676536
1784.000000	0.676139
1785.000000	0.675601
1786.000000	0.675205
1787.000000	0.674997
1788.000000	0.674887
1789.000000	0.674708
1790.000000	0.674429
1791.000000	0.674069
1792.000000	0.673822
1793.000000	0.673514
1794.000000	0.673170
1795.000000	0.672942
1796.000000	0.672636
1797.000000	0.672441
1798.000000	0.672383
1799.000000	0.672292
1800.000000	0.672395
1801.000000	0.672903
1802.000000	0.672578
1803.000000	0.671590
1804.000000	0.671525
1805.000000	0.672592
1806.000000	0.672671
1807.000000	0.672632
1808.000000	0.672392
1809.000000	0.671724
1810.000000	0.670579
1811.000000	0.670505
1812.000000	0.670936
1813.000000	0.671210
1814.000000	0.672580
1815.000000	0.672685
1816.000000	0.671749
1817.000000	0.671171
1818.000000	0.670664
1819.000000	0.669975
1820.000000	0.669132
1821.000000	0.668704
1822.000000	0.668478
1823.000000	0.668273
1824.000000	0.667714
1825.000000	0.667486
1826.000000	0.666959
1827.000000	0.665779
1828.000000	0.664124
1829.000000	0.663352
1830.000000	0.662898
1831.000000	0.662180
1832.000000	0.661266
1833.000000	0.660900
1834.000000	0.660986
1835.000000	0.660497
1836.000000	0.660286
1837.000000	0.659628
1838.000000	0.658233
1839.000000	0.656432
1840.000000	0.654856
1841.000000	0.653150
1842.000000	0.651713
1843.000000	0.650325
1844.000000	0.648942
1845.000000	0.647476
1846.000000	0.646231
1847.000000	0.644778
1848.000000	0.643189
1849.000000	0.641869
1850.000000	0.640803
1851.000000	0.639492
1852.000000	0.638145
1853.000000	0.636314
1854.000000	0.634012
1855.000000	0.631236
1856.000000	0.627370
1857.000000	0.624447
1858.000000	0.621177
1859.000000	0.617512
1860.000000	0.614094
1861.000000	0.609859
1862.000000	0.605185
1863.000000	0.599904
1864.000000	0.594924
1865.000000	0.589973
1866.000000	0.584439
1867.000000	0.578769
1868.000000	0.572487
1869.000000	0.565734
1870.000000	0.558603
1871.000000	0.551149
1872.000000	0.543984
1873.000000	0.536042
1874.000000	0.527512
1875.000000	0.518473
1876.000000	0.508860
1877.000000	0.498101
1878.000000	0.486684
1879.000000	0.475314
1880.000000	0.463536
1881.000000	0.451904
1882.000000	0.440316
1883.000000	0.428598
1884.000000	0.416549
1885.000000	0.403787
1886.000000	0.390838
1887.000000	0.377469
1888.000000	0.363779
1889.000000	0.350148
1890.000000	0.337870
1891.000000	0.326125
1892.000000	0.314692
1893.000000	0.303512
1894.000000	0.292619
1895.000000	0.282349
1896.000000	0.272502
1897.000000	0.263364
1898.000000	0.255433
1899.000000	0.248617
1900.000000	0.242827
1901.000000	0.238008
1902.000000	0.233724
1903.000000	0.230525
1904.000000	0.228116
1905.000000	0.226277
1906.000000	0.225244
1907.000000	0.225224
1908.000000	0.225689
1909.000000	0.226565
1910.000000	0.228115
1911.000000	0.230092
1912.000000	0.232052
1913.000000	0.234287
1914.000000	0.236890
1915.000000	0.239246
1916.000000	0.242053
1917.000000	0.245006
1918.000000	0.248428
1919.000000	0.251504
1920.000000	0.254641
1921.000000	0.257602
1922.000000	0.259709
1923.000000	0.261958
1924.000000	0.264457
1925.000000	0.266646
1926.000000	0.269476
1927.000000	0.272342
1928.000000	0.274860
1929.000000	0.277231
1930.000000	0.279961
1931.000000	0.281914
1932.000000	0.283900
1933.000000	0.286118
1934.000000	0.287446
1935.000000	0.289096
1936.000000	0.290932
1937.000000	0.292459
1938.000000	0.293967
1939.000000	0.295418
1940.000000	0.296849
1941.000000	0.298000
1942.000000	0.299273
1943.000000	0.300764
1944.000000	0.301920
1945.000000	0.303208
1946.000000	0.304472
1947.000000	0.305441
1948.000000	0.306545
1949.000000	0.307608
1950.000000	0.308725
1951.000000	0.309733
1952.000000	0.310824
1953.000000	0.311881
1954.000000	0.313097
1955.000000	0.313990
1956.000000	0.314982
1957.000000	0.316378
1958.000000	0.317609
1959.000000	0.319177
1960.000000	0.320748
1961.000000	0.321922
1962.000000	0.323239
1963.000000	0.324674
1964.000000	0.325952
1965.000000	0.327133
1966.000000	0.328496
1967.000000	0.329700
1968.000000	0.331190
1969.000000	0.332688
1970.000000	0.334167
1971.000000	0.335890
1972.000000	0.337274
1973.000000	0.338661
1974.000000	0.340309
1975.000000	0.341854
1976.000000	0.343214
1977.000000	0.344979
1978.000000	0.346516
1979.000000	0.348128
1980.000000	0.350191
1981.000000	0.352018
1982.000000	0.354003
1983.000000	0.356012
1984.000000	0.357704
1985.000000	0.359062
1986.000000	0.360588
1987.000000	0.362044
1988.000000	0.363791
1989.000000	0.365363
1990.000000	0.367602
1991.000000	0.369712
1992.000000	0.371464
1993.000000	0.373816
1994.000000	0.375750
1995.000000	0.377355
1996.000000	0.379398
1997.000000	0.381457
1998.000000	0.383549
1999.000000	0.385721
2000.000000	0.388287
2001.000000	0.390412
2002.000000	0.392067
2003.000000	0.394349
2004.000000	0.396610
2005.000000	0.398381
2006.000000	0.400972
2007.000000	0.403061
2008.000000	0.405146
2009.000000	0.407217
2010.000000	0.409631
2011.000000	0.411957
2012.000000	0.414104
2013.000000	0.416493
2014.000000	0.417886
2015.000000	0.419379
2016.000000	0.421169
2017.000000	0.423173
2018.000000	0.425028
2019.000000	0.426643
2020.000000	0.427962
2021.000000	0.429464
2022.000000	0.430778
2023.000000	0.432341
2024.000000	0.434102
2025.000000	0.435989
2026.000000	0.437877
2027.000000	0.439428
2028.000000	0.441337
2029.000000	0.443302
2030.000000	0.445035
2031.000000	0.446968
2032.000000	0.448609
2033.000000	0.450268
2034.000000	0.451839
2035.000000	0.453475
2036.000000	0.454799
2037.000000	0.456189
2038.000000	0.457550
2039.000000	0.458824
2040.000000	0.460021
2041.000000	0.461984
2042.000000	0.463810
2043.000000	0.465350
2044.000000	0.467306
2045.000000	0.468446
2046.000000	0.469653
2047.000000	0.470860
2048.000000	0.471843
2049.000000	0.473181
2050.000000	0.474101
2051.000000	0.474977
2052.000000	0.475940
2053.000000	0.476713
2054.000000	0.477465
2055.000000	0.478599
2056.000000	0.479927
2057.000000	0.480953
2058.000000	0.481658
2059.000000	0.482528
2060.000000	0.483635
2061.000000	0.484722
2062.000000	0.485811
2063.000000	0.487520
2064.000000	0.488428
2065.000000	0.489355
2066.000000	0.490039
2067.000000	0.490768
2068.000000	0.491526
2069.000000	0.492360
2070.000000	0.493168
2071.000000	0.493980
2072.000000	0.495054
2073.000000	0.495807
2074.000000	0.496049
2075.000000	0.496431
2076.000000	0.496483
2077.000000	0.496785
2078.000000	0.497228
2079.000000	0.497697
2080.000000	0.498349
2081.000000	0.498945
2082.000000	0.499664
2083.000000	0.500156
2084.000000	0.500484
2085.000000	0.501160
2086.000000	0.501958
2087.000000	0.502506
2088.000000	0.502839
2089.000000	0.503044
2090.000000	0.503663
2091.000000	0.504356
2092.000000	0.505273
2093.000000	0.506902
2094.000000	0.508003
2095.000000	0.509129
2096.000000	0.509924
2097.000000	0.510276
2098.000000	0.510472
2099.000000	0.510861
2100.000000	0.511481
2101.000000	0.512207
2102.000000	0.513240
2103.000000	0.514193
2104.000000	0.514722
2105.000000	0.515640
2106.000000	0.516787
2107.000000	0.517852
2108.000000	0.519101
2109.000000	0.520143
2110.000000	0.520859
2111.000000	0.521554
2112.000000	0.522053
2113.000000	0.521955
2114.000000	0.522795
2115.000000	0.522582
2116.000000	0.522475
2117.000000	0.523039
2118.000000	0.523418
2119.000000	0.524026
2120.000000	0.524703
2121.000000	0.525738
2122.000000	0.526638
2123.000000	0.527609
2124.000000	0.528350
2125.000000	0.528954
2126.000000	0.529569
2127.000000	0.529877
2128.000000	0.530679
2129.000000	0.531568
2130.000000	0.532990
2131.000000	0.533575
2132.000000	0.533993
2133.000000	0.534837
2134.000000	0.535527
2135.000000	0.536571
2136.000000	0.537898
2137.000000	0.538591
2138.000000	0.538747
2139.000000	0.539185
2140.000000	0.539384
2141.000000	0.539766
2142.000000	0.540155
2143.000000	0.540383
2144.000000	0.541075
2145.000000	0.541581
2146.000000	0.542216
2147.000000	0.543195
2148.000000	0.543503
2149.000000	0.544198
2150.000000	0.544432
2151.000000	0.544653
2152.000000	0.544384
2153.000000	0.543332
2154.000000	0.543015
2155.000000	0.542656
2156.000000	0.542615
2157.000000	0.543362
2158.000000	0.543707
2159.000000	0.544023
2160.000000	0.544343
2161.000000	0.544718
2162.000000	0.545034
2163.000000	0.545252
2164.000000	0.545160
2165.000000	0.544966
2166.000000	0.544109
2167.000000	0.543813
2168.000000	0.543284
2169.000000	0.543042
2170.000000	0.543474
2171.000000	0.543579
2172.000000	0.543764
2173.000000	0.543724
2174.000000	0.543594
2175.000000	0.543452
2176.000000	0.543019
2177.000000	0.542919
2178.000000	0.543230
2179.000000	0.543480
2180.000000	0.543715
2181.000000	0.544199
2182.000000	0.544251
2183.000000	0.543346
2184.000000	0.541956
2185.000000	0.541583
2186.000000	0.540730
2187.000000	0.540424
2188.000000	0.541227
2189.000000	0.540721
2190.000000	0.540365
2191.000000	0.540895
2192.000000	0.540271
2193.000000	0.538964
2194.000000	0.537922
2195.000000	0.535915
2196.000000	0.535017
2197.000000	0.534797
2198.000000	0.534179
2199.000000	0.534490
2200.000000	0.534320
2201.000000	0.533508
2202.000000	0.533061
2203.000000	0.532855
2204.000000	0.531647
2205.000000	0.529424
2206.000000	0.527963
2207.000000	0.525357
2208.000000	0.522311
2209.000000	0.521386
2210.000000	0.521478
2211.000000	0.521111
2212.000000	0.521756
2213.000000	0.521532
2214.000000	0.520499
2215.000000	0.519638
2216.000000	0.518531
2217.000000	0.518248
2218.000000	0.518076
2219.000000	0.517793
2220.000000	0.518493
2221.000000	0.518286
2222.000000	0.517983
2223.000000	0.516846
2224.000000	0.514721
2225.000000	0.513482
2226.000000	0.510058
2227.000000	0.504819
2228.000000	0.503510
2229.000000	0.500176
2230.000000	0.498057
2231.000000	0.499054
2232.000000	0.497111
2233.000000	0.495456
2234.000000	0.494143
2235.000000	0.493034
2236.000000	0.491667
2237.000000	0.489742
2238.000000	0.488786
2239.000000	0.487530
2240.000000	0.487885
2241.000000	0.490315
2242.000000	0.491532
2243.000000	0.493399
2244.000000	0.494053
2245.000000	0.493952
2246.000000	0.493613
2247.000000	0.491581
2248.000000	0.491534
2249.000000	0.492698
2250.000000	0.492063
2251.000000	0.494408
2252.000000	0.495973
2253.000000	0.495631
2254.000000	0.494552
2255.000000	0.492939
2256.000000	0.491537
2257.000000	0.489650
2258.000000	0.489475
2259.000000	0.487255
2260.000000	0.484197
2261.000000	0.482421
2262.000000	0.480707
2263.000000	0.479139
2264.000000	0.478629
2265.000000	0.477847
2266.000000	0.477798
2267.000000	0.475753
2268.000000	0.472931
2269.000000	0.470076
2270.000000	0.465471
2271.000000	0.461418
2272.000000	0.457765
2273.000000	0.454436
2274.000000	0.451087
2275.000000	0.447554
2276.000000	0.445058
2277.000000	0.440899
2278.000000	0.435274
2279.000000	0.429482
2280.000000	0.422863
2281.000000	0.416500
2282.000000	0.411162
2283.000000	0.405649
2284.000000	0.399880
2285.000000	0.394222
2286.000000	0.388950
2287.000000	0.383473
2288.000000	0.379659
2289.000000	0.375958
2290.000000	0.370171
2291.000000	0.366421
2292.000000	0.363071
2293.000000	0.359299
2294.000000	0.356685
2295.000000	0.355190
2296.000000	0.353911
2297.000000	0.353936
2298.000000	0.352485
2299.000000	0.351579
2300.000000	0.349284
2301.000000	0.345723
2302.000000	0.341027
2303.000000	0.335336
2304.000000	0.329111
2305.000000	0.320809
2306.000000	0.313738
2307.000000	0.306261
2308.000000	0.300383
2309.000000	0.295302
2310.000000	0.290595
2311.000000	0.287622
2312.000000	0.285386
2313.000000	0.284163
2314.000000	0.285408
2315.000000	0.287681
2316.000000	0.290306
2317.000000	0.293817
2318.000000	0.297283
2319.000000	0.301715
2320.000000	0.306950
2321.000000	0.312223
2322.000000	0.318518
2323.000000	0.325892
2324.000000	0.333917
2325.000000	0.341258
2326.000000	0.347979
2327.000000	0.354254
2328.000000	0.359485
2329.000000	0.364046
2330.000000	0.367363
2331.000000	0.369591
2332.000000	0.371118
2333.000000	0.373467
2334.000000	0.376473
2335.000000	0.379385
2336.000000	0.382279
2337.000000	0.383770
2338.000000	0.384553
2339.000000	0.384993
2340.000000	0.384118
2341.000000	0.383198
2342.000000	0.381326
2343.000000	0.380613
2344.000000	0.379693
2345.000000	0.379868
2346.000000	0.382758
2347.000000	0.383650
2348.000000	0.384192
2349.000000	0.383621
2350.000000	0.382722
2351.000000	0.380031
2352.000000	0.376781
2353.000000	0.375318
2354.000000	0.373001
2355.000000	0.372779
2356.000000	0.373580
2357.000000	0.371878
2358.000000	0.370309
2359.000000	0.368276
2360.000000	0.367554
2361.000000	0.368452
2362.000000	0.367756
2363.000000	0.366791
2364.000000	0.363106
2365.000000	0.359450
2366.000000	0.357012
2367.000000	0.353194
2368.000000	0.352233
2369.000000	0.351127
2370.000000	0.347802
2371.000000	0.344405
2372.000000	0.340298
2373.000000	0.336199
2374.000000	0.330185
2375.000000	0.324291
2376.000000	0.320958
2377.000000	0.316141
2378.000000	0.314392
2379.000000	0.317409
2380.000000	0.318562
2381.000000	0.320750
2382.000000	0.321749
2383.000000	0.320172
2384.000000	0.318827
2385.000000	0.315016
2386.000000	0.309936
2387.000000	0.305494
2388.000000	0.301707
2389.000000	0.297794
2390.000000	0.295175
2391.000000	0.295656
2392.000000	0.296044
2393.000000	0.296146
2394.000000	0.300052
2395.000000	0.300391
2396.000000	0.301080
2397.000000	0.306149
2398.000000	0.306927
2399.000000	0.310782
2400.000000	0.309645
2401.000000	0.304410
2402.000000	0.304071
2403.000000	0.298821
2404.000000	0.302182
2405.000000	0.308186
2406.000000	0.305617
2407.000000	0.311320
2408.000000	0.314003
2409.000000	0.311706
2410.000000	0.313910
2411.000000	0.313046
2412.000000	0.312634
2413.000000	0.312008
2414.000000	0.311037
2415.000000	0.311011
2416.000000	0.303880
2417.000000	0.297992
2418.000000	0.300446
2419.000000	0.299068
2420.000000	0.301558
2421.000000	0.306111
2422.000000	0.301369
2423.000000	0.297171
2424.000000	0.291024
2425.000000	0.285175
2426.000000	0.281720
2427.000000	0.280964
2428.000000	0.281744
2429.000000	0.278420
2430.000000	0.278655
2431.000000	0.273648
2432.000000	0.263720
2433.000000	0.260691
2434.000000	0.258090
2435.000000	0.258587
2436.000000	0.262747
2437.000000	0.270458
2438.000000	0.278908
2439.000000	0.274188
2440.000000	0.268952
2441.000000	0.262165
2442.000000	0.248581
2443.000000	0.249108
2444.000000	0.253308
2445.000000	0.255477
2446.000000	0.258055
2447.000000	0.255378
2448.000000	0.260313
2449.000000	0.268165
2450.000000	0.278317
2451.000000	0.285491
2452.000000	0.284930
2453.000000	0.276095
2454.000000	0.255752
2455.000000	0.248465
2456.000000	0.243599
2457.000000	0.233890
2458.000000	0.238830
2459.000000	0.239822
2460.000000	0.238195
2461.000000	0.253722
2462.000000	0.263081
2463.000000	0.261713
2464.000000	0.261031
2465.000000	0.250845
2466.000000	0.234402
2467.000000	0.217413
2468.000000	0.203682
2469.000000	0.189969
2470.000000	0.183740
2471.000000	0.196758
2472.000000	0.207545
2473.000000	0.205532
2474.000000	0.199771
2475.000000	0.193688
2476.000000	0.180127
2477.000000	0.183588
2478.000000	0.208394
2479.000000	0.219005
2480.000000	0.219274
2481.000000	0.222834
2482.000000	0.218144
2483.000000	0.197270
2484.000000	0.184630
2485.000000	0.181418
2486.000000	0.161212
2487.000000	0.165644
2488.000000	0.194981
2489.000000	0.202975
2490.000000	0.211612
2491.000000	0.218804
2492.000000	0.203373
2493.000000	0.162945
2494.000000	0.155471
2495.000000	0.145291
2496.000000	0.144481
2497.000000	0.174031
2498.000000	0.199379
2499.000000	0.244277
2500.000000	0.253202
