# Wavelength	SM1200H-50-75_00001.asd.rts.txt
350.000000	0.621169
351.000000	0.610486
352.000000	0.606287
353.000000	0.601517
354.000000	0.597789
355.000000	0.596843
356.000000	0.599669
357.000000	0.606322
358.000000	0.606053
359.000000	0.603283
360.000000	0.602649
361.000000	0.606559
362.000000	0.609791
363.000000	0.614028
364.000000	0.618135
365.000000	0.618240
366.000000	0.615777
367.000000	0.613119
368.000000	0.615384
369.000000	0.619963
370.000000	0.623923
371.000000	0.624868
372.000000	0.626809
373.000000	0.629845
374.000000	0.634136
375.000000	0.636091
376.000000	0.637040
377.000000	0.637985
378.000000	0.640587
379.000000	0.642912
380.000000	0.644220
381.000000	0.646235
382.000000	0.646257
383.000000	0.646871
384.000000	0.649844
385.000000	0.650558
386.000000	0.651454
387.000000	0.653855
388.000000	0.657228
389.000000	0.658575
390.000000	0.659215
391.000000	0.661017
392.000000	0.662305
393.000000	0.663489
394.000000	0.664893
395.000000	0.665627
396.000000	0.666535
397.000000	0.667628
398.000000	0.668101
399.000000	0.668439
400.000000	0.669573
401.000000	0.672088
402.000000	0.672922
403.000000	0.673202
404.000000	0.674575
405.000000	0.675481
406.000000	0.676317
407.000000	0.677306
408.000000	0.677805
409.000000	0.678541
410.000000	0.679376
411.000000	0.679589
412.000000	0.680067
413.000000	0.680920
414.000000	0.682036
415.000000	0.682760
416.000000	0.683486
417.000000	0.684445
418.000000	0.685330
419.000000	0.686243
420.000000	0.687296
421.000000	0.688600
422.000000	0.689683
423.000000	0.690455
424.000000	0.691250
425.000000	0.692667
426.000000	0.694023
427.000000	0.694787
428.000000	0.695500
429.000000	0.696645
430.000000	0.698178
431.000000	0.699274
432.000000	0.700524
433.000000	0.701746
434.000000	0.702763
435.000000	0.703902
436.000000	0.705186
437.000000	0.706477
438.000000	0.707564
439.000000	0.708464
440.000000	0.709472
441.000000	0.710443
442.000000	0.711491
443.000000	0.712542
444.000000	0.713870
445.000000	0.714830
446.000000	0.715810
447.000000	0.716893
448.000000	0.717997
449.000000	0.719137
450.000000	0.720295
451.000000	0.721187
452.000000	0.722173
453.000000	0.723156
454.000000	0.724188
455.000000	0.725018
456.000000	0.725862
457.000000	0.726605
458.000000	0.727330
459.000000	0.728091
460.000000	0.728993
461.000000	0.729583
462.000000	0.730288
463.000000	0.730874
464.000000	0.731400
465.000000	0.731881
466.000000	0.732256
467.000000	0.732814
468.000000	0.733590
469.000000	0.734244
470.000000	0.734860
471.000000	0.735322
472.000000	0.735639
473.000000	0.735972
474.000000	0.736521
475.000000	0.736853
476.000000	0.737324
477.000000	0.738176
478.000000	0.738570
479.000000	0.739127
480.000000	0.739980
481.000000	0.740499
482.000000	0.741155
483.000000	0.741808
484.000000	0.742598
485.000000	0.743120
486.000000	0.743712
487.000000	0.744370
488.000000	0.745047
489.000000	0.745793
490.000000	0.746650
491.000000	0.747468
492.000000	0.748340
493.000000	0.749027
494.000000	0.749768
495.000000	0.750537
496.000000	0.751216
497.000000	0.752051
498.000000	0.752860
499.000000	0.753776
500.000000	0.754764
501.000000	0.755621
502.000000	0.756465
503.000000	0.757298
504.000000	0.758131
505.000000	0.758953
506.000000	0.759770
507.000000	0.760585
508.000000	0.761515
509.000000	0.762484
510.000000	0.763463
511.000000	0.764301
512.000000	0.765089
513.000000	0.765953
514.000000	0.766820
515.000000	0.767689
516.000000	0.768403
517.000000	0.769135
518.000000	0.770005
519.000000	0.770817
520.000000	0.771548
521.000000	0.772264
522.000000	0.773027
523.000000	0.773850
524.000000	0.774664
525.000000	0.775437
526.000000	0.776289
527.000000	0.777038
528.000000	0.777633
529.000000	0.778226
530.000000	0.778859
531.000000	0.779653
532.000000	0.780406
533.000000	0.781136
534.000000	0.781936
535.000000	0.782745
536.000000	0.783453
537.000000	0.784123
538.000000	0.784815
539.000000	0.785548
540.000000	0.786305
541.000000	0.786993
542.000000	0.787650
543.000000	0.788328
544.000000	0.789088
545.000000	0.789766
546.000000	0.790469
547.000000	0.791170
548.000000	0.791928
549.000000	0.792591
550.000000	0.793344
551.000000	0.794178
552.000000	0.794886
553.000000	0.795543
554.000000	0.796221
555.000000	0.796988
556.000000	0.797853
557.000000	0.798508
558.000000	0.799206
559.000000	0.799873
560.000000	0.800384
561.000000	0.801000
562.000000	0.801724
563.000000	0.802231
564.000000	0.802792
565.000000	0.803415
566.000000	0.804082
567.000000	0.804767
568.000000	0.805390
569.000000	0.805967
570.000000	0.806574
571.000000	0.807153
572.000000	0.807597
573.000000	0.808136
574.000000	0.808634
575.000000	0.809032
576.000000	0.809589
577.000000	0.810094
578.000000	0.810546
579.000000	0.811031
580.000000	0.811516
581.000000	0.811973
582.000000	0.812396
583.000000	0.812837
584.000000	0.813297
585.000000	0.813759
586.000000	0.814213
587.000000	0.814615
588.000000	0.814947
589.000000	0.815349
590.000000	0.815733
591.000000	0.816055
592.000000	0.816417
593.000000	0.816800
594.000000	0.817191
595.000000	0.817613
596.000000	0.817956
597.000000	0.818334
598.000000	0.818655
599.000000	0.818884
600.000000	0.819203
601.000000	0.819533
602.000000	0.819846
603.000000	0.820079
604.000000	0.820282
605.000000	0.820620
606.000000	0.820916
607.000000	0.821148
608.000000	0.821378
609.000000	0.821615
610.000000	0.821874
611.000000	0.822164
612.000000	0.822479
613.000000	0.822763
614.000000	0.823070
615.000000	0.823319
616.000000	0.823544
617.000000	0.823697
618.000000	0.823931
619.000000	0.824141
620.000000	0.824272
621.000000	0.824459
622.000000	0.824623
623.000000	0.824797
624.000000	0.824996
625.000000	0.825143
626.000000	0.825234
627.000000	0.825299
628.000000	0.825395
629.000000	0.825604
630.000000	0.825629
631.000000	0.825759
632.000000	0.825885
633.000000	0.826032
634.000000	0.826207
635.000000	0.826481
636.000000	0.826801
637.000000	0.827084
638.000000	0.827383
639.000000	0.827654
640.000000	0.827970
641.000000	0.828044
642.000000	0.828214
643.000000	0.828449
644.000000	0.828614
645.000000	0.828733
646.000000	0.828851
647.000000	0.828927
648.000000	0.828982
649.000000	0.829104
650.000000	0.829262
651.000000	0.829447
652.000000	0.829493
653.000000	0.829575
654.000000	0.829775
655.000000	0.829942
656.000000	0.830131
657.000000	0.830254
658.000000	0.830329
659.000000	0.830462
660.000000	0.830624
661.000000	0.830697
662.000000	0.830722
663.000000	0.830821
664.000000	0.830879
665.000000	0.830971
666.000000	0.831077
667.000000	0.831094
668.000000	0.831184
669.000000	0.831307
670.000000	0.831425
671.000000	0.831463
672.000000	0.831536
673.000000	0.831659
674.000000	0.831827
675.000000	0.831981
676.000000	0.832114
677.000000	0.832271
678.000000	0.832385
679.000000	0.832445
680.000000	0.832485
681.000000	0.832527
682.000000	0.832673
683.000000	0.832751
684.000000	0.832934
685.000000	0.833066
686.000000	0.833198
687.000000	0.833296
688.000000	0.833366
689.000000	0.833455
690.000000	0.833669
691.000000	0.833885
692.000000	0.834002
693.000000	0.834167
694.000000	0.834328
695.000000	0.834538
696.000000	0.834706
697.000000	0.834709
698.000000	0.834738
699.000000	0.834849
700.000000	0.835032
701.000000	0.835018
702.000000	0.835081
703.000000	0.835219
704.000000	0.835193
705.000000	0.835275
706.000000	0.835357
707.000000	0.835437
708.000000	0.835582
709.000000	0.835704
710.000000	0.835778
711.000000	0.835813
712.000000	0.835864
713.000000	0.835998
714.000000	0.836146
715.000000	0.836232
716.000000	0.836319
717.000000	0.836455
718.000000	0.836565
719.000000	0.836611
720.000000	0.836621
721.000000	0.836651
722.000000	0.836541
723.000000	0.836426
724.000000	0.836343
725.000000	0.836139
726.000000	0.836060
727.000000	0.836065
728.000000	0.836203
729.000000	0.836429
730.000000	0.836564
731.000000	0.836798
732.000000	0.836898
733.000000	0.836897
734.000000	0.836849
735.000000	0.836649
736.000000	0.836694
737.000000	0.836834
738.000000	0.836739
739.000000	0.836739
740.000000	0.836680
741.000000	0.836801
742.000000	0.836968
743.000000	0.837046
744.000000	0.837122
745.000000	0.837217
746.000000	0.837411
747.000000	0.837519
748.000000	0.837645
749.000000	0.837777
750.000000	0.837816
751.000000	0.837834
752.000000	0.837891
753.000000	0.838035
754.000000	0.838229
755.000000	0.838411
756.000000	0.838530
757.000000	0.838453
758.000000	0.838450
759.000000	0.838525
760.000000	0.838518
761.000000	0.838754
762.000000	0.838907
763.000000	0.838928
764.000000	0.839136
765.000000	0.839335
766.000000	0.839520
767.000000	0.839672
768.000000	0.839659
769.000000	0.839604
770.000000	0.839579
771.000000	0.839536
772.000000	0.839574
773.000000	0.839572
774.000000	0.839680
775.000000	0.839735
776.000000	0.839736
777.000000	0.839693
778.000000	0.839783
779.000000	0.839933
780.000000	0.840073
781.000000	0.840076
782.000000	0.840103
783.000000	0.840282
784.000000	0.840259
785.000000	0.840394
786.000000	0.840550
787.000000	0.840621
788.000000	0.840658
789.000000	0.840676
790.000000	0.840625
791.000000	0.840553
792.000000	0.840505
793.000000	0.840494
794.000000	0.840535
795.000000	0.840609
796.000000	0.840703
797.000000	0.840739
798.000000	0.840600
799.000000	0.840555
800.000000	0.840596
801.000000	0.840645
802.000000	0.840678
803.000000	0.840723
804.000000	0.840853
805.000000	0.840854
806.000000	0.840846
807.000000	0.841013
808.000000	0.841146
809.000000	0.841274
810.000000	0.841372
811.000000	0.841389
812.000000	0.841351
813.000000	0.841374
814.000000	0.841449
815.000000	0.841512
816.000000	0.841423
817.000000	0.841305
818.000000	0.841119
819.000000	0.841154
820.000000	0.841271
821.000000	0.841258
822.000000	0.841239
823.000000	0.841211
824.000000	0.841098
825.000000	0.841131
826.000000	0.841243
827.000000	0.841268
828.000000	0.841247
829.000000	0.841245
830.000000	0.841150
831.000000	0.841082
832.000000	0.840835
833.000000	0.840690
834.000000	0.840625
835.000000	0.840631
836.000000	0.840488
837.000000	0.840345
838.000000	0.840272
839.000000	0.840159
840.000000	0.840117
841.000000	0.840266
842.000000	0.840507
843.000000	0.840502
844.000000	0.840500
845.000000	0.840567
846.000000	0.840778
847.000000	0.840934
848.000000	0.840998
849.000000	0.841065
850.000000	0.841019
851.000000	0.840850
852.000000	0.840723
853.000000	0.840739
854.000000	0.840642
855.000000	0.840739
856.000000	0.840921
857.000000	0.840967
858.000000	0.841190
859.000000	0.841463
860.000000	0.841554
861.000000	0.841678
862.000000	0.841835
863.000000	0.841755
864.000000	0.841591
865.000000	0.841596
866.000000	0.841855
867.000000	0.841909
868.000000	0.841950
869.000000	0.841858
870.000000	0.841741
871.000000	0.841656
872.000000	0.841519
873.000000	0.841215
874.000000	0.841204
875.000000	0.841066
876.000000	0.841006
877.000000	0.841208
878.000000	0.841177
879.000000	0.841147
880.000000	0.840945
881.000000	0.840830
882.000000	0.840820
883.000000	0.840980
884.000000	0.841149
885.000000	0.841070
886.000000	0.840925
887.000000	0.840903
888.000000	0.840872
889.000000	0.840843
890.000000	0.840570
891.000000	0.840382
892.000000	0.840357
893.000000	0.840395
894.000000	0.840653
895.000000	0.840623
896.000000	0.840610
897.000000	0.840771
898.000000	0.841138
899.000000	0.841275
900.000000	0.841409
901.000000	0.841544
902.000000	0.841692
903.000000	0.841632
904.000000	0.841572
905.000000	0.841514
906.000000	0.841663
907.000000	0.841698
908.000000	0.841708
909.000000	0.841740
910.000000	0.841706
911.000000	0.841633
912.000000	0.841575
913.000000	0.841326
914.000000	0.841086
915.000000	0.841109
916.000000	0.841189
917.000000	0.841055
918.000000	0.841019
919.000000	0.841224
920.000000	0.841385
921.000000	0.841444
922.000000	0.841397
923.000000	0.841210
924.000000	0.840985
925.000000	0.840742
926.000000	0.840570
927.000000	0.840374
928.000000	0.840170
929.000000	0.839947
930.000000	0.839711
931.000000	0.839514
932.000000	0.839438
933.000000	0.839473
934.000000	0.839220
935.000000	0.838743
936.000000	0.838343
937.000000	0.837895
938.000000	0.837033
939.000000	0.836366
940.000000	0.835578
941.000000	0.834238
942.000000	0.832177
943.000000	0.829746
944.000000	0.826914
945.000000	0.823955
946.000000	0.821486
947.000000	0.820069
948.000000	0.819866
949.000000	0.820611
950.000000	0.822137
951.000000	0.824056
952.000000	0.826087
953.000000	0.827392
954.000000	0.827979
955.000000	0.827916
956.000000	0.827660
957.000000	0.827264
958.000000	0.826838
959.000000	0.826801
960.000000	0.826933
961.000000	0.827193
962.000000	0.827478
963.000000	0.827784
964.000000	0.828102
965.000000	0.828492
966.000000	0.828686
967.000000	0.828860
968.000000	0.829180
969.000000	0.829562
970.000000	0.830102
971.000000	0.830379
972.000000	0.830600
973.000000	0.830782
974.000000	0.831164
975.000000	0.831521
976.000000	0.831820
977.000000	0.832069
978.000000	0.832327
979.000000	0.832936
980.000000	0.833202
981.000000	0.833434
982.000000	0.833793
983.000000	0.834016
984.000000	0.834307
985.000000	0.834915
986.000000	0.835398
987.000000	0.835795
988.000000	0.835915
989.000000	0.836002
990.000000	0.836386
991.000000	0.836733
992.000000	0.836816
993.000000	0.837456
994.000000	0.837631
995.000000	0.837694
996.000000	0.837913
997.000000	0.838494
998.000000	0.838921
999.000000	0.839230
1000.000000	0.839666
1001.000000	0.839065
1002.000000	0.839491
1003.000000	0.839261
1004.000000	0.839211
1005.000000	0.838850
1006.000000	0.838493
1007.000000	0.838007
1008.000000	0.838354
1009.000000	0.838921
1010.000000	0.838774
1011.000000	0.839252
1012.000000	0.839869
1013.000000	0.839573
1014.000000	0.839497
1015.000000	0.839394
1016.000000	0.839661
1017.000000	0.840098
1018.000000	0.840756
1019.000000	0.841342
1020.000000	0.842465
1021.000000	0.842204
1022.000000	0.841841
1023.000000	0.842262
1024.000000	0.841972
1025.000000	0.842587
1026.000000	0.843425
1027.000000	0.843077
1028.000000	0.842606
1029.000000	0.842651
1030.000000	0.842562
1031.000000	0.842754
1032.000000	0.843250
1033.000000	0.843105
1034.000000	0.843279
1035.000000	0.843648
1036.000000	0.843901
1037.000000	0.844434
1038.000000	0.844340
1039.000000	0.844070
1040.000000	0.844059
1041.000000	0.843818
1042.000000	0.843494
1043.000000	0.844333
1044.000000	0.844925
1045.000000	0.844899
1046.000000	0.845201
1047.000000	0.845504
1048.000000	0.845295
1049.000000	0.845331
1050.000000	0.845877
1051.000000	0.845933
1052.000000	0.845323
1053.000000	0.845181
1054.000000	0.845785
1055.000000	0.846154
1056.000000	0.846737
1057.000000	0.847261
1058.000000	0.847095
1059.000000	0.846404
1060.000000	0.846388
1061.000000	0.846707
1062.000000	0.846777
1063.000000	0.847165
1064.000000	0.847486
1065.000000	0.847335
1066.000000	0.847514
1067.000000	0.848203
1068.000000	0.848224
1069.000000	0.847640
1070.000000	0.847434
1071.000000	0.847238
1072.000000	0.847101
1073.000000	0.847205
1074.000000	0.847641
1075.000000	0.847595
1076.000000	0.847303
1077.000000	0.847189
1078.000000	0.846839
1079.000000	0.846652
1080.000000	0.846666
1081.000000	0.846648
1082.000000	0.846987
1083.000000	0.846943
1084.000000	0.846855
1085.000000	0.846800
1086.000000	0.846256
1087.000000	0.846258
1088.000000	0.846466
1089.000000	0.846507
1090.000000	0.846664
1091.000000	0.846685
1092.000000	0.846413
1093.000000	0.846646
1094.000000	0.846336
1095.000000	0.845389
1096.000000	0.845417
1097.000000	0.845744
1098.000000	0.845813
1099.000000	0.846207
1100.000000	0.846528
1101.000000	0.846522
1102.000000	0.846344
1103.000000	0.845983
1104.000000	0.846057
1105.000000	0.846010
1106.000000	0.846011
1107.000000	0.846562
1108.000000	0.846648
1109.000000	0.846717
1110.000000	0.846233
1111.000000	0.845856
1112.000000	0.845298
1113.000000	0.845027
1114.000000	0.844680
1115.000000	0.844543
1116.000000	0.844820
1117.000000	0.844706
1118.000000	0.844411
1119.000000	0.844068
1120.000000	0.843559
1121.000000	0.843147
1122.000000	0.843019
1123.000000	0.843219
1124.000000	0.843095
1125.000000	0.842877
1126.000000	0.842448
1127.000000	0.841909
1128.000000	0.841246
1129.000000	0.840490
1130.000000	0.839779
1131.000000	0.839176
1132.000000	0.838200
1133.000000	0.837178
1134.000000	0.836178
1135.000000	0.834872
1136.000000	0.833614
1137.000000	0.832518
1138.000000	0.831039
1139.000000	0.829479
1140.000000	0.828159
1141.000000	0.826684
1142.000000	0.825192
1143.000000	0.823482
1144.000000	0.822238
1145.000000	0.820685
1146.000000	0.819009
1147.000000	0.817630
1148.000000	0.816157
1149.000000	0.815101
1150.000000	0.814258
1151.000000	0.813593
1152.000000	0.813018
1153.000000	0.812709
1154.000000	0.812409
1155.000000	0.812338
1156.000000	0.812666
1157.000000	0.812892
1158.000000	0.813001
1159.000000	0.813296
1160.000000	0.813635
1161.000000	0.814032
1162.000000	0.814677
1163.000000	0.815708
1164.000000	0.816340
1165.000000	0.816868
1166.000000	0.817565
1167.000000	0.818161
1168.000000	0.818623
1169.000000	0.819227
1170.000000	0.819770
1171.000000	0.820250
1172.000000	0.820796
1173.000000	0.821380
1174.000000	0.821799
1175.000000	0.822022
1176.000000	0.822206
1177.000000	0.822539
1178.000000	0.822749
1179.000000	0.822889
1180.000000	0.822842
1181.000000	0.822776
1182.000000	0.822769
1183.000000	0.823060
1184.000000	0.823321
1185.000000	0.823472
1186.000000	0.823734
1187.000000	0.823821
1188.000000	0.823680
1189.000000	0.823583
1190.000000	0.823644
1191.000000	0.823604
1192.000000	0.823653
1193.000000	0.823987
1194.000000	0.824178
1195.000000	0.824325
1196.000000	0.824353
1197.000000	0.824452
1198.000000	0.824529
1199.000000	0.824699
1200.000000	0.824914
1201.000000	0.825263
1202.000000	0.825513
1203.000000	0.825735
1204.000000	0.825827
1205.000000	0.825915
1206.000000	0.825955
1207.000000	0.826168
1208.000000	0.826195
1209.000000	0.826328
1210.000000	0.826434
1211.000000	0.826425
1212.000000	0.826509
1213.000000	0.826787
1214.000000	0.827007
1215.000000	0.827202
1216.000000	0.827339
1217.000000	0.827381
1218.000000	0.827356
1219.000000	0.827288
1220.000000	0.827322
1221.000000	0.827415
1222.000000	0.827503
1223.000000	0.827621
1224.000000	0.827817
1225.000000	0.827937
1226.000000	0.828015
1227.000000	0.827928
1228.000000	0.827907
1229.000000	0.827826
1230.000000	0.827570
1231.000000	0.827357
1232.000000	0.827522
1233.000000	0.827752
1234.000000	0.827944
1235.000000	0.828057
1236.000000	0.827957
1237.000000	0.828071
1238.000000	0.828131
1239.000000	0.828138
1240.000000	0.828230
1241.000000	0.828276
1242.000000	0.828112
1243.000000	0.827899
1244.000000	0.827910
1245.000000	0.828120
1246.000000	0.828210
1247.000000	0.828517
1248.000000	0.828811
1249.000000	0.828874
1250.000000	0.828916
1251.000000	0.829056
1252.000000	0.829061
1253.000000	0.829005
1254.000000	0.828951
1255.000000	0.828888
1256.000000	0.828770
1257.000000	0.828667
1258.000000	0.828630
1259.000000	0.828451
1260.000000	0.828333
1261.000000	0.828065
1262.000000	0.827817
1263.000000	0.827662
1264.000000	0.827319
1265.000000	0.827009
1266.000000	0.826710
1267.000000	0.826243
1268.000000	0.825587
1269.000000	0.824850
1270.000000	0.824384
1271.000000	0.823779
1272.000000	0.823389
1273.000000	0.823265
1274.000000	0.822871
1275.000000	0.822573
1276.000000	0.822425
1277.000000	0.822454
1278.000000	0.822301
1279.000000	0.822248
1280.000000	0.822190
1281.000000	0.822080
1282.000000	0.822131
1283.000000	0.822247
1284.000000	0.822278
1285.000000	0.822267
1286.000000	0.822169
1287.000000	0.821997
1288.000000	0.821920
1289.000000	0.821622
1290.000000	0.821094
1291.000000	0.820500
1292.000000	0.819831
1293.000000	0.819239
1294.000000	0.818717
1295.000000	0.818290
1296.000000	0.817856
1297.000000	0.817396
1298.000000	0.817084
1299.000000	0.816762
1300.000000	0.816555
1301.000000	0.816286
1302.000000	0.815816
1303.000000	0.815538
1304.000000	0.815083
1305.000000	0.814705
1306.000000	0.814182
1307.000000	0.813716
1308.000000	0.813239
1309.000000	0.812621
1310.000000	0.812038
1311.000000	0.811616
1312.000000	0.810886
1313.000000	0.810135
1314.000000	0.809330
1315.000000	0.808405
1316.000000	0.807684
1317.000000	0.806849
1318.000000	0.805911
1319.000000	0.804767
1320.000000	0.803564
1321.000000	0.802354
1322.000000	0.801103
1323.000000	0.800078
1324.000000	0.799040
1325.000000	0.797625
1326.000000	0.796160
1327.000000	0.794643
1328.000000	0.793238
1329.000000	0.791728
1330.000000	0.790337
1331.000000	0.788898
1332.000000	0.787482
1333.000000	0.786046
1334.000000	0.784780
1335.000000	0.783566
1336.000000	0.782360
1337.000000	0.781097
1338.000000	0.779723
1339.000000	0.778375
1340.000000	0.777010
1341.000000	0.775576
1342.000000	0.774234
1343.000000	0.772964
1344.000000	0.771695
1345.000000	0.770487
1346.000000	0.769479
1347.000000	0.768183
1348.000000	0.767077
1349.000000	0.765989
1350.000000	0.764861
1351.000000	0.763812
1352.000000	0.762688
1353.000000	0.761425
1354.000000	0.760285
1355.000000	0.759013
1356.000000	0.757722
1357.000000	0.756370
1358.000000	0.754919
1359.000000	0.753436
1360.000000	0.751801
1361.000000	0.750160
1362.000000	0.748294
1363.000000	0.746245
1364.000000	0.744112
1365.000000	0.741888
1366.000000	0.739342
1367.000000	0.736603
1368.000000	0.733546
1369.000000	0.730348
1370.000000	0.726570
1371.000000	0.722409
1372.000000	0.717754
1373.000000	0.712375
1374.000000	0.706383
1375.000000	0.699384
1376.000000	0.691335
1377.000000	0.682008
1378.000000	0.670863
1379.000000	0.658450
1380.000000	0.644554
1381.000000	0.628664
1382.000000	0.612194
1383.000000	0.595026
1384.000000	0.577084
1385.000000	0.560031
1386.000000	0.544158
1387.000000	0.530107
1388.000000	0.518551
1389.000000	0.509599
1390.000000	0.503431
1391.000000	0.499596
1392.000000	0.498015
1393.000000	0.497888
1394.000000	0.500672
1395.000000	0.502776
1396.000000	0.506482
1397.000000	0.508708
1398.000000	0.510858
1399.000000	0.511905
1400.000000	0.512301
1401.000000	0.511741
1402.000000	0.510392
1403.000000	0.508322
1404.000000	0.505850
1405.000000	0.503053
1406.000000	0.500370
1407.000000	0.497873
1408.000000	0.495396
1409.000000	0.493423
1410.000000	0.491934
1411.000000	0.490711
1412.000000	0.489926
1413.000000	0.489562
1414.000000	0.489516
1415.000000	0.489820
1416.000000	0.490433
1417.000000	0.491333
1418.000000	0.492378
1419.000000	0.493805
1420.000000	0.495321
1421.000000	0.497076
1422.000000	0.499071
1423.000000	0.501121
1424.000000	0.503143
1425.000000	0.505272
1426.000000	0.507317
1427.000000	0.509495
1428.000000	0.511754
1429.000000	0.513899
1430.000000	0.516066
1431.000000	0.518135
1432.000000	0.520092
1433.000000	0.521997
1434.000000	0.523915
1435.000000	0.525914
1436.000000	0.527809
1437.000000	0.529740
1438.000000	0.531426
1439.000000	0.533006
1440.000000	0.534557
1441.000000	0.536039
1442.000000	0.537445
1443.000000	0.538699
1444.000000	0.539915
1445.000000	0.540958
1446.000000	0.541874
1447.000000	0.542756
1448.000000	0.543513
1449.000000	0.544169
1450.000000	0.544735
1451.000000	0.545203
1452.000000	0.545466
1453.000000	0.545575
1454.000000	0.545636
1455.000000	0.545689
1456.000000	0.545831
1457.000000	0.546084
1458.000000	0.546347
1459.000000	0.546640
1460.000000	0.547027
1461.000000	0.547422
1462.000000	0.547966
1463.000000	0.548601
1464.000000	0.549348
1465.000000	0.550397
1466.000000	0.551514
1467.000000	0.552839
1468.000000	0.554459
1469.000000	0.556143
1470.000000	0.557824
1471.000000	0.559706
1472.000000	0.561582
1473.000000	0.563663
1474.000000	0.565794
1475.000000	0.567934
1476.000000	0.570143
1477.000000	0.572285
1478.000000	0.574406
1479.000000	0.576559
1480.000000	0.578658
1481.000000	0.580708
1482.000000	0.582861
1483.000000	0.584972
1484.000000	0.587026
1485.000000	0.589054
1486.000000	0.591036
1487.000000	0.592981
1488.000000	0.594906
1489.000000	0.596827
1490.000000	0.598511
1491.000000	0.600316
1492.000000	0.602054
1493.000000	0.603819
1494.000000	0.605514
1495.000000	0.607184
1496.000000	0.608837
1497.000000	0.610522
1498.000000	0.612245
1499.000000	0.613948
1500.000000	0.615703
1501.000000	0.617352
1502.000000	0.618929
1503.000000	0.620587
1504.000000	0.622157
1505.000000	0.623657
1506.000000	0.625233
1507.000000	0.626704
1508.000000	0.628225
1509.000000	0.629743
1510.000000	0.631031
1511.000000	0.632370
1512.000000	0.633716
1513.000000	0.635009
1514.000000	0.636444
1515.000000	0.637810
1516.000000	0.639146
1517.000000	0.640415
1518.000000	0.641597
1519.000000	0.642716
1520.000000	0.643904
1521.000000	0.645009
1522.000000	0.646305
1523.000000	0.647695
1524.000000	0.648856
1525.000000	0.650088
1526.000000	0.651200
1527.000000	0.652272
1528.000000	0.653460
1529.000000	0.654562
1530.000000	0.655523
1531.000000	0.656606
1532.000000	0.657716
1533.000000	0.658785
1534.000000	0.659916
1535.000000	0.661012
1536.000000	0.661988
1537.000000	0.663053
1538.000000	0.664094
1539.000000	0.665065
1540.000000	0.666103
1541.000000	0.667217
1542.000000	0.668287
1543.000000	0.669352
1544.000000	0.670400
1545.000000	0.671488
1546.000000	0.672603
1547.000000	0.673664
1548.000000	0.674693
1549.000000	0.675597
1550.000000	0.676501
1551.000000	0.677501
1552.000000	0.678491
1553.000000	0.679442
1554.000000	0.680307
1555.000000	0.681153
1556.000000	0.682003
1557.000000	0.682774
1558.000000	0.683598
1559.000000	0.684345
1560.000000	0.685022
1561.000000	0.685755
1562.000000	0.686331
1563.000000	0.686864
1564.000000	0.687444
1565.000000	0.687969
1566.000000	0.688408
1567.000000	0.689034
1568.000000	0.689586
1569.000000	0.690201
1570.000000	0.690808
1571.000000	0.691413
1572.000000	0.691960
1573.000000	0.692462
1574.000000	0.693000
1575.000000	0.693618
1576.000000	0.694205
1577.000000	0.694760
1578.000000	0.695264
1579.000000	0.695830
1580.000000	0.696336
1581.000000	0.696960
1582.000000	0.697521
1583.000000	0.698018
1584.000000	0.698431
1585.000000	0.698975
1586.000000	0.699522
1587.000000	0.700042
1588.000000	0.700521
1589.000000	0.701011
1590.000000	0.701489
1591.000000	0.701915
1592.000000	0.702457
1593.000000	0.703198
1594.000000	0.703745
1595.000000	0.704396
1596.000000	0.704921
1597.000000	0.705349
1598.000000	0.705784
1599.000000	0.706263
1600.000000	0.706606
1601.000000	0.707048
1602.000000	0.707428
1603.000000	0.707777
1604.000000	0.708095
1605.000000	0.708465
1606.000000	0.708731
1607.000000	0.709030
1608.000000	0.709303
1609.000000	0.709653
1610.000000	0.709887
1611.000000	0.710109
1612.000000	0.710286
1613.000000	0.710622
1614.000000	0.710811
1615.000000	0.711043
1616.000000	0.711353
1617.000000	0.711513
1618.000000	0.711711
1619.000000	0.711947
1620.000000	0.712159
1621.000000	0.712387
1622.000000	0.712735
1623.000000	0.713076
1624.000000	0.713355
1625.000000	0.713354
1626.000000	0.713381
1627.000000	0.713385
1628.000000	0.713557
1629.000000	0.713751
1630.000000	0.714031
1631.000000	0.714293
1632.000000	0.714480
1633.000000	0.714693
1634.000000	0.714938
1635.000000	0.715285
1636.000000	0.715530
1637.000000	0.715829
1638.000000	0.715999
1639.000000	0.716189
1640.000000	0.716285
1641.000000	0.716426
1642.000000	0.716559
1643.000000	0.716691
1644.000000	0.716841
1645.000000	0.717027
1646.000000	0.717108
1647.000000	0.717232
1648.000000	0.717278
1649.000000	0.717460
1650.000000	0.717625
1651.000000	0.717831
1652.000000	0.718086
1653.000000	0.718270
1654.000000	0.718468
1655.000000	0.718556
1656.000000	0.718484
1657.000000	0.718480
1658.000000	0.718480
1659.000000	0.718680
1660.000000	0.718847
1661.000000	0.718820
1662.000000	0.718870
1663.000000	0.718826
1664.000000	0.718876
1665.000000	0.718998
1666.000000	0.719249
1667.000000	0.719387
1668.000000	0.719522
1669.000000	0.719689
1670.000000	0.719658
1671.000000	0.719759
1672.000000	0.719915
1673.000000	0.719924
1674.000000	0.720118
1675.000000	0.720361
1676.000000	0.720382
1677.000000	0.720258
1678.000000	0.719986
1679.000000	0.719703
1680.000000	0.719472
1681.000000	0.719448
1682.000000	0.719524
1683.000000	0.719592
1684.000000	0.719611
1685.000000	0.719659
1686.000000	0.719579
1687.000000	0.719497
1688.000000	0.719426
1689.000000	0.719288
1690.000000	0.718996
1691.000000	0.718889
1692.000000	0.718717
1693.000000	0.718437
1694.000000	0.718165
1695.000000	0.717986
1696.000000	0.717643
1697.000000	0.717245
1698.000000	0.716964
1699.000000	0.716738
1700.000000	0.716485
1701.000000	0.716449
1702.000000	0.716172
1703.000000	0.715843
1704.000000	0.715759
1705.000000	0.715569
1706.000000	0.715367
1707.000000	0.715218
1708.000000	0.714987
1709.000000	0.714685
1710.000000	0.714642
1711.000000	0.714523
1712.000000	0.714419
1713.000000	0.714223
1714.000000	0.714063
1715.000000	0.713871
1716.000000	0.713669
1717.000000	0.713385
1718.000000	0.712903
1719.000000	0.712567
1720.000000	0.712407
1721.000000	0.712098
1722.000000	0.711840
1723.000000	0.711546
1724.000000	0.711149
1725.000000	0.710880
1726.000000	0.710514
1727.000000	0.710185
1728.000000	0.709775
1729.000000	0.709195
1730.000000	0.708887
1731.000000	0.708406
1732.000000	0.707758
1733.000000	0.707339
1734.000000	0.706660
1735.000000	0.706119
1736.000000	0.705629
1737.000000	0.705053
1738.000000	0.704476
1739.000000	0.703985
1740.000000	0.703483
1741.000000	0.702887
1742.000000	0.702348
1743.000000	0.701868
1744.000000	0.701291
1745.000000	0.700637
1746.000000	0.700018
1747.000000	0.699227
1748.000000	0.698417
1749.000000	0.697717
1750.000000	0.696932
1751.000000	0.696424
1752.000000	0.695958
1753.000000	0.695166
1754.000000	0.694431
1755.000000	0.693536
1756.000000	0.692691
1757.000000	0.691881
1758.000000	0.691141
1759.000000	0.690452
1760.000000	0.689696
1761.000000	0.688859
1762.000000	0.688018
1763.000000	0.687096
1764.000000	0.686332
1765.000000	0.685577
1766.000000	0.684909
1767.000000	0.684186
1768.000000	0.683467
1769.000000	0.683004
1770.000000	0.682539
1771.000000	0.682031
1772.000000	0.681492
1773.000000	0.680737
1774.000000	0.680280
1775.000000	0.680130
1776.000000	0.679771
1777.000000	0.679449
1778.000000	0.678987
1779.000000	0.678226
1780.000000	0.677813
1781.000000	0.677474
1782.000000	0.677113
1783.000000	0.676987
1784.000000	0.676658
1785.000000	0.676198
1786.000000	0.675828
1787.000000	0.675619
1788.000000	0.675494
1789.000000	0.675192
1790.000000	0.674995
1791.000000	0.674588
1792.000000	0.674136
1793.000000	0.673826
1794.000000	0.673545
1795.000000	0.673315
1796.000000	0.673238
1797.000000	0.673050
1798.000000	0.672708
1799.000000	0.672465
1800.000000	0.672362
1801.000000	0.672929
1802.000000	0.672592
1803.000000	0.672014
1804.000000	0.671922
1805.000000	0.672283
1806.000000	0.672330
1807.000000	0.672447
1808.000000	0.672482
1809.000000	0.672285
1810.000000	0.672189
1811.000000	0.672139
1812.000000	0.672131
1813.000000	0.672174
1814.000000	0.672572
1815.000000	0.672455
1816.000000	0.672414
1817.000000	0.671673
1818.000000	0.670072
1819.000000	0.669266
1820.000000	0.668487
1821.000000	0.667808
1822.000000	0.667577
1823.000000	0.668344
1824.000000	0.667743
1825.000000	0.666429
1826.000000	0.665630
1827.000000	0.664060
1828.000000	0.662697
1829.000000	0.662715
1830.000000	0.663011
1831.000000	0.662629
1832.000000	0.662174
1833.000000	0.661789
1834.000000	0.661099
1835.000000	0.660439
1836.000000	0.660040
1837.000000	0.659427
1838.000000	0.658368
1839.000000	0.656896
1840.000000	0.655912
1841.000000	0.654542
1842.000000	0.653163
1843.000000	0.651414
1844.000000	0.650085
1845.000000	0.648570
1846.000000	0.647379
1847.000000	0.646277
1848.000000	0.645328
1849.000000	0.643644
1850.000000	0.641576
1851.000000	0.639552
1852.000000	0.636764
1853.000000	0.634458
1854.000000	0.632235
1855.000000	0.629524
1856.000000	0.626235
1857.000000	0.623455
1858.000000	0.620291
1859.000000	0.616899
1860.000000	0.613655
1861.000000	0.609599
1862.000000	0.605206
1863.000000	0.600408
1864.000000	0.595763
1865.000000	0.591229
1866.000000	0.585783
1867.000000	0.580170
1868.000000	0.573457
1869.000000	0.566052
1870.000000	0.558682
1871.000000	0.550889
1872.000000	0.543243
1873.000000	0.535069
1874.000000	0.526626
1875.000000	0.517350
1876.000000	0.507398
1877.000000	0.496309
1878.000000	0.485100
1879.000000	0.473771
1880.000000	0.462316
1881.000000	0.451283
1882.000000	0.439584
1883.000000	0.427192
1884.000000	0.414820
1885.000000	0.401582
1886.000000	0.388664
1887.000000	0.375487
1888.000000	0.362499
1889.000000	0.349653
1890.000000	0.337314
1891.000000	0.325550
1892.000000	0.313873
1893.000000	0.302535
1894.000000	0.291555
1895.000000	0.281246
1896.000000	0.271329
1897.000000	0.262511
1898.000000	0.254259
1899.000000	0.247751
1900.000000	0.242591
1901.000000	0.237630
1902.000000	0.234001
1903.000000	0.230725
1904.000000	0.227889
1905.000000	0.226347
1906.000000	0.225264
1907.000000	0.224868
1908.000000	0.225492
1909.000000	0.226703
1910.000000	0.228140
1911.000000	0.230027
1912.000000	0.231958
1913.000000	0.234395
1914.000000	0.236804
1915.000000	0.239116
1916.000000	0.242036
1917.000000	0.244894
1918.000000	0.247873
1919.000000	0.250871
1920.000000	0.253941
1921.000000	0.256984
1922.000000	0.259893
1923.000000	0.262878
1924.000000	0.266054
1925.000000	0.268931
1926.000000	0.271222
1927.000000	0.273355
1928.000000	0.275699
1929.000000	0.277959
1930.000000	0.280537
1931.000000	0.283036
1932.000000	0.285368
1933.000000	0.287407
1934.000000	0.288964
1935.000000	0.290836
1936.000000	0.292535
1937.000000	0.294021
1938.000000	0.295457
1939.000000	0.296828
1940.000000	0.298016
1941.000000	0.299336
1942.000000	0.300612
1943.000000	0.301590
1944.000000	0.302623
1945.000000	0.303909
1946.000000	0.305162
1947.000000	0.306706
1948.000000	0.307653
1949.000000	0.308541
1950.000000	0.309975
1951.000000	0.311065
1952.000000	0.312006
1953.000000	0.313429
1954.000000	0.314685
1955.000000	0.315598
1956.000000	0.316956
1957.000000	0.318095
1958.000000	0.319275
1959.000000	0.320603
1960.000000	0.321388
1961.000000	0.322188
1962.000000	0.323248
1963.000000	0.324478
1964.000000	0.325640
1965.000000	0.327233
1966.000000	0.328804
1967.000000	0.330073
1968.000000	0.331735
1969.000000	0.333382
1970.000000	0.335057
1971.000000	0.336729
1972.000000	0.338267
1973.000000	0.339740
1974.000000	0.341047
1975.000000	0.342649
1976.000000	0.344454
1977.000000	0.346472
1978.000000	0.348136
1979.000000	0.349807
1980.000000	0.352051
1981.000000	0.353806
1982.000000	0.355319
1983.000000	0.357407
1984.000000	0.359197
1985.000000	0.360564
1986.000000	0.362384
1987.000000	0.364578
1988.000000	0.366764
1989.000000	0.368759
1990.000000	0.370479
1991.000000	0.372023
1992.000000	0.373155
1993.000000	0.374761
1994.000000	0.376858
1995.000000	0.378976
1996.000000	0.381633
1997.000000	0.383908
1998.000000	0.386137
1999.000000	0.388288
2000.000000	0.390443
2001.000000	0.392200
2002.000000	0.393882
2003.000000	0.395908
2004.000000	0.398010
2005.000000	0.399980
2006.000000	0.402176
2007.000000	0.404518
2008.000000	0.406805
2009.000000	0.409030
2010.000000	0.411178
2011.000000	0.413112
2012.000000	0.415139
2013.000000	0.416931
2014.000000	0.418809
2015.000000	0.420973
2016.000000	0.422933
2017.000000	0.424600
2018.000000	0.425951
2019.000000	0.427331
2020.000000	0.428905
2021.000000	0.430491
2022.000000	0.432170
2023.000000	0.433807
2024.000000	0.435533
2025.000000	0.437160
2026.000000	0.438403
2027.000000	0.439992
2028.000000	0.441592
2029.000000	0.443163
2030.000000	0.445035
2031.000000	0.446551
2032.000000	0.448290
2033.000000	0.450375
2034.000000	0.452130
2035.000000	0.454089
2036.000000	0.455721
2037.000000	0.457281
2038.000000	0.458815
2039.000000	0.460304
2040.000000	0.461924
2041.000000	0.463700
2042.000000	0.465434
2043.000000	0.466985
2044.000000	0.468585
2045.000000	0.469721
2046.000000	0.470444
2047.000000	0.471406
2048.000000	0.472049
2049.000000	0.473278
2050.000000	0.474308
2051.000000	0.475387
2052.000000	0.476684
2053.000000	0.477708
2054.000000	0.478884
2055.000000	0.480114
2056.000000	0.481359
2057.000000	0.483031
2058.000000	0.484781
2059.000000	0.486100
2060.000000	0.487193
2061.000000	0.488021
2062.000000	0.488674
2063.000000	0.488979
2064.000000	0.489366
2065.000000	0.490076
2066.000000	0.490619
2067.000000	0.491397
2068.000000	0.492526
2069.000000	0.493462
2070.000000	0.494434
2071.000000	0.495354
2072.000000	0.496294
2073.000000	0.496857
2074.000000	0.497145
2075.000000	0.497455
2076.000000	0.497075
2077.000000	0.497498
2078.000000	0.498465
2079.000000	0.499124
2080.000000	0.500342
2081.000000	0.501136
2082.000000	0.501711
2083.000000	0.501979
2084.000000	0.502051
2085.000000	0.502171
2086.000000	0.502771
2087.000000	0.503519
2088.000000	0.504264
2089.000000	0.505316
2090.000000	0.506241
2091.000000	0.507082
2092.000000	0.507983
2093.000000	0.509248
2094.000000	0.509979
2095.000000	0.510414
2096.000000	0.510962
2097.000000	0.511208
2098.000000	0.511365
2099.000000	0.511926
2100.000000	0.512356
2101.000000	0.512798
2102.000000	0.513420
2103.000000	0.514019
2104.000000	0.515083
2105.000000	0.516144
2106.000000	0.517594
2107.000000	0.518792
2108.000000	0.519900
2109.000000	0.520982
2110.000000	0.521754
2111.000000	0.522403
2112.000000	0.522993
2113.000000	0.522944
2114.000000	0.522913
2115.000000	0.523135
2116.000000	0.523479
2117.000000	0.523776
2118.000000	0.523708
2119.000000	0.523649
2120.000000	0.524087
2121.000000	0.524649
2122.000000	0.525332
2123.000000	0.526481
2124.000000	0.527459
2125.000000	0.528194
2126.000000	0.529150
2127.000000	0.530742
2128.000000	0.532033
2129.000000	0.533014
2130.000000	0.534228
2131.000000	0.534526
2132.000000	0.534494
2133.000000	0.535000
2134.000000	0.535613
2135.000000	0.536630
2136.000000	0.537734
2137.000000	0.538473
2138.000000	0.539118
2139.000000	0.539315
2140.000000	0.538856
2141.000000	0.539003
2142.000000	0.538813
2143.000000	0.538874
2144.000000	0.539944
2145.000000	0.540803
2146.000000	0.541865
2147.000000	0.543292
2148.000000	0.544107
2149.000000	0.545082
2150.000000	0.545566
2151.000000	0.545701
2152.000000	0.545708
2153.000000	0.545039
2154.000000	0.544981
2155.000000	0.545070
2156.000000	0.545052
2157.000000	0.545405
2158.000000	0.545655
2159.000000	0.545808
2160.000000	0.546201
2161.000000	0.546834
2162.000000	0.547430
2163.000000	0.548290
2164.000000	0.548084
2165.000000	0.547364
2166.000000	0.546243
2167.000000	0.544931
2168.000000	0.544139
2169.000000	0.544111
2170.000000	0.544298
2171.000000	0.544398
2172.000000	0.544682
2173.000000	0.544855
2174.000000	0.545119
2175.000000	0.545323
2176.000000	0.545453
2177.000000	0.545563
2178.000000	0.546089
2179.000000	0.546011
2180.000000	0.545396
2181.000000	0.545294
2182.000000	0.544250
2183.000000	0.542474
2184.000000	0.541803
2185.000000	0.541156
2186.000000	0.540359
2187.000000	0.540986
2188.000000	0.542174
2189.000000	0.542309
2190.000000	0.542016
2191.000000	0.542860
2192.000000	0.542497
2193.000000	0.540908
2194.000000	0.539996
2195.000000	0.538709
2196.000000	0.538196
2197.000000	0.538126
2198.000000	0.538085
2199.000000	0.539300
2200.000000	0.539550
2201.000000	0.539478
2202.000000	0.539095
2203.000000	0.538199
2204.000000	0.536193
2205.000000	0.532891
2206.000000	0.530756
2207.000000	0.528444
2208.000000	0.527811
2209.000000	0.529424
2210.000000	0.531171
2211.000000	0.530797
2212.000000	0.529872
2213.000000	0.528341
2214.000000	0.524144
2215.000000	0.521911
2216.000000	0.520890
2217.000000	0.519133
2218.000000	0.516969
2219.000000	0.516219
2220.000000	0.516304
2221.000000	0.515573
2222.000000	0.515733
2223.000000	0.514559
2224.000000	0.511222
2225.000000	0.510188
2226.000000	0.508986
2227.000000	0.507516
2228.000000	0.507474
2229.000000	0.505388
2230.000000	0.502236
2231.000000	0.499820
2232.000000	0.496889
2233.000000	0.494297
2234.000000	0.493526
2235.000000	0.493763
2236.000000	0.493667
2237.000000	0.494875
2238.000000	0.494724
2239.000000	0.492883
2240.000000	0.493051
2241.000000	0.493524
2242.000000	0.494271
2243.000000	0.497048
2244.000000	0.498513
2245.000000	0.499962
2246.000000	0.500273
2247.000000	0.499021
2248.000000	0.498168
2249.000000	0.497150
2250.000000	0.494832
2251.000000	0.494011
2252.000000	0.493863
2253.000000	0.492585
2254.000000	0.492704
2255.000000	0.493500
2256.000000	0.494598
2257.000000	0.495219
2258.000000	0.495518
2259.000000	0.494164
2260.000000	0.491508
2261.000000	0.488812
2262.000000	0.485004
2263.000000	0.482631
2264.000000	0.480343
2265.000000	0.478498
2266.000000	0.478131
2267.000000	0.476527
2268.000000	0.474685
2269.000000	0.472418
2270.000000	0.470024
2271.000000	0.466447
2272.000000	0.461439
2273.000000	0.457482
2274.000000	0.453052
2275.000000	0.448768
2276.000000	0.445686
2277.000000	0.441417
2278.000000	0.435173
2279.000000	0.429484
2280.000000	0.422616
2281.000000	0.415810
2282.000000	0.409241
2283.000000	0.402073
2284.000000	0.396666
2285.000000	0.391354
2286.000000	0.386328
2287.000000	0.382446
2288.000000	0.378396
2289.000000	0.374284
2290.000000	0.370270
2291.000000	0.366601
2292.000000	0.362251
2293.000000	0.357985
2294.000000	0.355338
2295.000000	0.354310
2296.000000	0.351848
2297.000000	0.350138
2298.000000	0.347750
2299.000000	0.344040
2300.000000	0.340674
2301.000000	0.337861
2302.000000	0.334378
2303.000000	0.330980
2304.000000	0.325873
2305.000000	0.319003
2306.000000	0.313443
2307.000000	0.307120
2308.000000	0.300743
2309.000000	0.297028
2310.000000	0.294288
2311.000000	0.289267
2312.000000	0.285613
2313.000000	0.284053
2314.000000	0.282799
2315.000000	0.285744
2316.000000	0.290295
2317.000000	0.294462
2318.000000	0.300655
2319.000000	0.306248
2320.000000	0.311825
2321.000000	0.318540
2322.000000	0.323012
2323.000000	0.327563
2324.000000	0.333177
2325.000000	0.337901
2326.000000	0.344805
2327.000000	0.352511
2328.000000	0.359003
2329.000000	0.364657
2330.000000	0.368326
2331.000000	0.370983
2332.000000	0.373286
2333.000000	0.375907
2334.000000	0.378337
2335.000000	0.380133
2336.000000	0.380015
2337.000000	0.380770
2338.000000	0.381257
2339.000000	0.382387
2340.000000	0.385131
2341.000000	0.385569
2342.000000	0.384021
2343.000000	0.383596
2344.000000	0.381722
2345.000000	0.381512
2346.000000	0.384855
2347.000000	0.386028
2348.000000	0.387093
2349.000000	0.385537
2350.000000	0.382448
2351.000000	0.378538
2352.000000	0.374891
2353.000000	0.374823
2354.000000	0.375665
2355.000000	0.374806
2356.000000	0.374638
2357.000000	0.373244
2358.000000	0.371863
2359.000000	0.370912
2360.000000	0.368503
2361.000000	0.366696
2362.000000	0.365011
2363.000000	0.364007
2364.000000	0.364515
2365.000000	0.364486
2366.000000	0.363623
2367.000000	0.362996
2368.000000	0.359918
2369.000000	0.355924
2370.000000	0.352041
2371.000000	0.348698
2372.000000	0.347915
2373.000000	0.345447
2374.000000	0.341460
2375.000000	0.339088
2376.000000	0.337408
2377.000000	0.334202
2378.000000	0.332037
2379.000000	0.328570
2380.000000	0.320798
2381.000000	0.317325
2382.000000	0.314754
2383.000000	0.312032
2384.000000	0.311853
2385.000000	0.311271
2386.000000	0.309697
2387.000000	0.305551
2388.000000	0.304928
2389.000000	0.302913
2390.000000	0.299662
2391.000000	0.300511
2392.000000	0.299595
2393.000000	0.300969
2394.000000	0.304020
2395.000000	0.308048
2396.000000	0.313415
2397.000000	0.316673
2398.000000	0.322346
2399.000000	0.327148
2400.000000	0.324888
2401.000000	0.321760
2402.000000	0.319393
2403.000000	0.317586
2404.000000	0.321171
2405.000000	0.326264
2406.000000	0.327482
2407.000000	0.327792
2408.000000	0.328279
2409.000000	0.325012
2410.000000	0.323993
2411.000000	0.324384
2412.000000	0.321800
2413.000000	0.319078
2414.000000	0.317782
2415.000000	0.315329
2416.000000	0.311850
2417.000000	0.312481
2418.000000	0.309196
2419.000000	0.308924
2420.000000	0.310433
2421.000000	0.305266
2422.000000	0.305047
2423.000000	0.301019
2424.000000	0.291167
2425.000000	0.289331
2426.000000	0.294515
2427.000000	0.295464
2428.000000	0.295851
2429.000000	0.298189
2430.000000	0.289307
2431.000000	0.278366
2432.000000	0.277128
2433.000000	0.277811
2434.000000	0.280970
2435.000000	0.289308
2436.000000	0.295059
2437.000000	0.292265
2438.000000	0.293715
2439.000000	0.297002
2440.000000	0.293160
2441.000000	0.293884
2442.000000	0.287844
2443.000000	0.277502
2444.000000	0.273743
2445.000000	0.268701
2446.000000	0.263787
2447.000000	0.262934
2448.000000	0.266877
2449.000000	0.270830
2450.000000	0.275608
2451.000000	0.281355
2452.000000	0.280508
2453.000000	0.276633
2454.000000	0.272201
2455.000000	0.255692
2456.000000	0.239759
2457.000000	0.232503
2458.000000	0.226458
2459.000000	0.235691
2460.000000	0.250937
2461.000000	0.263060
2462.000000	0.267311
2463.000000	0.258256
2464.000000	0.245348
2465.000000	0.231605
2466.000000	0.231451
2467.000000	0.237490
2468.000000	0.245137
2469.000000	0.251163
2470.000000	0.250031
2471.000000	0.243892
2472.000000	0.236514
2473.000000	0.237117
2474.000000	0.228313
2475.000000	0.229965
2476.000000	0.241112
2477.000000	0.234652
2478.000000	0.231781
2479.000000	0.223374
2480.000000	0.199708
2481.000000	0.191812
2482.000000	0.182916
2483.000000	0.155960
2484.000000	0.157947
2485.000000	0.157042
2486.000000	0.148485
2487.000000	0.180230
2488.000000	0.200689
2489.000000	0.201499
2490.000000	0.212395
2491.000000	0.183734
2492.000000	0.166500
2493.000000	0.139551
2494.000000	0.144729
2495.000000	0.191013
2496.000000	0.211570
2497.000000	0.242523
2498.000000	0.249883
2499.000000	0.227693
2500.000000	0.214811
