# Wavelength	SM1200H-70_HEX-10_FV7-20_00000.asd.rts.txt
350.000000	0.366104
351.000000	0.368085
352.000000	0.355920
353.000000	0.352853
354.000000	0.364866
355.000000	0.352528
356.000000	0.352325
357.000000	0.364699
358.000000	0.359606
359.000000	0.355842
360.000000	0.357034
361.000000	0.361521
362.000000	0.363776
363.000000	0.364333
364.000000	0.363492
365.000000	0.362603
366.000000	0.359989
367.000000	0.357397
368.000000	0.360637
369.000000	0.364931
370.000000	0.367022
371.000000	0.365391
372.000000	0.367901
373.000000	0.370633
374.000000	0.371352
375.000000	0.372579
376.000000	0.372663
377.000000	0.371915
378.000000	0.373097
379.000000	0.372286
380.000000	0.370848
381.000000	0.372649
382.000000	0.375339
383.000000	0.377134
384.000000	0.377218
385.000000	0.374515
386.000000	0.374706
387.000000	0.378345
388.000000	0.380080
389.000000	0.380550
390.000000	0.381293
391.000000	0.383378
392.000000	0.381763
393.000000	0.379937
394.000000	0.380990
395.000000	0.383761
396.000000	0.383759
397.000000	0.381040
398.000000	0.381693
399.000000	0.382793
400.000000	0.383688
401.000000	0.384266
402.000000	0.385394
403.000000	0.386436
404.000000	0.386868
405.000000	0.386339
406.000000	0.386137
407.000000	0.386799
408.000000	0.387539
409.000000	0.387804
410.000000	0.387759
411.000000	0.387971
412.000000	0.389297
413.000000	0.390801
414.000000	0.391387
415.000000	0.391321
416.000000	0.391259
417.000000	0.391671
418.000000	0.392803
419.000000	0.393329
420.000000	0.393183
421.000000	0.393362
422.000000	0.392903
423.000000	0.392711
424.000000	0.394015
425.000000	0.394011
426.000000	0.393974
427.000000	0.394857
428.000000	0.395141
429.000000	0.395547
430.000000	0.396137
431.000000	0.395941
432.000000	0.396608
433.000000	0.397684
434.000000	0.397958
435.000000	0.397995
436.000000	0.398112
437.000000	0.398391
438.000000	0.398162
439.000000	0.397965
440.000000	0.398240
441.000000	0.398675
442.000000	0.399070
443.000000	0.399260
444.000000	0.399385
445.000000	0.399856
446.000000	0.400615
447.000000	0.401113
448.000000	0.400854
449.000000	0.400788
450.000000	0.401427
451.000000	0.401636
452.000000	0.401948
453.000000	0.402341
454.000000	0.402505
455.000000	0.402887
456.000000	0.403447
457.000000	0.403673
458.000000	0.403812
459.000000	0.404112
460.000000	0.404733
461.000000	0.405057
462.000000	0.405296
463.000000	0.405452
464.000000	0.406058
465.000000	0.406133
466.000000	0.405763
467.000000	0.405936
468.000000	0.406306
469.000000	0.406637
470.000000	0.406968
471.000000	0.407031
472.000000	0.407073
473.000000	0.407345
474.000000	0.407907
475.000000	0.408010
476.000000	0.407885
477.000000	0.408302
478.000000	0.408457
479.000000	0.408624
480.000000	0.408891
481.000000	0.408874
482.000000	0.409166
483.000000	0.409805
484.000000	0.409847
485.000000	0.409852
486.000000	0.410341
487.000000	0.410835
488.000000	0.410991
489.000000	0.410988
490.000000	0.411358
491.000000	0.411823
492.000000	0.412267
493.000000	0.412426
494.000000	0.412616
495.000000	0.412944
496.000000	0.413339
497.000000	0.413593
498.000000	0.413874
499.000000	0.414316
500.000000	0.414716
501.000000	0.415017
502.000000	0.415268
503.000000	0.415443
504.000000	0.415747
505.000000	0.416073
506.000000	0.416307
507.000000	0.416553
508.000000	0.416892
509.000000	0.417246
510.000000	0.417437
511.000000	0.417674
512.000000	0.418035
513.000000	0.418420
514.000000	0.418744
515.000000	0.419029
516.000000	0.419251
517.000000	0.419593
518.000000	0.420037
519.000000	0.420402
520.000000	0.420720
521.000000	0.421037
522.000000	0.421346
523.000000	0.421497
524.000000	0.421765
525.000000	0.422098
526.000000	0.422347
527.000000	0.422625
528.000000	0.422905
529.000000	0.423211
530.000000	0.423471
531.000000	0.423725
532.000000	0.423919
533.000000	0.424334
534.000000	0.424699
535.000000	0.424942
536.000000	0.425251
537.000000	0.425492
538.000000	0.425711
539.000000	0.425992
540.000000	0.426270
541.000000	0.426542
542.000000	0.426846
543.000000	0.427060
544.000000	0.427263
545.000000	0.427440
546.000000	0.427781
547.000000	0.428170
548.000000	0.428578
549.000000	0.428875
550.000000	0.429106
551.000000	0.429404
552.000000	0.429811
553.000000	0.430154
554.000000	0.430441
555.000000	0.430725
556.000000	0.431102
557.000000	0.431432
558.000000	0.431805
559.000000	0.432023
560.000000	0.432225
561.000000	0.432538
562.000000	0.432856
563.000000	0.433214
564.000000	0.433611
565.000000	0.433886
566.000000	0.434178
567.000000	0.434484
568.000000	0.434766
569.000000	0.435046
570.000000	0.435357
571.000000	0.435650
572.000000	0.435832
573.000000	0.436111
574.000000	0.436412
575.000000	0.436670
576.000000	0.437019
577.000000	0.437306
578.000000	0.437523
579.000000	0.437839
580.000000	0.438142
581.000000	0.438387
582.000000	0.438653
583.000000	0.438899
584.000000	0.439154
585.000000	0.439486
586.000000	0.439741
587.000000	0.439981
588.000000	0.440292
589.000000	0.440520
590.000000	0.440750
591.000000	0.441021
592.000000	0.441190
593.000000	0.441431
594.000000	0.441754
595.000000	0.442022
596.000000	0.442169
597.000000	0.442352
598.000000	0.442646
599.000000	0.442816
600.000000	0.442978
601.000000	0.443155
602.000000	0.443412
603.000000	0.443633
604.000000	0.443790
605.000000	0.443963
606.000000	0.444100
607.000000	0.444197
608.000000	0.444271
609.000000	0.444378
610.000000	0.444522
611.000000	0.444683
612.000000	0.444821
613.000000	0.444966
614.000000	0.445162
615.000000	0.445251
616.000000	0.445362
617.000000	0.445474
618.000000	0.445566
619.000000	0.445759
620.000000	0.445946
621.000000	0.446035
622.000000	0.446157
623.000000	0.446297
624.000000	0.446424
625.000000	0.446548
626.000000	0.446677
627.000000	0.446838
628.000000	0.447102
629.000000	0.447371
630.000000	0.447476
631.000000	0.447644
632.000000	0.447801
633.000000	0.447950
634.000000	0.448076
635.000000	0.448171
636.000000	0.448292
637.000000	0.448417
638.000000	0.448438
639.000000	0.448538
640.000000	0.448774
641.000000	0.448864
642.000000	0.448875
643.000000	0.448949
644.000000	0.449216
645.000000	0.449269
646.000000	0.449325
647.000000	0.449511
648.000000	0.449624
649.000000	0.449785
650.000000	0.449977
651.000000	0.450090
652.000000	0.450162
653.000000	0.450257
654.000000	0.450326
655.000000	0.450417
656.000000	0.450550
657.000000	0.450664
658.000000	0.450881
659.000000	0.451052
660.000000	0.451123
661.000000	0.451283
662.000000	0.451450
663.000000	0.451647
664.000000	0.451783
665.000000	0.451883
666.000000	0.451996
667.000000	0.452118
668.000000	0.452199
669.000000	0.452314
670.000000	0.452501
671.000000	0.452680
672.000000	0.452808
673.000000	0.452896
674.000000	0.453042
675.000000	0.453154
676.000000	0.453259
677.000000	0.453432
678.000000	0.453634
679.000000	0.453761
680.000000	0.453797
681.000000	0.453901
682.000000	0.454076
683.000000	0.454195
684.000000	0.454331
685.000000	0.454501
686.000000	0.454736
687.000000	0.454973
688.000000	0.455130
689.000000	0.455226
690.000000	0.455345
691.000000	0.455500
692.000000	0.455632
693.000000	0.455787
694.000000	0.455855
695.000000	0.455980
696.000000	0.456139
697.000000	0.456250
698.000000	0.456410
699.000000	0.456581
700.000000	0.456733
701.000000	0.456881
702.000000	0.457025
703.000000	0.457132
704.000000	0.457196
705.000000	0.457346
706.000000	0.457511
707.000000	0.457670
708.000000	0.457802
709.000000	0.457901
710.000000	0.457997
711.000000	0.458056
712.000000	0.458147
713.000000	0.458300
714.000000	0.458397
715.000000	0.458450
716.000000	0.458540
717.000000	0.458736
718.000000	0.458898
719.000000	0.459061
720.000000	0.459274
721.000000	0.459430
722.000000	0.459483
723.000000	0.459532
724.000000	0.459603
725.000000	0.459639
726.000000	0.459715
727.000000	0.459715
728.000000	0.459755
729.000000	0.459820
730.000000	0.459826
731.000000	0.459932
732.000000	0.460082
733.000000	0.460262
734.000000	0.460324
735.000000	0.460384
736.000000	0.460585
737.000000	0.460697
738.000000	0.460699
739.000000	0.460773
740.000000	0.460808
741.000000	0.460913
742.000000	0.461021
743.000000	0.461099
744.000000	0.461280
745.000000	0.461385
746.000000	0.461495
747.000000	0.461608
748.000000	0.461677
749.000000	0.461742
750.000000	0.461783
751.000000	0.461789
752.000000	0.461881
753.000000	0.462028
754.000000	0.462030
755.000000	0.462014
756.000000	0.462035
757.000000	0.462061
758.000000	0.462172
759.000000	0.462329
760.000000	0.462402
761.000000	0.462497
762.000000	0.462576
763.000000	0.462627
764.000000	0.462766
765.000000	0.462787
766.000000	0.462800
767.000000	0.462906
768.000000	0.462948
769.000000	0.462923
770.000000	0.462854
771.000000	0.462778
772.000000	0.462850
773.000000	0.462920
774.000000	0.462920
775.000000	0.462972
776.000000	0.463049
777.000000	0.463109
778.000000	0.463254
779.000000	0.463423
780.000000	0.463555
781.000000	0.463549
782.000000	0.463506
783.000000	0.463560
784.000000	0.463560
785.000000	0.463554
786.000000	0.463538
787.000000	0.463506
788.000000	0.463466
789.000000	0.463490
790.000000	0.463526
791.000000	0.463533
792.000000	0.463567
793.000000	0.463593
794.000000	0.463589
795.000000	0.463604
796.000000	0.463591
797.000000	0.463570
798.000000	0.463656
799.000000	0.463726
800.000000	0.463797
801.000000	0.463904
802.000000	0.463883
803.000000	0.463862
804.000000	0.463945
805.000000	0.463970
806.000000	0.463864
807.000000	0.463766
808.000000	0.463700
809.000000	0.463687
810.000000	0.463708
811.000000	0.463702
812.000000	0.463590
813.000000	0.463538
814.000000	0.463566
815.000000	0.463594
816.000000	0.463609
817.000000	0.463598
818.000000	0.463465
819.000000	0.463499
820.000000	0.463573
821.000000	0.463561
822.000000	0.463598
823.000000	0.463631
824.000000	0.463579
825.000000	0.463548
826.000000	0.463639
827.000000	0.463687
828.000000	0.463669
829.000000	0.463671
830.000000	0.463581
831.000000	0.463488
832.000000	0.463336
833.000000	0.463227
834.000000	0.463151
835.000000	0.463120
836.000000	0.463062
837.000000	0.462936
838.000000	0.462797
839.000000	0.462711
840.000000	0.462667
841.000000	0.462664
842.000000	0.462626
843.000000	0.462518
844.000000	0.462478
845.000000	0.462484
846.000000	0.462452
847.000000	0.462384
848.000000	0.462251
849.000000	0.462093
850.000000	0.461980
851.000000	0.461960
852.000000	0.462074
853.000000	0.462194
854.000000	0.462161
855.000000	0.462144
856.000000	0.462101
857.000000	0.461901
858.000000	0.461811
859.000000	0.461781
860.000000	0.461567
861.000000	0.461269
862.000000	0.461096
863.000000	0.461128
864.000000	0.461107
865.000000	0.461103
866.000000	0.461169
867.000000	0.461162
868.000000	0.461075
869.000000	0.460825
870.000000	0.460516
871.000000	0.460380
872.000000	0.460267
873.000000	0.460037
874.000000	0.459978
875.000000	0.459828
876.000000	0.459631
877.000000	0.459443
878.000000	0.459195
879.000000	0.459100
880.000000	0.459023
881.000000	0.458882
882.000000	0.458666
883.000000	0.458456
884.000000	0.458269
885.000000	0.458149
886.000000	0.457956
887.000000	0.457700
888.000000	0.457578
889.000000	0.457500
890.000000	0.457291
891.000000	0.457096
892.000000	0.456878
893.000000	0.456688
894.000000	0.456659
895.000000	0.456453
896.000000	0.456145
897.000000	0.455930
898.000000	0.455974
899.000000	0.455925
900.000000	0.455881
901.000000	0.455815
902.000000	0.455701
903.000000	0.455453
904.000000	0.455161
905.000000	0.454814
906.000000	0.454616
907.000000	0.454518
908.000000	0.454503
909.000000	0.454337
910.000000	0.454030
911.000000	0.453695
912.000000	0.453465
913.000000	0.453307
914.000000	0.453141
915.000000	0.452988
916.000000	0.452713
917.000000	0.452639
918.000000	0.452572
919.000000	0.452317
920.000000	0.452036
921.000000	0.451795
922.000000	0.451597
923.000000	0.451363
924.000000	0.451123
925.000000	0.450866
926.000000	0.450636
927.000000	0.450423
928.000000	0.449950
929.000000	0.449507
930.000000	0.449440
931.000000	0.449222
932.000000	0.448919
933.000000	0.448688
934.000000	0.448577
935.000000	0.448257
936.000000	0.447960
937.000000	0.447749
938.000000	0.447406
939.000000	0.447127
940.000000	0.446838
941.000000	0.446548
942.000000	0.446186
943.000000	0.445946
944.000000	0.445724
945.000000	0.445464
946.000000	0.445056
947.000000	0.444701
948.000000	0.444510
949.000000	0.444197
950.000000	0.443900
951.000000	0.443652
952.000000	0.443533
953.000000	0.443356
954.000000	0.443079
955.000000	0.442689
956.000000	0.442588
957.000000	0.442371
958.000000	0.442057
959.000000	0.441976
960.000000	0.441763
961.000000	0.441468
962.000000	0.441159
963.000000	0.440979
964.000000	0.440779
965.000000	0.440600
966.000000	0.440333
967.000000	0.440082
968.000000	0.439732
969.000000	0.439230
970.000000	0.438783
971.000000	0.438594
972.000000	0.438525
973.000000	0.438401
974.000000	0.438324
975.000000	0.438363
976.000000	0.438246
977.000000	0.437851
978.000000	0.437704
979.000000	0.437673
980.000000	0.437344
981.000000	0.436963
982.000000	0.436681
983.000000	0.436342
984.000000	0.436177
985.000000	0.436545
986.000000	0.436425
987.000000	0.436183
988.000000	0.436024
989.000000	0.435812
990.000000	0.435378
991.000000	0.435034
992.000000	0.435131
993.000000	0.434935
994.000000	0.434567
995.000000	0.434377
996.000000	0.434268
997.000000	0.434512
998.000000	0.434650
999.000000	0.434531
1000.000000	0.434219
1001.000000	0.434274
1002.000000	0.434884
1003.000000	0.434242
1004.000000	0.433895
1005.000000	0.433440
1006.000000	0.432939
1007.000000	0.432143
1008.000000	0.432163
1009.000000	0.432044
1010.000000	0.431953
1011.000000	0.431748
1012.000000	0.431447
1013.000000	0.431192
1014.000000	0.431064
1015.000000	0.431416
1016.000000	0.432012
1017.000000	0.432336
1018.000000	0.432639
1019.000000	0.432862
1020.000000	0.433195
1021.000000	0.432601
1022.000000	0.431821
1023.000000	0.431705
1024.000000	0.431170
1025.000000	0.430765
1026.000000	0.430976
1027.000000	0.430928
1028.000000	0.430561
1029.000000	0.430278
1030.000000	0.430588
1031.000000	0.430635
1032.000000	0.430778
1033.000000	0.431420
1034.000000	0.431557
1035.000000	0.431483
1036.000000	0.431534
1037.000000	0.431274
1038.000000	0.431029
1039.000000	0.431140
1040.000000	0.431020
1041.000000	0.430533
1042.000000	0.430993
1043.000000	0.431803
1044.000000	0.432240
1045.000000	0.432137
1046.000000	0.431785
1047.000000	0.432024
1048.000000	0.432190
1049.000000	0.432146
1050.000000	0.432651
1051.000000	0.432688
1052.000000	0.431659
1053.000000	0.431480
1054.000000	0.432339
1055.000000	0.432674
1056.000000	0.433031
1057.000000	0.433290
1058.000000	0.433387
1059.000000	0.432735
1060.000000	0.432621
1061.000000	0.433128
1062.000000	0.433538
1063.000000	0.434071
1064.000000	0.434375
1065.000000	0.434452
1066.000000	0.434580
1067.000000	0.434572
1068.000000	0.434621
1069.000000	0.434484
1070.000000	0.434549
1071.000000	0.434849
1072.000000	0.435063
1073.000000	0.435254
1074.000000	0.435902
1075.000000	0.436338
1076.000000	0.436537
1077.000000	0.436740
1078.000000	0.436857
1079.000000	0.436980
1080.000000	0.436958
1081.000000	0.437131
1082.000000	0.437651
1083.000000	0.437900
1084.000000	0.438223
1085.000000	0.438409
1086.000000	0.438141
1087.000000	0.438310
1088.000000	0.438602
1089.000000	0.438806
1090.000000	0.439397
1091.000000	0.439388
1092.000000	0.439307
1093.000000	0.439543
1094.000000	0.439581
1095.000000	0.439339
1096.000000	0.439645
1097.000000	0.440243
1098.000000	0.440580
1099.000000	0.441203
1100.000000	0.441409
1101.000000	0.440860
1102.000000	0.440962
1103.000000	0.441178
1104.000000	0.441572
1105.000000	0.442685
1106.000000	0.443094
1107.000000	0.443045
1108.000000	0.443086
1109.000000	0.442897
1110.000000	0.442692
1111.000000	0.442691
1112.000000	0.442942
1113.000000	0.443030
1114.000000	0.443022
1115.000000	0.443229
1116.000000	0.443658
1117.000000	0.443778
1118.000000	0.443982
1119.000000	0.443855
1120.000000	0.442985
1121.000000	0.442930
1122.000000	0.443422
1123.000000	0.443883
1124.000000	0.444635
1125.000000	0.445018
1126.000000	0.444865
1127.000000	0.444763
1128.000000	0.444599
1129.000000	0.444351
1130.000000	0.444285
1131.000000	0.444186
1132.000000	0.444274
1133.000000	0.444723
1134.000000	0.444858
1135.000000	0.444902
1136.000000	0.444905
1137.000000	0.444762
1138.000000	0.444572
1139.000000	0.444368
1140.000000	0.444421
1141.000000	0.444521
1142.000000	0.444524
1143.000000	0.444580
1144.000000	0.444719
1145.000000	0.444555
1146.000000	0.444176
1147.000000	0.444182
1148.000000	0.444296
1149.000000	0.444280
1150.000000	0.444356
1151.000000	0.444448
1152.000000	0.444381
1153.000000	0.444387
1154.000000	0.444394
1155.000000	0.444463
1156.000000	0.444602
1157.000000	0.444656
1158.000000	0.444745
1159.000000	0.444739
1160.000000	0.444390
1161.000000	0.444302
1162.000000	0.444369
1163.000000	0.444757
1164.000000	0.444828
1165.000000	0.444985
1166.000000	0.445027
1167.000000	0.444780
1168.000000	0.444697
1169.000000	0.444667
1170.000000	0.444783
1171.000000	0.445107
1172.000000	0.445273
1173.000000	0.445449
1174.000000	0.445552
1175.000000	0.445478
1176.000000	0.445394
1177.000000	0.445363
1178.000000	0.445435
1179.000000	0.445579
1180.000000	0.445511
1181.000000	0.445646
1182.000000	0.445485
1183.000000	0.445320
1184.000000	0.445473
1185.000000	0.445477
1186.000000	0.445622
1187.000000	0.445561
1188.000000	0.445256
1189.000000	0.445142
1190.000000	0.445241
1191.000000	0.445135
1192.000000	0.445045
1193.000000	0.445207
1194.000000	0.445145
1195.000000	0.445214
1196.000000	0.445571
1197.000000	0.445673
1198.000000	0.445647
1199.000000	0.445660
1200.000000	0.445537
1201.000000	0.445505
1202.000000	0.445682
1203.000000	0.445685
1204.000000	0.445704
1205.000000	0.445815
1206.000000	0.445790
1207.000000	0.445822
1208.000000	0.445734
1209.000000	0.445609
1210.000000	0.445555
1211.000000	0.445494
1212.000000	0.445359
1213.000000	0.445276
1214.000000	0.445284
1215.000000	0.445227
1216.000000	0.445203
1217.000000	0.445250
1218.000000	0.445238
1219.000000	0.445278
1220.000000	0.445196
1221.000000	0.445044
1222.000000	0.445164
1223.000000	0.445218
1224.000000	0.445122
1225.000000	0.445041
1226.000000	0.444940
1227.000000	0.444716
1228.000000	0.444786
1229.000000	0.444792
1230.000000	0.444893
1231.000000	0.444790
1232.000000	0.444776
1233.000000	0.444862
1234.000000	0.444902
1235.000000	0.444942
1236.000000	0.444929
1237.000000	0.444949
1238.000000	0.444877
1239.000000	0.444805
1240.000000	0.444764
1241.000000	0.444686
1242.000000	0.444605
1243.000000	0.444606
1244.000000	0.444592
1245.000000	0.444732
1246.000000	0.444874
1247.000000	0.444957
1248.000000	0.445091
1249.000000	0.445217
1250.000000	0.445272
1251.000000	0.445194
1252.000000	0.445146
1253.000000	0.445143
1254.000000	0.445121
1255.000000	0.445030
1256.000000	0.445009
1257.000000	0.445053
1258.000000	0.445091
1259.000000	0.445055
1260.000000	0.445145
1261.000000	0.445253
1262.000000	0.445260
1263.000000	0.445279
1264.000000	0.445251
1265.000000	0.445315
1266.000000	0.445161
1267.000000	0.445068
1268.000000	0.445076
1269.000000	0.444778
1270.000000	0.444719
1271.000000	0.444722
1272.000000	0.444693
1273.000000	0.444694
1274.000000	0.444496
1275.000000	0.444304
1276.000000	0.443922
1277.000000	0.443876
1278.000000	0.443923
1279.000000	0.443890
1280.000000	0.443819
1281.000000	0.443781
1282.000000	0.443783
1283.000000	0.443867
1284.000000	0.444012
1285.000000	0.444093
1286.000000	0.444116
1287.000000	0.444048
1288.000000	0.444139
1289.000000	0.444213
1290.000000	0.444085
1291.000000	0.443875
1292.000000	0.443694
1293.000000	0.443523
1294.000000	0.443547
1295.000000	0.443662
1296.000000	0.443676
1297.000000	0.443690
1298.000000	0.443607
1299.000000	0.443588
1300.000000	0.443640
1301.000000	0.443512
1302.000000	0.443339
1303.000000	0.443244
1304.000000	0.443111
1305.000000	0.443033
1306.000000	0.443001
1307.000000	0.443170
1308.000000	0.443162
1309.000000	0.443163
1310.000000	0.442991
1311.000000	0.442615
1312.000000	0.442231
1313.000000	0.442147
1314.000000	0.442046
1315.000000	0.442000
1316.000000	0.442091
1317.000000	0.442092
1318.000000	0.441920
1319.000000	0.441655
1320.000000	0.441662
1321.000000	0.441622
1322.000000	0.441372
1323.000000	0.441289
1324.000000	0.441198
1325.000000	0.440896
1326.000000	0.440633
1327.000000	0.440481
1328.000000	0.440341
1329.000000	0.440071
1330.000000	0.439774
1331.000000	0.439552
1332.000000	0.439345
1333.000000	0.439117
1334.000000	0.439055
1335.000000	0.438941
1336.000000	0.438716
1337.000000	0.438564
1338.000000	0.438389
1339.000000	0.438204
1340.000000	0.438116
1341.000000	0.437868
1342.000000	0.437625
1343.000000	0.437430
1344.000000	0.437170
1345.000000	0.437113
1346.000000	0.437165
1347.000000	0.437064
1348.000000	0.436963
1349.000000	0.436645
1350.000000	0.436381
1351.000000	0.436016
1352.000000	0.435670
1353.000000	0.435515
1354.000000	0.435551
1355.000000	0.435634
1356.000000	0.435441
1357.000000	0.435014
1358.000000	0.434648
1359.000000	0.434387
1360.000000	0.434107
1361.000000	0.434137
1362.000000	0.433889
1363.000000	0.433400
1364.000000	0.433005
1365.000000	0.432520
1366.000000	0.432179
1367.000000	0.431955
1368.000000	0.431528
1369.000000	0.431194
1370.000000	0.430772
1371.000000	0.430162
1372.000000	0.429426
1373.000000	0.428571
1374.000000	0.427610
1375.000000	0.426478
1376.000000	0.425268
1377.000000	0.423744
1378.000000	0.421660
1379.000000	0.419116
1380.000000	0.416122
1381.000000	0.412600
1382.000000	0.408814
1383.000000	0.404824
1384.000000	0.400576
1385.000000	0.396497
1386.000000	0.392997
1387.000000	0.389857
1388.000000	0.387193
1389.000000	0.385357
1390.000000	0.383879
1391.000000	0.382968
1392.000000	0.382931
1393.000000	0.383050
1394.000000	0.383815
1395.000000	0.384451
1396.000000	0.385418
1397.000000	0.385921
1398.000000	0.386382
1399.000000	0.386543
1400.000000	0.386508
1401.000000	0.386137
1402.000000	0.385566
1403.000000	0.384634
1404.000000	0.383629
1405.000000	0.382615
1406.000000	0.381696
1407.000000	0.380834
1408.000000	0.379915
1409.000000	0.379161
1410.000000	0.378571
1411.000000	0.377974
1412.000000	0.377387
1413.000000	0.377067
1414.000000	0.376925
1415.000000	0.376782
1416.000000	0.376715
1417.000000	0.376762
1418.000000	0.376695
1419.000000	0.376783
1420.000000	0.377100
1421.000000	0.377462
1422.000000	0.377678
1423.000000	0.377991
1424.000000	0.378177
1425.000000	0.378332
1426.000000	0.378599
1427.000000	0.378868
1428.000000	0.379165
1429.000000	0.379480
1430.000000	0.379696
1431.000000	0.379850
1432.000000	0.380127
1433.000000	0.380505
1434.000000	0.380827
1435.000000	0.381437
1436.000000	0.381770
1437.000000	0.381887
1438.000000	0.381985
1439.000000	0.382024
1440.000000	0.382063
1441.000000	0.382035
1442.000000	0.382133
1443.000000	0.382207
1444.000000	0.382288
1445.000000	0.382369
1446.000000	0.382412
1447.000000	0.382381
1448.000000	0.382348
1449.000000	0.382342
1450.000000	0.382422
1451.000000	0.382471
1452.000000	0.382364
1453.000000	0.382271
1454.000000	0.382205
1455.000000	0.382180
1456.000000	0.382231
1457.000000	0.382283
1458.000000	0.382281
1459.000000	0.382259
1460.000000	0.382352
1461.000000	0.382522
1462.000000	0.382760
1463.000000	0.382924
1464.000000	0.382959
1465.000000	0.383046
1466.000000	0.383241
1467.000000	0.383598
1468.000000	0.384038
1469.000000	0.384562
1470.000000	0.384926
1471.000000	0.385226
1472.000000	0.385613
1473.000000	0.386154
1474.000000	0.386719
1475.000000	0.387279
1476.000000	0.387856
1477.000000	0.388418
1478.000000	0.388797
1479.000000	0.389109
1480.000000	0.389549
1481.000000	0.389940
1482.000000	0.390331
1483.000000	0.390827
1484.000000	0.391398
1485.000000	0.391847
1486.000000	0.392286
1487.000000	0.392741
1488.000000	0.393144
1489.000000	0.393637
1490.000000	0.394013
1491.000000	0.394495
1492.000000	0.394983
1493.000000	0.395536
1494.000000	0.396175
1495.000000	0.396689
1496.000000	0.397198
1497.000000	0.397618
1498.000000	0.397969
1499.000000	0.398237
1500.000000	0.398586
1501.000000	0.398992
1502.000000	0.399375
1503.000000	0.399833
1504.000000	0.400303
1505.000000	0.400709
1506.000000	0.401167
1507.000000	0.401580
1508.000000	0.401936
1509.000000	0.402257
1510.000000	0.402494
1511.000000	0.402786
1512.000000	0.403118
1513.000000	0.403462
1514.000000	0.403819
1515.000000	0.404071
1516.000000	0.404301
1517.000000	0.404350
1518.000000	0.404345
1519.000000	0.404398
1520.000000	0.404548
1521.000000	0.404676
1522.000000	0.404867
1523.000000	0.405259
1524.000000	0.405466
1525.000000	0.405626
1526.000000	0.405922
1527.000000	0.406117
1528.000000	0.406235
1529.000000	0.406431
1530.000000	0.406561
1531.000000	0.406830
1532.000000	0.407222
1533.000000	0.407396
1534.000000	0.407536
1535.000000	0.407668
1536.000000	0.407719
1537.000000	0.408010
1538.000000	0.408263
1539.000000	0.408280
1540.000000	0.408394
1541.000000	0.408654
1542.000000	0.408911
1543.000000	0.409212
1544.000000	0.409420
1545.000000	0.409511
1546.000000	0.409682
1547.000000	0.409883
1548.000000	0.410010
1549.000000	0.410108
1550.000000	0.410161
1551.000000	0.410250
1552.000000	0.410391
1553.000000	0.410520
1554.000000	0.410639
1555.000000	0.410761
1556.000000	0.410910
1557.000000	0.410989
1558.000000	0.411098
1559.000000	0.411126
1560.000000	0.411148
1561.000000	0.411221
1562.000000	0.411257
1563.000000	0.411274
1564.000000	0.411397
1565.000000	0.411596
1566.000000	0.411623
1567.000000	0.411829
1568.000000	0.411844
1569.000000	0.411669
1570.000000	0.411688
1571.000000	0.411736
1572.000000	0.411750
1573.000000	0.411872
1574.000000	0.411946
1575.000000	0.411897
1576.000000	0.412077
1577.000000	0.412454
1578.000000	0.412599
1579.000000	0.412858
1580.000000	0.412945
1581.000000	0.412834
1582.000000	0.412876
1583.000000	0.413013
1584.000000	0.412947
1585.000000	0.412853
1586.000000	0.412928
1587.000000	0.412995
1588.000000	0.413059
1589.000000	0.413340
1590.000000	0.413417
1591.000000	0.413320
1592.000000	0.413341
1593.000000	0.413409
1594.000000	0.413436
1595.000000	0.413532
1596.000000	0.413571
1597.000000	0.413633
1598.000000	0.413655
1599.000000	0.413652
1600.000000	0.413654
1601.000000	0.413727
1602.000000	0.413778
1603.000000	0.413926
1604.000000	0.413952
1605.000000	0.413870
1606.000000	0.413944
1607.000000	0.414152
1608.000000	0.414266
1609.000000	0.414565
1610.000000	0.414616
1611.000000	0.414446
1612.000000	0.414412
1613.000000	0.414542
1614.000000	0.414503
1615.000000	0.414465
1616.000000	0.414540
1617.000000	0.414511
1618.000000	0.414513
1619.000000	0.414597
1620.000000	0.414649
1621.000000	0.414652
1622.000000	0.414805
1623.000000	0.415083
1624.000000	0.415248
1625.000000	0.415199
1626.000000	0.415176
1627.000000	0.415085
1628.000000	0.415178
1629.000000	0.415410
1630.000000	0.415551
1631.000000	0.415658
1632.000000	0.415696
1633.000000	0.415578
1634.000000	0.415655
1635.000000	0.415984
1636.000000	0.416048
1637.000000	0.416092
1638.000000	0.416090
1639.000000	0.415939
1640.000000	0.415858
1641.000000	0.415898
1642.000000	0.415979
1643.000000	0.416148
1644.000000	0.416218
1645.000000	0.416318
1646.000000	0.416339
1647.000000	0.416287
1648.000000	0.416230
1649.000000	0.416303
1650.000000	0.416349
1651.000000	0.416362
1652.000000	0.416453
1653.000000	0.416560
1654.000000	0.416685
1655.000000	0.416749
1656.000000	0.416721
1657.000000	0.416768
1658.000000	0.416789
1659.000000	0.416896
1660.000000	0.416988
1661.000000	0.416978
1662.000000	0.417014
1663.000000	0.416961
1664.000000	0.417010
1665.000000	0.417163
1666.000000	0.417341
1667.000000	0.417470
1668.000000	0.417550
1669.000000	0.417565
1670.000000	0.417551
1671.000000	0.417623
1672.000000	0.417717
1673.000000	0.417789
1674.000000	0.417894
1675.000000	0.418048
1676.000000	0.418157
1677.000000	0.418201
1678.000000	0.418138
1679.000000	0.418071
1680.000000	0.418158
1681.000000	0.418303
1682.000000	0.418372
1683.000000	0.418464
1684.000000	0.418415
1685.000000	0.418352
1686.000000	0.418433
1687.000000	0.418529
1688.000000	0.418493
1689.000000	0.418440
1690.000000	0.418379
1691.000000	0.418393
1692.000000	0.418385
1693.000000	0.418438
1694.000000	0.418332
1695.000000	0.418226
1696.000000	0.418223
1697.000000	0.418177
1698.000000	0.418359
1699.000000	0.418400
1700.000000	0.418336
1701.000000	0.418357
1702.000000	0.417956
1703.000000	0.417792
1704.000000	0.417985
1705.000000	0.417992
1706.000000	0.418069
1707.000000	0.418155
1708.000000	0.418064
1709.000000	0.417992
1710.000000	0.418157
1711.000000	0.418240
1712.000000	0.418341
1713.000000	0.418319
1714.000000	0.418213
1715.000000	0.418248
1716.000000	0.418287
1717.000000	0.418324
1718.000000	0.418503
1719.000000	0.418477
1720.000000	0.418300
1721.000000	0.418256
1722.000000	0.418252
1723.000000	0.418198
1724.000000	0.418241
1725.000000	0.418214
1726.000000	0.417925
1727.000000	0.417813
1728.000000	0.417708
1729.000000	0.417529
1730.000000	0.417533
1731.000000	0.417498
1732.000000	0.417452
1733.000000	0.417481
1734.000000	0.417356
1735.000000	0.417373
1736.000000	0.417464
1737.000000	0.417371
1738.000000	0.417299
1739.000000	0.417199
1740.000000	0.416880
1741.000000	0.416778
1742.000000	0.416809
1743.000000	0.416916
1744.000000	0.417113
1745.000000	0.417091
1746.000000	0.417036
1747.000000	0.417067
1748.000000	0.416971
1749.000000	0.416986
1750.000000	0.416915
1751.000000	0.416880
1752.000000	0.416853
1753.000000	0.416525
1754.000000	0.416428
1755.000000	0.416307
1756.000000	0.416218
1757.000000	0.416444
1758.000000	0.416462
1759.000000	0.416213
1760.000000	0.416140
1761.000000	0.416042
1762.000000	0.415955
1763.000000	0.416041
1764.000000	0.416009
1765.000000	0.415811
1766.000000	0.415722
1767.000000	0.415537
1768.000000	0.415367
1769.000000	0.415396
1770.000000	0.415358
1771.000000	0.415238
1772.000000	0.415107
1773.000000	0.414833
1774.000000	0.414711
1775.000000	0.414742
1776.000000	0.414689
1777.000000	0.414667
1778.000000	0.414511
1779.000000	0.414141
1780.000000	0.414067
1781.000000	0.414054
1782.000000	0.413981
1783.000000	0.414122
1784.000000	0.414043
1785.000000	0.413821
1786.000000	0.413702
1787.000000	0.413615
1788.000000	0.413524
1789.000000	0.413414
1790.000000	0.413581
1791.000000	0.413643
1792.000000	0.413920
1793.000000	0.414103
1794.000000	0.414324
1795.000000	0.414347
1796.000000	0.414146
1797.000000	0.414029
1798.000000	0.413685
1799.000000	0.413584
1800.000000	0.413819
1801.000000	0.413454
1802.000000	0.413662
1803.000000	0.413972
1804.000000	0.414272
1805.000000	0.414491
1806.000000	0.414574
1807.000000	0.415028
1808.000000	0.414790
1809.000000	0.413543
1810.000000	0.412844
1811.000000	0.412713
1812.000000	0.412653
1813.000000	0.412839
1814.000000	0.414024
1815.000000	0.414501
1816.000000	0.414554
1817.000000	0.414796
1818.000000	0.415564
1819.000000	0.415702
1820.000000	0.415595
1821.000000	0.415149
1822.000000	0.414932
1823.000000	0.414393
1824.000000	0.413806
1825.000000	0.413275
1826.000000	0.412733
1827.000000	0.411247
1828.000000	0.410686
1829.000000	0.411413
1830.000000	0.411920
1831.000000	0.411999
1832.000000	0.412521
1833.000000	0.412499
1834.000000	0.411469
1835.000000	0.411186
1836.000000	0.411292
1837.000000	0.411000
1838.000000	0.410442
1839.000000	0.410096
1840.000000	0.408773
1841.000000	0.408179
1842.000000	0.407817
1843.000000	0.407244
1844.000000	0.407211
1845.000000	0.408332
1846.000000	0.408380
1847.000000	0.407777
1848.000000	0.407576
1849.000000	0.406795
1850.000000	0.405531
1851.000000	0.405089
1852.000000	0.404867
1853.000000	0.404894
1854.000000	0.405793
1855.000000	0.405479
1856.000000	0.404795
1857.000000	0.403587
1858.000000	0.402196
1859.000000	0.400394
1860.000000	0.399128
1861.000000	0.398633
1862.000000	0.397628
1863.000000	0.396913
1864.000000	0.395552
1865.000000	0.393536
1866.000000	0.391804
1867.000000	0.389696
1868.000000	0.388062
1869.000000	0.386189
1870.000000	0.384649
1871.000000	0.383009
1872.000000	0.380096
1873.000000	0.377579
1874.000000	0.375215
1875.000000	0.372244
1876.000000	0.368355
1877.000000	0.365146
1878.000000	0.361450
1879.000000	0.357442
1880.000000	0.353770
1881.000000	0.349442
1882.000000	0.344604
1883.000000	0.339762
1884.000000	0.335059
1885.000000	0.330251
1886.000000	0.325060
1887.000000	0.319980
1888.000000	0.314102
1889.000000	0.307647
1890.000000	0.301593
1891.000000	0.295783
1892.000000	0.290328
1893.000000	0.284759
1894.000000	0.279404
1895.000000	0.274263
1896.000000	0.269410
1897.000000	0.264373
1898.000000	0.259720
1899.000000	0.255629
1900.000000	0.251655
1901.000000	0.248175
1902.000000	0.245599
1903.000000	0.243348
1904.000000	0.241714
1905.000000	0.241011
1906.000000	0.240220
1907.000000	0.239860
1908.000000	0.239869
1909.000000	0.239674
1910.000000	0.239511
1911.000000	0.239677
1912.000000	0.239601
1913.000000	0.240197
1914.000000	0.240865
1915.000000	0.241454
1916.000000	0.242639
1917.000000	0.243505
1918.000000	0.244303
1919.000000	0.245249
1920.000000	0.246316
1921.000000	0.247280
1922.000000	0.248338
1923.000000	0.248984
1924.000000	0.249684
1925.000000	0.250248
1926.000000	0.250888
1927.000000	0.251736
1928.000000	0.252523
1929.000000	0.253201
1930.000000	0.254404
1931.000000	0.255570
1932.000000	0.256821
1933.000000	0.258129
1934.000000	0.258660
1935.000000	0.258969
1936.000000	0.259148
1937.000000	0.259444
1938.000000	0.260144
1939.000000	0.260761
1940.000000	0.261474
1941.000000	0.262356
1942.000000	0.263475
1943.000000	0.264188
1944.000000	0.265002
1945.000000	0.265669
1946.000000	0.265852
1947.000000	0.265955
1948.000000	0.265776
1949.000000	0.266044
1950.000000	0.266358
1951.000000	0.266372
1952.000000	0.266258
1953.000000	0.266470
1954.000000	0.266576
1955.000000	0.266984
1956.000000	0.267729
1957.000000	0.267967
1958.000000	0.268101
1959.000000	0.268166
1960.000000	0.268251
1961.000000	0.269126
1962.000000	0.269648
1963.000000	0.270347
1964.000000	0.270813
1965.000000	0.271307
1966.000000	0.271071
1967.000000	0.271524
1968.000000	0.272417
1969.000000	0.272982
1970.000000	0.273922
1971.000000	0.274307
1972.000000	0.274457
1973.000000	0.274726
1974.000000	0.274968
1975.000000	0.275420
1976.000000	0.276092
1977.000000	0.276777
1978.000000	0.277543
1979.000000	0.278163
1980.000000	0.279101
1981.000000	0.280466
1982.000000	0.281383
1983.000000	0.282376
1984.000000	0.283211
1985.000000	0.283730
1986.000000	0.284277
1987.000000	0.284802
1988.000000	0.285561
1989.000000	0.286299
1990.000000	0.287669
1991.000000	0.288916
1992.000000	0.289935
1993.000000	0.291319
1994.000000	0.291931
1995.000000	0.292388
1996.000000	0.293306
1997.000000	0.294106
1998.000000	0.294785
1999.000000	0.295729
2000.000000	0.296908
2001.000000	0.298063
2002.000000	0.298815
2003.000000	0.299643
2004.000000	0.301104
2005.000000	0.301765
2006.000000	0.302856
2007.000000	0.304266
2008.000000	0.305220
2009.000000	0.305746
2010.000000	0.306544
2011.000000	0.307002
2012.000000	0.307775
2013.000000	0.308641
2014.000000	0.309463
2015.000000	0.310296
2016.000000	0.310744
2017.000000	0.311268
2018.000000	0.311948
2019.000000	0.312876
2020.000000	0.313875
2021.000000	0.314853
2022.000000	0.315665
2023.000000	0.316779
2024.000000	0.318158
2025.000000	0.319631
2026.000000	0.321466
2027.000000	0.322714
2028.000000	0.323215
2029.000000	0.323333
2030.000000	0.323225
2031.000000	0.322910
2032.000000	0.323588
2033.000000	0.324426
2034.000000	0.325132
2035.000000	0.326233
2036.000000	0.326842
2037.000000	0.327048
2038.000000	0.328083
2039.000000	0.329739
2040.000000	0.330745
2041.000000	0.331721
2042.000000	0.332881
2043.000000	0.332931
2044.000000	0.332888
2045.000000	0.333787
2046.000000	0.334274
2047.000000	0.334745
2048.000000	0.335241
2049.000000	0.335938
2050.000000	0.336006
2051.000000	0.336418
2052.000000	0.337097
2053.000000	0.337386
2054.000000	0.337805
2055.000000	0.338477
2056.000000	0.338317
2057.000000	0.338634
2058.000000	0.339773
2059.000000	0.340681
2060.000000	0.341349
2061.000000	0.342561
2062.000000	0.342913
2063.000000	0.342302
2064.000000	0.342168
2065.000000	0.342093
2066.000000	0.342433
2067.000000	0.343467
2068.000000	0.344340
2069.000000	0.345227
2070.000000	0.345761
2071.000000	0.344936
2072.000000	0.344414
2073.000000	0.344581
2074.000000	0.344889
2075.000000	0.345307
2076.000000	0.346464
2077.000000	0.347071
2078.000000	0.347162
2079.000000	0.347533
2080.000000	0.348273
2081.000000	0.348853
2082.000000	0.349422
2083.000000	0.350088
2084.000000	0.350155
2085.000000	0.350106
2086.000000	0.349733
2087.000000	0.350088
2088.000000	0.351547
2089.000000	0.352553
2090.000000	0.353144
2091.000000	0.353736
2092.000000	0.354179
2093.000000	0.353798
2094.000000	0.354109
2095.000000	0.355138
2096.000000	0.355812
2097.000000	0.356401
2098.000000	0.356629
2099.000000	0.357429
2100.000000	0.358010
2101.000000	0.358498
2102.000000	0.359290
2103.000000	0.358834
2104.000000	0.357957
2105.000000	0.357986
2106.000000	0.358112
2107.000000	0.358421
2108.000000	0.359864
2109.000000	0.360472
2110.000000	0.359777
2111.000000	0.360011
2112.000000	0.360967
2113.000000	0.360673
2114.000000	0.360400
2115.000000	0.361580
2116.000000	0.361054
2117.000000	0.360592
2118.000000	0.360575
2119.000000	0.359533
2120.000000	0.359520
2121.000000	0.359893
2122.000000	0.360246
2123.000000	0.361293
2124.000000	0.361865
2125.000000	0.362448
2126.000000	0.362713
2127.000000	0.362299
2128.000000	0.362628
2129.000000	0.363070
2130.000000	0.363519
2131.000000	0.364077
2132.000000	0.364024
2133.000000	0.364425
2134.000000	0.364124
2135.000000	0.363529
2136.000000	0.364079
2137.000000	0.363995
2138.000000	0.363227
2139.000000	0.363291
2140.000000	0.363582
2141.000000	0.364332
2142.000000	0.365506
2143.000000	0.366467
2144.000000	0.368786
2145.000000	0.369631
2146.000000	0.369348
2147.000000	0.370467
2148.000000	0.370731
2149.000000	0.369646
2150.000000	0.369597
2151.000000	0.368762
2152.000000	0.367771
2153.000000	0.367759
2154.000000	0.367715
2155.000000	0.368360
2156.000000	0.368717
2157.000000	0.369227
2158.000000	0.369512
2159.000000	0.369962
2160.000000	0.369991
2161.000000	0.369492
2162.000000	0.369290
2163.000000	0.369022
2164.000000	0.368329
2165.000000	0.367226
2166.000000	0.366481
2167.000000	0.365813
2168.000000	0.366045
2169.000000	0.366994
2170.000000	0.367994
2171.000000	0.368570
2172.000000	0.369102
2173.000000	0.368805
2174.000000	0.367892
2175.000000	0.367497
2176.000000	0.366378
2177.000000	0.366325
2178.000000	0.367117
2179.000000	0.367789
2180.000000	0.369259
2181.000000	0.369900
2182.000000	0.369825
2183.000000	0.369412
2184.000000	0.367450
2185.000000	0.366412
2186.000000	0.363890
2187.000000	0.362043
2188.000000	0.363464
2189.000000	0.363882
2190.000000	0.366038
2191.000000	0.369285
2192.000000	0.370143
2193.000000	0.368910
2194.000000	0.367950
2195.000000	0.365600
2196.000000	0.364445
2197.000000	0.362333
2198.000000	0.362241
2199.000000	0.364513
2200.000000	0.365535
2201.000000	0.367977
2202.000000	0.368764
2203.000000	0.367681
2204.000000	0.367210
2205.000000	0.365193
2206.000000	0.363386
2207.000000	0.360604
2208.000000	0.359803
2209.000000	0.359904
2210.000000	0.361283
2211.000000	0.363298
2212.000000	0.362279
2213.000000	0.362696
2214.000000	0.363070
2215.000000	0.361957
2216.000000	0.360450
2217.000000	0.360436
2218.000000	0.358991
2219.000000	0.359219
2220.000000	0.362550
2221.000000	0.363543
2222.000000	0.362774
2223.000000	0.363115
2224.000000	0.363798
2225.000000	0.364234
2226.000000	0.363824
2227.000000	0.365239
2228.000000	0.365957
2229.000000	0.364624
2230.000000	0.363143
2231.000000	0.361267
2232.000000	0.358333
2233.000000	0.355673
2234.000000	0.354520
2235.000000	0.354246
2236.000000	0.354294
2237.000000	0.355760
2238.000000	0.356013
2239.000000	0.355771
2240.000000	0.356438
2241.000000	0.357995
2242.000000	0.358225
2243.000000	0.356936
2244.000000	0.358070
2245.000000	0.359790
2246.000000	0.360629
2247.000000	0.364332
2248.000000	0.365279
2249.000000	0.364165
2250.000000	0.361949
2251.000000	0.358811
2252.000000	0.356697
2253.000000	0.353320
2254.000000	0.351956
2255.000000	0.353585
2256.000000	0.354756
2257.000000	0.354899
2258.000000	0.353983
2259.000000	0.353506
2260.000000	0.352115
2261.000000	0.350592
2262.000000	0.350419
2263.000000	0.349098
2264.000000	0.344849
2265.000000	0.343891
2266.000000	0.344947
2267.000000	0.345151
2268.000000	0.347055
2269.000000	0.347789
2270.000000	0.347513
2271.000000	0.347348
2272.000000	0.346719
2273.000000	0.346290
2274.000000	0.345823
2275.000000	0.344662
2276.000000	0.343683
2277.000000	0.342034
2278.000000	0.338709
2279.000000	0.336837
2280.000000	0.333023
2281.000000	0.329672
2282.000000	0.327442
2283.000000	0.325612
2284.000000	0.326325
2285.000000	0.326340
2286.000000	0.324197
2287.000000	0.323126
2288.000000	0.322113
2289.000000	0.318979
2290.000000	0.315652
2291.000000	0.312700
2292.000000	0.309994
2293.000000	0.307544
2294.000000	0.305628
2295.000000	0.305168
2296.000000	0.304368
2297.000000	0.303157
2298.000000	0.302135
2299.000000	0.302141
2300.000000	0.301575
2301.000000	0.300704
2302.000000	0.299577
2303.000000	0.298930
2304.000000	0.296283
2305.000000	0.291505
2306.000000	0.288333
2307.000000	0.284572
2308.000000	0.281553
2309.000000	0.281126
2310.000000	0.279402
2311.000000	0.277775
2312.000000	0.277033
2313.000000	0.275843
2314.000000	0.274349
2315.000000	0.273200
2316.000000	0.272908
2317.000000	0.275132
2318.000000	0.279853
2319.000000	0.284187
2320.000000	0.289807
2321.000000	0.293030
2322.000000	0.293562
2323.000000	0.296098
2324.000000	0.298058
2325.000000	0.301461
2326.000000	0.304481
2327.000000	0.306238
2328.000000	0.308624
2329.000000	0.307626
2330.000000	0.306843
2331.000000	0.305603
2332.000000	0.302742
2333.000000	0.302690
2334.000000	0.301366
2335.000000	0.302399
2336.000000	0.307615
2337.000000	0.309195
2338.000000	0.309417
2339.000000	0.310015
2340.000000	0.308173
2341.000000	0.306675
2342.000000	0.305555
2343.000000	0.305772
2344.000000	0.305694
2345.000000	0.307265
2346.000000	0.312566
2347.000000	0.314029
2348.000000	0.314572
2349.000000	0.314772
2350.000000	0.310000
2351.000000	0.304709
2352.000000	0.301859
2353.000000	0.298796
2354.000000	0.297691
2355.000000	0.300755
2356.000000	0.302910
2357.000000	0.302332
2358.000000	0.301178
2359.000000	0.298065
2360.000000	0.296752
2361.000000	0.298222
2362.000000	0.298367
2363.000000	0.300842
2364.000000	0.302939
2365.000000	0.301116
2366.000000	0.298373
2367.000000	0.295251
2368.000000	0.290875
2369.000000	0.286665
2370.000000	0.285076
2371.000000	0.285479
2372.000000	0.285028
2373.000000	0.285364
2374.000000	0.285594
2375.000000	0.285636
2376.000000	0.288143
2377.000000	0.288101
2378.000000	0.288459
2379.000000	0.286611
2380.000000	0.283964
2381.000000	0.283073
2382.000000	0.280560
2383.000000	0.282076
2384.000000	0.282243
2385.000000	0.280868
2386.000000	0.279351
2387.000000	0.279971
2388.000000	0.280285
2389.000000	0.275484
2390.000000	0.271545
2391.000000	0.267422
2392.000000	0.259202
2393.000000	0.247955
2394.000000	0.242503
2395.000000	0.241412
2396.000000	0.242921
2397.000000	0.254509
2398.000000	0.269448
2399.000000	0.279290
2400.000000	0.280643
2401.000000	0.279967
2402.000000	0.276862
2403.000000	0.271153
2404.000000	0.274264
2405.000000	0.275367
2406.000000	0.275323
2407.000000	0.273301
2408.000000	0.271804
2409.000000	0.271615
2410.000000	0.264096
2411.000000	0.267727
2412.000000	0.268973
2413.000000	0.267293
2414.000000	0.276845
2415.000000	0.276751
2416.000000	0.273412
2417.000000	0.271707
2418.000000	0.263427
2419.000000	0.259697
2420.000000	0.258479
2421.000000	0.256576
2422.000000	0.259881
2423.000000	0.261084
2424.000000	0.258081
2425.000000	0.253474
2426.000000	0.252130
2427.000000	0.258966
2428.000000	0.263206
2429.000000	0.264296
2430.000000	0.263679
2431.000000	0.256093
2432.000000	0.249840
2433.000000	0.246927
2434.000000	0.242750
2435.000000	0.240120
2436.000000	0.230179
2437.000000	0.224574
2438.000000	0.229651
2439.000000	0.224858
2440.000000	0.227081
2441.000000	0.230826
2442.000000	0.228622
2443.000000	0.236028
2444.000000	0.239703
2445.000000	0.239806
2446.000000	0.231578
2447.000000	0.219553
2448.000000	0.214625
2449.000000	0.212101
2450.000000	0.219150
2451.000000	0.229661
2452.000000	0.240083
2453.000000	0.241441
2454.000000	0.236830
2455.000000	0.233766
2456.000000	0.217210
2457.000000	0.213176
2458.000000	0.227327
2459.000000	0.246612
2460.000000	0.265792
2461.000000	0.277785
2462.000000	0.282828
2463.000000	0.266354
2464.000000	0.242461
2465.000000	0.228177
2466.000000	0.213194
2467.000000	0.214000
2468.000000	0.240046
2469.000000	0.265706
2470.000000	0.272929
2471.000000	0.263795
2472.000000	0.249700
2473.000000	0.232042
2474.000000	0.239998
2475.000000	0.276715
2476.000000	0.285119
2477.000000	0.286941
2478.000000	0.282978
2479.000000	0.241350
2480.000000	0.227093
2481.000000	0.231003
2482.000000	0.232278
2483.000000	0.214129
2484.000000	0.207032
2485.000000	0.213244
2486.000000	0.163887
2487.000000	0.176471
2488.000000	0.244547
2489.000000	0.279370
2490.000000	0.359496
2491.000000	0.426881
2492.000000	0.432567
2493.000000	0.399161
2494.000000	0.384911
2495.000000	0.326731
2496.000000	0.275676
2497.000000	0.204922
2498.000000	0.186778
2499.000000	0.222204
2500.000000	0.216089
