# Wavelength	SM1200H-80_FV7-20_00000.asd.rts.txt
350.000000	0.373150
351.000000	0.370764
352.000000	0.363023
353.000000	0.357670
354.000000	0.360605
355.000000	0.364529
356.000000	0.367697
357.000000	0.371331
358.000000	0.372500
359.000000	0.372207
360.000000	0.370458
361.000000	0.367125
362.000000	0.366901
363.000000	0.370059
364.000000	0.374242
365.000000	0.375783
366.000000	0.372939
367.000000	0.367945
368.000000	0.367702
369.000000	0.370555
370.000000	0.373858
371.000000	0.374914
372.000000	0.375691
373.000000	0.376160
374.000000	0.376933
375.000000	0.378003
376.000000	0.378446
377.000000	0.378015
378.000000	0.377461
379.000000	0.378700
380.000000	0.380468
381.000000	0.381854
382.000000	0.382867
383.000000	0.383304
384.000000	0.383444
385.000000	0.383166
386.000000	0.383664
387.000000	0.385180
388.000000	0.386464
389.000000	0.386831
390.000000	0.387335
391.000000	0.388935
392.000000	0.388730
393.000000	0.388374
394.000000	0.389288
395.000000	0.390300
396.000000	0.390656
397.000000	0.390515
398.000000	0.391560
399.000000	0.391592
400.000000	0.391392
401.000000	0.392622
402.000000	0.392925
403.000000	0.392763
404.000000	0.393106
405.000000	0.393611
406.000000	0.394294
407.000000	0.395160
408.000000	0.396007
409.000000	0.396428
410.000000	0.396522
411.000000	0.396631
412.000000	0.396686
413.000000	0.396929
414.000000	0.397540
415.000000	0.397794
416.000000	0.398008
417.000000	0.398405
418.000000	0.398856
419.000000	0.399200
420.000000	0.399431
421.000000	0.399657
422.000000	0.400227
423.000000	0.400766
424.000000	0.400914
425.000000	0.401487
426.000000	0.402018
427.000000	0.402151
428.000000	0.402473
429.000000	0.402957
430.000000	0.403458
431.000000	0.403591
432.000000	0.403915
433.000000	0.404296
434.000000	0.404486
435.000000	0.404832
436.000000	0.405161
437.000000	0.405285
438.000000	0.405629
439.000000	0.405880
440.000000	0.406045
441.000000	0.406264
442.000000	0.406429
443.000000	0.406540
444.000000	0.406939
445.000000	0.407279
446.000000	0.407618
447.000000	0.407838
448.000000	0.408157
449.000000	0.408441
450.000000	0.408654
451.000000	0.409108
452.000000	0.409374
453.000000	0.409386
454.000000	0.409883
455.000000	0.410298
456.000000	0.410645
457.000000	0.410866
458.000000	0.411181
459.000000	0.411534
460.000000	0.411907
461.000000	0.412243
462.000000	0.412568
463.000000	0.412671
464.000000	0.412725
465.000000	0.412955
466.000000	0.413230
467.000000	0.413387
468.000000	0.413577
469.000000	0.413693
470.000000	0.413867
471.000000	0.414107
472.000000	0.414307
473.000000	0.414470
474.000000	0.414718
475.000000	0.414872
476.000000	0.415102
477.000000	0.415410
478.000000	0.415488
479.000000	0.415676
480.000000	0.415975
481.000000	0.416125
482.000000	0.416363
483.000000	0.416577
484.000000	0.416868
485.000000	0.417112
486.000000	0.417470
487.000000	0.417665
488.000000	0.417795
489.000000	0.418019
490.000000	0.418520
491.000000	0.418770
492.000000	0.418956
493.000000	0.419196
494.000000	0.419427
495.000000	0.419669
496.000000	0.419897
497.000000	0.420258
498.000000	0.420562
499.000000	0.420861
500.000000	0.421180
501.000000	0.421539
502.000000	0.421935
503.000000	0.422219
504.000000	0.422586
505.000000	0.422927
506.000000	0.423142
507.000000	0.423400
508.000000	0.423713
509.000000	0.424022
510.000000	0.424388
511.000000	0.424678
512.000000	0.424938
513.000000	0.425275
514.000000	0.425617
515.000000	0.425966
516.000000	0.426246
517.000000	0.426529
518.000000	0.426874
519.000000	0.427178
520.000000	0.427481
521.000000	0.427757
522.000000	0.428020
523.000000	0.428315
524.000000	0.428621
525.000000	0.428907
526.000000	0.429206
527.000000	0.429466
528.000000	0.429713
529.000000	0.430054
530.000000	0.430331
531.000000	0.430656
532.000000	0.430960
533.000000	0.431251
534.000000	0.431529
535.000000	0.431781
536.000000	0.432054
537.000000	0.432338
538.000000	0.432601
539.000000	0.432787
540.000000	0.433034
541.000000	0.433330
542.000000	0.433684
543.000000	0.433978
544.000000	0.434313
545.000000	0.434619
546.000000	0.434856
547.000000	0.435167
548.000000	0.435576
549.000000	0.435884
550.000000	0.436192
551.000000	0.436523
552.000000	0.436799
553.000000	0.437058
554.000000	0.437319
555.000000	0.437614
556.000000	0.437999
557.000000	0.438312
558.000000	0.438668
559.000000	0.438954
560.000000	0.439186
561.000000	0.439486
562.000000	0.439784
563.000000	0.440053
564.000000	0.440367
565.000000	0.440639
566.000000	0.440959
567.000000	0.441320
568.000000	0.441664
569.000000	0.441952
570.000000	0.442233
571.000000	0.442501
572.000000	0.442751
573.000000	0.443026
574.000000	0.443289
575.000000	0.443571
576.000000	0.443868
577.000000	0.444134
578.000000	0.444427
579.000000	0.444705
580.000000	0.444995
581.000000	0.445296
582.000000	0.445585
583.000000	0.445869
584.000000	0.446155
585.000000	0.446453
586.000000	0.446722
587.000000	0.446955
588.000000	0.447166
589.000000	0.447410
590.000000	0.447650
591.000000	0.447861
592.000000	0.448061
593.000000	0.448284
594.000000	0.448533
595.000000	0.448786
596.000000	0.449053
597.000000	0.449362
598.000000	0.449600
599.000000	0.449811
600.000000	0.450057
601.000000	0.450268
602.000000	0.450508
603.000000	0.450699
604.000000	0.450836
605.000000	0.450990
606.000000	0.451144
607.000000	0.451287
608.000000	0.451409
609.000000	0.451524
610.000000	0.451624
611.000000	0.451705
612.000000	0.451870
613.000000	0.452046
614.000000	0.452224
615.000000	0.452361
616.000000	0.452488
617.000000	0.452581
618.000000	0.452717
619.000000	0.452888
620.000000	0.453006
621.000000	0.453058
622.000000	0.453152
623.000000	0.453271
624.000000	0.453382
625.000000	0.453491
626.000000	0.453528
627.000000	0.453488
628.000000	0.453456
629.000000	0.453555
630.000000	0.453587
631.000000	0.453610
632.000000	0.453647
633.000000	0.453728
634.000000	0.453848
635.000000	0.453987
636.000000	0.454148
637.000000	0.454310
638.000000	0.454500
639.000000	0.454693
640.000000	0.454938
641.000000	0.455098
642.000000	0.455255
643.000000	0.455433
644.000000	0.455634
645.000000	0.455748
646.000000	0.455847
647.000000	0.455955
648.000000	0.456099
649.000000	0.456228
650.000000	0.456309
651.000000	0.456434
652.000000	0.456537
653.000000	0.456655
654.000000	0.456739
655.000000	0.456864
656.000000	0.457005
657.000000	0.457058
658.000000	0.457178
659.000000	0.457296
660.000000	0.457360
661.000000	0.457446
662.000000	0.457478
663.000000	0.457553
664.000000	0.457710
665.000000	0.457888
666.000000	0.458050
667.000000	0.458137
668.000000	0.458270
669.000000	0.458382
670.000000	0.458460
671.000000	0.458589
672.000000	0.458751
673.000000	0.458913
674.000000	0.459059
675.000000	0.459136
676.000000	0.459200
677.000000	0.459343
678.000000	0.459426
679.000000	0.459487
680.000000	0.459577
681.000000	0.459656
682.000000	0.459794
683.000000	0.459921
684.000000	0.460166
685.000000	0.460358
686.000000	0.460523
687.000000	0.460666
688.000000	0.460761
689.000000	0.460863
690.000000	0.461053
691.000000	0.461242
692.000000	0.461356
693.000000	0.461484
694.000000	0.461638
695.000000	0.461777
696.000000	0.461894
697.000000	0.462002
698.000000	0.462117
699.000000	0.462221
700.000000	0.462314
701.000000	0.462417
702.000000	0.462547
703.000000	0.462651
704.000000	0.462649
705.000000	0.462714
706.000000	0.462793
707.000000	0.462890
708.000000	0.463070
709.000000	0.463242
710.000000	0.463361
711.000000	0.463497
712.000000	0.463634
713.000000	0.463761
714.000000	0.463776
715.000000	0.463754
716.000000	0.463787
717.000000	0.463926
718.000000	0.464015
719.000000	0.464064
720.000000	0.464141
721.000000	0.464305
722.000000	0.464444
723.000000	0.464579
724.000000	0.464632
725.000000	0.464651
726.000000	0.464735
727.000000	0.464761
728.000000	0.464843
729.000000	0.464957
730.000000	0.465001
731.000000	0.465090
732.000000	0.465193
733.000000	0.465317
734.000000	0.465341
735.000000	0.465310
736.000000	0.465410
737.000000	0.465489
738.000000	0.465461
739.000000	0.465506
740.000000	0.465518
741.000000	0.465595
742.000000	0.465747
743.000000	0.465904
744.000000	0.466035
745.000000	0.466101
746.000000	0.466169
747.000000	0.466186
748.000000	0.466199
749.000000	0.466236
750.000000	0.466261
751.000000	0.466301
752.000000	0.466335
753.000000	0.466386
754.000000	0.466475
755.000000	0.466642
756.000000	0.466830
757.000000	0.466893
758.000000	0.466895
759.000000	0.466909
760.000000	0.466887
761.000000	0.466943
762.000000	0.467025
763.000000	0.467096
764.000000	0.467245
765.000000	0.467402
766.000000	0.467538
767.000000	0.467617
768.000000	0.467609
769.000000	0.467516
770.000000	0.467411
771.000000	0.467456
772.000000	0.467570
773.000000	0.467629
774.000000	0.467692
775.000000	0.467715
776.000000	0.467736
777.000000	0.467748
778.000000	0.467682
779.000000	0.467661
780.000000	0.467716
781.000000	0.467761
782.000000	0.467703
783.000000	0.467710
784.000000	0.467719
785.000000	0.467723
786.000000	0.467731
787.000000	0.467751
788.000000	0.467831
789.000000	0.467861
790.000000	0.467819
791.000000	0.467802
792.000000	0.467727
793.000000	0.467663
794.000000	0.467679
795.000000	0.467739
796.000000	0.467751
797.000000	0.467697
798.000000	0.467659
799.000000	0.467707
800.000000	0.467784
801.000000	0.467809
802.000000	0.467805
803.000000	0.467758
804.000000	0.467740
805.000000	0.467796
806.000000	0.467775
807.000000	0.467760
808.000000	0.467725
809.000000	0.467704
810.000000	0.467736
811.000000	0.467810
812.000000	0.467889
813.000000	0.467873
814.000000	0.467755
815.000000	0.467647
816.000000	0.467568
817.000000	0.467532
818.000000	0.467427
819.000000	0.467411
820.000000	0.467422
821.000000	0.467395
822.000000	0.467505
823.000000	0.467589
824.000000	0.467532
825.000000	0.467431
826.000000	0.467289
827.000000	0.467137
828.000000	0.467048
829.000000	0.466956
830.000000	0.466831
831.000000	0.466761
832.000000	0.466650
833.000000	0.466715
834.000000	0.466841
835.000000	0.466931
836.000000	0.466899
837.000000	0.466731
838.000000	0.466543
839.000000	0.466485
840.000000	0.466446
841.000000	0.466405
842.000000	0.466320
843.000000	0.466350
844.000000	0.466344
845.000000	0.466230
846.000000	0.466141
847.000000	0.466132
848.000000	0.466137
849.000000	0.466115
850.000000	0.466042
851.000000	0.465910
852.000000	0.465796
853.000000	0.465716
854.000000	0.465591
855.000000	0.465582
856.000000	0.465606
857.000000	0.465602
858.000000	0.465598
859.000000	0.465495
860.000000	0.465346
861.000000	0.465213
862.000000	0.465127
863.000000	0.464991
864.000000	0.464864
865.000000	0.464769
866.000000	0.464736
867.000000	0.464683
868.000000	0.464626
869.000000	0.464493
870.000000	0.464358
871.000000	0.464161
872.000000	0.463970
873.000000	0.463766
874.000000	0.463661
875.000000	0.463551
876.000000	0.463500
877.000000	0.463495
878.000000	0.463291
879.000000	0.463110
880.000000	0.462888
881.000000	0.462690
882.000000	0.462519
883.000000	0.462403
884.000000	0.462267
885.000000	0.462134
886.000000	0.461945
887.000000	0.461725
888.000000	0.461525
889.000000	0.461446
890.000000	0.461264
891.000000	0.461008
892.000000	0.460763
893.000000	0.460501
894.000000	0.460363
895.000000	0.460176
896.000000	0.460020
897.000000	0.459894
898.000000	0.459763
899.000000	0.459523
900.000000	0.459284
901.000000	0.459102
902.000000	0.459137
903.000000	0.459066
904.000000	0.458934
905.000000	0.458737
906.000000	0.458661
907.000000	0.458436
908.000000	0.458112
909.000000	0.457831
910.000000	0.457555
911.000000	0.457363
912.000000	0.457321
913.000000	0.457261
914.000000	0.457037
915.000000	0.456777
916.000000	0.456564
917.000000	0.456403
918.000000	0.456252
919.000000	0.456040
920.000000	0.455768
921.000000	0.455422
922.000000	0.455061
923.000000	0.454742
924.000000	0.454528
925.000000	0.454344
926.000000	0.454162
927.000000	0.453892
928.000000	0.453683
929.000000	0.453425
930.000000	0.453002
931.000000	0.452713
932.000000	0.452480
933.000000	0.452283
934.000000	0.452038
935.000000	0.451795
936.000000	0.451569
937.000000	0.451222
938.000000	0.450851
939.000000	0.450573
940.000000	0.450258
941.000000	0.449897
942.000000	0.449568
943.000000	0.449316
944.000000	0.448973
945.000000	0.448653
946.000000	0.448163
947.000000	0.447746
948.000000	0.447567
949.000000	0.447268
950.000000	0.447092
951.000000	0.447051
952.000000	0.447079
953.000000	0.447057
954.000000	0.446949
955.000000	0.446679
956.000000	0.446423
957.000000	0.446184
958.000000	0.445857
959.000000	0.445518
960.000000	0.445355
961.000000	0.445191
962.000000	0.444918
963.000000	0.444633
964.000000	0.444467
965.000000	0.444337
966.000000	0.444013
967.000000	0.443743
968.000000	0.443564
969.000000	0.443365
970.000000	0.443180
971.000000	0.443175
972.000000	0.443050
973.000000	0.442656
974.000000	0.442363
975.000000	0.441948
976.000000	0.441613
977.000000	0.441522
978.000000	0.441542
979.000000	0.441505
980.000000	0.441160
981.000000	0.440947
982.000000	0.440590
983.000000	0.440261
984.000000	0.440140
985.000000	0.440132
986.000000	0.440107
987.000000	0.440057
988.000000	0.439812
989.000000	0.439390
990.000000	0.439141
991.000000	0.438989
992.000000	0.438832
993.000000	0.438889
994.000000	0.438768
995.000000	0.438646
996.000000	0.438533
997.000000	0.438517
998.000000	0.438488
999.000000	0.438410
1000.000000	0.438031
1001.000000	0.438571
1002.000000	0.438329
1003.000000	0.438030
1004.000000	0.437975
1005.000000	0.438112
1006.000000	0.437743
1007.000000	0.437240
1008.000000	0.437247
1009.000000	0.436831
1010.000000	0.436403
1011.000000	0.436628
1012.000000	0.436693
1013.000000	0.436322
1014.000000	0.435958
1015.000000	0.435931
1016.000000	0.436251
1017.000000	0.436553
1018.000000	0.436946
1019.000000	0.436894
1020.000000	0.436405
1021.000000	0.435884
1022.000000	0.435287
1023.000000	0.435227
1024.000000	0.435247
1025.000000	0.435435
1026.000000	0.435666
1027.000000	0.435938
1028.000000	0.436287
1029.000000	0.436649
1030.000000	0.436599
1031.000000	0.436359
1032.000000	0.436206
1033.000000	0.435837
1034.000000	0.435691
1035.000000	0.435735
1036.000000	0.435874
1037.000000	0.436215
1038.000000	0.436163
1039.000000	0.436214
1040.000000	0.436223
1041.000000	0.435913
1042.000000	0.435972
1043.000000	0.436004
1044.000000	0.435851
1045.000000	0.435884
1046.000000	0.435853
1047.000000	0.436083
1048.000000	0.436716
1049.000000	0.436843
1050.000000	0.436790
1051.000000	0.436831
1052.000000	0.436543
1053.000000	0.436518
1054.000000	0.437042
1055.000000	0.437362
1056.000000	0.437824
1057.000000	0.437965
1058.000000	0.438050
1059.000000	0.437965
1060.000000	0.438052
1061.000000	0.438302
1062.000000	0.438262
1063.000000	0.438385
1064.000000	0.438586
1065.000000	0.438642
1066.000000	0.438851
1067.000000	0.439253
1068.000000	0.439527
1069.000000	0.439713
1070.000000	0.439899
1071.000000	0.440247
1072.000000	0.440410
1073.000000	0.440415
1074.000000	0.440599
1075.000000	0.440732
1076.000000	0.440966
1077.000000	0.441288
1078.000000	0.441264
1079.000000	0.441416
1080.000000	0.441639
1081.000000	0.441761
1082.000000	0.442077
1083.000000	0.442137
1084.000000	0.441849
1085.000000	0.441987
1086.000000	0.442256
1087.000000	0.442516
1088.000000	0.442969
1089.000000	0.443187
1090.000000	0.443214
1091.000000	0.443093
1092.000000	0.443127
1093.000000	0.443567
1094.000000	0.443665
1095.000000	0.443552
1096.000000	0.443835
1097.000000	0.444252
1098.000000	0.444466
1099.000000	0.444828
1100.000000	0.445100
1101.000000	0.444977
1102.000000	0.445033
1103.000000	0.445180
1104.000000	0.445412
1105.000000	0.445680
1106.000000	0.445891
1107.000000	0.446199
1108.000000	0.446341
1109.000000	0.446432
1110.000000	0.446354
1111.000000	0.446483
1112.000000	0.446658
1113.000000	0.446849
1114.000000	0.447159
1115.000000	0.447381
1116.000000	0.447635
1117.000000	0.447736
1118.000000	0.447680
1119.000000	0.447687
1120.000000	0.447572
1121.000000	0.447595
1122.000000	0.447843
1123.000000	0.448310
1124.000000	0.448677
1125.000000	0.448965
1126.000000	0.449274
1127.000000	0.449377
1128.000000	0.449338
1129.000000	0.449099
1130.000000	0.449095
1131.000000	0.449082
1132.000000	0.449066
1133.000000	0.449212
1134.000000	0.449338
1135.000000	0.449414
1136.000000	0.449385
1137.000000	0.449392
1138.000000	0.449248
1139.000000	0.448902
1140.000000	0.448901
1141.000000	0.448996
1142.000000	0.449048
1143.000000	0.449161
1144.000000	0.449366
1145.000000	0.449364
1146.000000	0.449150
1147.000000	0.449151
1148.000000	0.449075
1149.000000	0.449105
1150.000000	0.449275
1151.000000	0.449372
1152.000000	0.449341
1153.000000	0.449466
1154.000000	0.449680
1155.000000	0.449702
1156.000000	0.449636
1157.000000	0.449726
1158.000000	0.449692
1159.000000	0.449711
1160.000000	0.449904
1161.000000	0.450016
1162.000000	0.450136
1163.000000	0.450398
1164.000000	0.450436
1165.000000	0.450433
1166.000000	0.450511
1167.000000	0.450442
1168.000000	0.450409
1169.000000	0.450520
1170.000000	0.450587
1171.000000	0.450656
1172.000000	0.450747
1173.000000	0.450844
1174.000000	0.450876
1175.000000	0.450819
1176.000000	0.450725
1177.000000	0.450657
1178.000000	0.450660
1179.000000	0.450692
1180.000000	0.450606
1181.000000	0.450616
1182.000000	0.450625
1183.000000	0.450698
1184.000000	0.450820
1185.000000	0.450867
1186.000000	0.450950
1187.000000	0.451019
1188.000000	0.451007
1189.000000	0.450991
1190.000000	0.451112
1191.000000	0.451151
1192.000000	0.451237
1193.000000	0.451409
1194.000000	0.451461
1195.000000	0.451500
1196.000000	0.451445
1197.000000	0.451419
1198.000000	0.451401
1199.000000	0.451401
1200.000000	0.451412
1201.000000	0.451390
1202.000000	0.451345
1203.000000	0.451341
1204.000000	0.451300
1205.000000	0.451307
1206.000000	0.451253
1207.000000	0.451348
1208.000000	0.451253
1209.000000	0.451126
1210.000000	0.451081
1211.000000	0.450999
1212.000000	0.450948
1213.000000	0.451027
1214.000000	0.451051
1215.000000	0.451005
1216.000000	0.451003
1217.000000	0.450993
1218.000000	0.450972
1219.000000	0.450987
1220.000000	0.451017
1221.000000	0.451103
1222.000000	0.451115
1223.000000	0.451158
1224.000000	0.451168
1225.000000	0.451082
1226.000000	0.451155
1227.000000	0.451223
1228.000000	0.451273
1229.000000	0.451208
1230.000000	0.451057
1231.000000	0.450862
1232.000000	0.450710
1233.000000	0.450708
1234.000000	0.450728
1235.000000	0.450704
1236.000000	0.450579
1237.000000	0.450556
1238.000000	0.450468
1239.000000	0.450453
1240.000000	0.450507
1241.000000	0.450581
1242.000000	0.450669
1243.000000	0.450644
1244.000000	0.450609
1245.000000	0.450708
1246.000000	0.450715
1247.000000	0.450811
1248.000000	0.450916
1249.000000	0.450920
1250.000000	0.450897
1251.000000	0.450869
1252.000000	0.450852
1253.000000	0.450889
1254.000000	0.450857
1255.000000	0.450791
1256.000000	0.450772
1257.000000	0.450759
1258.000000	0.450770
1259.000000	0.450793
1260.000000	0.450799
1261.000000	0.450607
1262.000000	0.450561
1263.000000	0.450621
1264.000000	0.450595
1265.000000	0.450709
1266.000000	0.450770
1267.000000	0.450684
1268.000000	0.450587
1269.000000	0.450417
1270.000000	0.450348
1271.000000	0.450260
1272.000000	0.450206
1273.000000	0.450182
1274.000000	0.450086
1275.000000	0.450039
1276.000000	0.450081
1277.000000	0.450160
1278.000000	0.450183
1279.000000	0.450149
1280.000000	0.449975
1281.000000	0.449872
1282.000000	0.449816
1283.000000	0.449851
1284.000000	0.449872
1285.000000	0.449930
1286.000000	0.450010
1287.000000	0.450022
1288.000000	0.450106
1289.000000	0.450087
1290.000000	0.449820
1291.000000	0.449671
1292.000000	0.449638
1293.000000	0.449555
1294.000000	0.449525
1295.000000	0.449497
1296.000000	0.449271
1297.000000	0.449107
1298.000000	0.449167
1299.000000	0.449130
1300.000000	0.449131
1301.000000	0.449176
1302.000000	0.449055
1303.000000	0.448910
1304.000000	0.448829
1305.000000	0.448873
1306.000000	0.448823
1307.000000	0.448907
1308.000000	0.448897
1309.000000	0.448751
1310.000000	0.448669
1311.000000	0.448624
1312.000000	0.448497
1313.000000	0.448463
1314.000000	0.448437
1315.000000	0.448360
1316.000000	0.448328
1317.000000	0.448258
1318.000000	0.448156
1319.000000	0.447987
1320.000000	0.447894
1321.000000	0.447824
1322.000000	0.447690
1323.000000	0.447618
1324.000000	0.447569
1325.000000	0.447392
1326.000000	0.447156
1327.000000	0.446890
1328.000000	0.446718
1329.000000	0.446436
1330.000000	0.446051
1331.000000	0.445882
1332.000000	0.445905
1333.000000	0.445778
1334.000000	0.445818
1335.000000	0.445816
1336.000000	0.445669
1337.000000	0.445526
1338.000000	0.445318
1339.000000	0.445197
1340.000000	0.445003
1341.000000	0.444901
1342.000000	0.444939
1343.000000	0.444848
1344.000000	0.444770
1345.000000	0.444701
1346.000000	0.444615
1347.000000	0.444464
1348.000000	0.444263
1349.000000	0.443950
1350.000000	0.443811
1351.000000	0.443681
1352.000000	0.443531
1353.000000	0.443406
1354.000000	0.443212
1355.000000	0.442931
1356.000000	0.442869
1357.000000	0.442761
1358.000000	0.442520
1359.000000	0.442302
1360.000000	0.442045
1361.000000	0.441745
1362.000000	0.441420
1363.000000	0.441056
1364.000000	0.440744
1365.000000	0.440361
1366.000000	0.440004
1367.000000	0.439703
1368.000000	0.439331
1369.000000	0.438986
1370.000000	0.438451
1371.000000	0.437797
1372.000000	0.437066
1373.000000	0.436254
1374.000000	0.435359
1375.000000	0.434236
1376.000000	0.433028
1377.000000	0.431497
1378.000000	0.429484
1379.000000	0.427206
1380.000000	0.424499
1381.000000	0.421198
1382.000000	0.417671
1383.000000	0.413857
1384.000000	0.409677
1385.000000	0.405590
1386.000000	0.401757
1387.000000	0.398319
1388.000000	0.395481
1389.000000	0.393313
1390.000000	0.391836
1391.000000	0.390964
1392.000000	0.390713
1393.000000	0.390860
1394.000000	0.391791
1395.000000	0.392637
1396.000000	0.394010
1397.000000	0.394876
1398.000000	0.395736
1399.000000	0.396206
1400.000000	0.396366
1401.000000	0.396293
1402.000000	0.396023
1403.000000	0.395536
1404.000000	0.394915
1405.000000	0.394134
1406.000000	0.393346
1407.000000	0.392599
1408.000000	0.391846
1409.000000	0.391246
1410.000000	0.390818
1411.000000	0.390427
1412.000000	0.390104
1413.000000	0.390034
1414.000000	0.390048
1415.000000	0.390101
1416.000000	0.390256
1417.000000	0.390480
1418.000000	0.390706
1419.000000	0.391108
1420.000000	0.391556
1421.000000	0.392131
1422.000000	0.392778
1423.000000	0.393471
1424.000000	0.394078
1425.000000	0.394673
1426.000000	0.395203
1427.000000	0.395777
1428.000000	0.396447
1429.000000	0.397133
1430.000000	0.397821
1431.000000	0.398488
1432.000000	0.399067
1433.000000	0.399601
1434.000000	0.400122
1435.000000	0.400714
1436.000000	0.401243
1437.000000	0.401752
1438.000000	0.402144
1439.000000	0.402487
1440.000000	0.402843
1441.000000	0.403201
1442.000000	0.403551
1443.000000	0.403828
1444.000000	0.404056
1445.000000	0.404303
1446.000000	0.404506
1447.000000	0.404763
1448.000000	0.405033
1449.000000	0.405217
1450.000000	0.405331
1451.000000	0.405407
1452.000000	0.405440
1453.000000	0.405470
1454.000000	0.405471
1455.000000	0.405459
1456.000000	0.405565
1457.000000	0.405739
1458.000000	0.405886
1459.000000	0.406056
1460.000000	0.406204
1461.000000	0.406343
1462.000000	0.406546
1463.000000	0.406695
1464.000000	0.406958
1465.000000	0.407350
1466.000000	0.407676
1467.000000	0.408122
1468.000000	0.408603
1469.000000	0.409011
1470.000000	0.409359
1471.000000	0.409814
1472.000000	0.410271
1473.000000	0.410775
1474.000000	0.411296
1475.000000	0.411854
1476.000000	0.412385
1477.000000	0.412902
1478.000000	0.413450
1479.000000	0.413926
1480.000000	0.414346
1481.000000	0.414753
1482.000000	0.415223
1483.000000	0.415673
1484.000000	0.416094
1485.000000	0.416507
1486.000000	0.416891
1487.000000	0.417275
1488.000000	0.417679
1489.000000	0.418099
1490.000000	0.418344
1491.000000	0.418686
1492.000000	0.419028
1493.000000	0.419332
1494.000000	0.419579
1495.000000	0.419858
1496.000000	0.420118
1497.000000	0.420364
1498.000000	0.420656
1499.000000	0.420887
1500.000000	0.421112
1501.000000	0.421355
1502.000000	0.421588
1503.000000	0.421924
1504.000000	0.422283
1505.000000	0.422557
1506.000000	0.422821
1507.000000	0.423031
1508.000000	0.423289
1509.000000	0.423526
1510.000000	0.423694
1511.000000	0.423936
1512.000000	0.424063
1513.000000	0.424183
1514.000000	0.424454
1515.000000	0.424636
1516.000000	0.424866
1517.000000	0.425068
1518.000000	0.425184
1519.000000	0.425296
1520.000000	0.425459
1521.000000	0.425555
1522.000000	0.425733
1523.000000	0.426030
1524.000000	0.426244
1525.000000	0.426451
1526.000000	0.426569
1527.000000	0.426641
1528.000000	0.426782
1529.000000	0.426917
1530.000000	0.426991
1531.000000	0.427208
1532.000000	0.427412
1533.000000	0.427529
1534.000000	0.427789
1535.000000	0.428040
1536.000000	0.428185
1537.000000	0.428555
1538.000000	0.428920
1539.000000	0.429104
1540.000000	0.429345
1541.000000	0.429556
1542.000000	0.429684
1543.000000	0.429881
1544.000000	0.430031
1545.000000	0.430166
1546.000000	0.430357
1547.000000	0.430545
1548.000000	0.430772
1549.000000	0.430988
1550.000000	0.431128
1551.000000	0.431270
1552.000000	0.431430
1553.000000	0.431559
1554.000000	0.431679
1555.000000	0.431851
1556.000000	0.432075
1557.000000	0.432302
1558.000000	0.432528
1559.000000	0.432753
1560.000000	0.432849
1561.000000	0.432882
1562.000000	0.432923
1563.000000	0.432975
1564.000000	0.433015
1565.000000	0.433062
1566.000000	0.432987
1567.000000	0.432955
1568.000000	0.432915
1569.000000	0.432910
1570.000000	0.432916
1571.000000	0.432914
1572.000000	0.432895
1573.000000	0.432912
1574.000000	0.432872
1575.000000	0.432784
1576.000000	0.432805
1577.000000	0.432825
1578.000000	0.432855
1579.000000	0.433041
1580.000000	0.433143
1581.000000	0.433307
1582.000000	0.433419
1583.000000	0.433494
1584.000000	0.433552
1585.000000	0.433685
1586.000000	0.433796
1587.000000	0.433890
1588.000000	0.433978
1589.000000	0.434114
1590.000000	0.434173
1591.000000	0.434237
1592.000000	0.434263
1593.000000	0.434247
1594.000000	0.434192
1595.000000	0.434151
1596.000000	0.434168
1597.000000	0.434203
1598.000000	0.434221
1599.000000	0.434368
1600.000000	0.434360
1601.000000	0.434359
1602.000000	0.434370
1603.000000	0.434360
1604.000000	0.434366
1605.000000	0.434455
1606.000000	0.434459
1607.000000	0.434514
1608.000000	0.434499
1609.000000	0.434475
1610.000000	0.434427
1611.000000	0.434360
1612.000000	0.434311
1613.000000	0.434364
1614.000000	0.434394
1615.000000	0.434556
1616.000000	0.434655
1617.000000	0.434675
1618.000000	0.434696
1619.000000	0.434634
1620.000000	0.434616
1621.000000	0.434656
1622.000000	0.434746
1623.000000	0.434812
1624.000000	0.434871
1625.000000	0.434761
1626.000000	0.434682
1627.000000	0.434625
1628.000000	0.434657
1629.000000	0.434728
1630.000000	0.434829
1631.000000	0.434886
1632.000000	0.434891
1633.000000	0.434941
1634.000000	0.434930
1635.000000	0.434947
1636.000000	0.434871
1637.000000	0.434708
1638.000000	0.434582
1639.000000	0.434488
1640.000000	0.434396
1641.000000	0.434408
1642.000000	0.434419
1643.000000	0.434482
1644.000000	0.434488
1645.000000	0.434532
1646.000000	0.434480
1647.000000	0.434367
1648.000000	0.434294
1649.000000	0.434366
1650.000000	0.434354
1651.000000	0.434390
1652.000000	0.434385
1653.000000	0.434179
1654.000000	0.434185
1655.000000	0.434249
1656.000000	0.434119
1657.000000	0.434111
1658.000000	0.434033
1659.000000	0.433918
1660.000000	0.433894
1661.000000	0.433822
1662.000000	0.433804
1663.000000	0.433764
1664.000000	0.433750
1665.000000	0.433821
1666.000000	0.433875
1667.000000	0.433778
1668.000000	0.433778
1669.000000	0.433764
1670.000000	0.433706
1671.000000	0.433836
1672.000000	0.433898
1673.000000	0.433857
1674.000000	0.433893
1675.000000	0.433954
1676.000000	0.433949
1677.000000	0.433966
1678.000000	0.433933
1679.000000	0.433811
1680.000000	0.433635
1681.000000	0.433524
1682.000000	0.433453
1683.000000	0.433431
1684.000000	0.433492
1685.000000	0.433548
1686.000000	0.433544
1687.000000	0.433595
1688.000000	0.433568
1689.000000	0.433567
1690.000000	0.433553
1691.000000	0.433596
1692.000000	0.433599
1693.000000	0.433597
1694.000000	0.433604
1695.000000	0.433618
1696.000000	0.433585
1697.000000	0.433509
1698.000000	0.433478
1699.000000	0.433485
1700.000000	0.433499
1701.000000	0.433616
1702.000000	0.433556
1703.000000	0.433472
1704.000000	0.433498
1705.000000	0.433520
1706.000000	0.433601
1707.000000	0.433668
1708.000000	0.433733
1709.000000	0.433671
1710.000000	0.433671
1711.000000	0.433650
1712.000000	0.433631
1713.000000	0.433518
1714.000000	0.433364
1715.000000	0.433274
1716.000000	0.433211
1717.000000	0.433055
1718.000000	0.432853
1719.000000	0.432639
1720.000000	0.432339
1721.000000	0.432185
1722.000000	0.432202
1723.000000	0.432095
1724.000000	0.432012
1725.000000	0.431918
1726.000000	0.431628
1727.000000	0.431438
1728.000000	0.431209
1729.000000	0.430951
1730.000000	0.430825
1731.000000	0.430763
1732.000000	0.430786
1733.000000	0.430838
1734.000000	0.430787
1735.000000	0.430769
1736.000000	0.430674
1737.000000	0.430697
1738.000000	0.430837
1739.000000	0.430897
1740.000000	0.430981
1741.000000	0.430944
1742.000000	0.430829
1743.000000	0.430816
1744.000000	0.430790
1745.000000	0.430648
1746.000000	0.430457
1747.000000	0.430356
1748.000000	0.430163
1749.000000	0.430064
1750.000000	0.429893
1751.000000	0.429755
1752.000000	0.429741
1753.000000	0.429624
1754.000000	0.429504
1755.000000	0.429325
1756.000000	0.429135
1757.000000	0.428875
1758.000000	0.428744
1759.000000	0.428632
1760.000000	0.428571
1761.000000	0.428652
1762.000000	0.428556
1763.000000	0.428390
1764.000000	0.428261
1765.000000	0.427942
1766.000000	0.427824
1767.000000	0.427777
1768.000000	0.427629
1769.000000	0.427647
1770.000000	0.427628
1771.000000	0.427470
1772.000000	0.427382
1773.000000	0.427253
1774.000000	0.427185
1775.000000	0.427230
1776.000000	0.427243
1777.000000	0.427238
1778.000000	0.427204
1779.000000	0.427148
1780.000000	0.427088
1781.000000	0.426956
1782.000000	0.426867
1783.000000	0.426836
1784.000000	0.426806
1785.000000	0.426719
1786.000000	0.426649
1787.000000	0.426694
1788.000000	0.426603
1789.000000	0.426503
1790.000000	0.426377
1791.000000	0.426227
1792.000000	0.426289
1793.000000	0.426240
1794.000000	0.426135
1795.000000	0.426071
1796.000000	0.425903
1797.000000	0.425829
1798.000000	0.425840
1799.000000	0.425806
1800.000000	0.425838
1801.000000	0.425756
1802.000000	0.425969
1803.000000	0.425758
1804.000000	0.425740
1805.000000	0.425407
1806.000000	0.425468
1807.000000	0.426097
1808.000000	0.426121
1809.000000	0.425819
1810.000000	0.425862
1811.000000	0.425489
1812.000000	0.424426
1813.000000	0.424103
1814.000000	0.424034
1815.000000	0.423943
1816.000000	0.424162
1817.000000	0.424058
1818.000000	0.423700
1819.000000	0.424154
1820.000000	0.423902
1821.000000	0.423337
1822.000000	0.423159
1823.000000	0.422693
1824.000000	0.422504
1825.000000	0.422665
1826.000000	0.422854
1827.000000	0.423010
1828.000000	0.423104
1829.000000	0.423346
1830.000000	0.423505
1831.000000	0.423586
1832.000000	0.423568
1833.000000	0.423534
1834.000000	0.423499
1835.000000	0.423361
1836.000000	0.423145
1837.000000	0.422861
1838.000000	0.422508
1839.000000	0.421505
1840.000000	0.421013
1841.000000	0.420221
1842.000000	0.419777
1843.000000	0.419460
1844.000000	0.419491
1845.000000	0.419841
1846.000000	0.419956
1847.000000	0.420059
1848.000000	0.419987
1849.000000	0.419677
1850.000000	0.419262
1851.000000	0.419047
1852.000000	0.418676
1853.000000	0.418642
1854.000000	0.418850
1855.000000	0.418559
1856.000000	0.418073
1857.000000	0.417680
1858.000000	0.416786
1859.000000	0.415651
1860.000000	0.414698
1861.000000	0.413651
1862.000000	0.412512
1863.000000	0.411385
1864.000000	0.410301
1865.000000	0.409220
1866.000000	0.408050
1867.000000	0.407024
1868.000000	0.405490
1869.000000	0.403651
1870.000000	0.401792
1871.000000	0.399692
1872.000000	0.397208
1873.000000	0.395055
1874.000000	0.393258
1875.000000	0.390921
1876.000000	0.388212
1877.000000	0.385179
1878.000000	0.381621
1879.000000	0.377378
1880.000000	0.373618
1881.000000	0.370144
1882.000000	0.366190
1883.000000	0.362042
1884.000000	0.357805
1885.000000	0.352943
1886.000000	0.347850
1887.000000	0.342539
1888.000000	0.337267
1889.000000	0.331351
1890.000000	0.325512
1891.000000	0.320449
1892.000000	0.315161
1893.000000	0.309725
1894.000000	0.304576
1895.000000	0.299219
1896.000000	0.293632
1897.000000	0.288412
1898.000000	0.283756
1899.000000	0.279766
1900.000000	0.276662
1901.000000	0.273829
1902.000000	0.271318
1903.000000	0.269227
1904.000000	0.267639
1905.000000	0.266785
1906.000000	0.266311
1907.000000	0.266527
1908.000000	0.267139
1909.000000	0.267790
1910.000000	0.268706
1911.000000	0.269773
1912.000000	0.270996
1913.000000	0.272811
1914.000000	0.274381
1915.000000	0.275606
1916.000000	0.277062
1917.000000	0.278429
1918.000000	0.279656
1919.000000	0.281165
1920.000000	0.283049
1921.000000	0.284901
1922.000000	0.286511
1923.000000	0.288289
1924.000000	0.289939
1925.000000	0.290906
1926.000000	0.292452
1927.000000	0.294217
1928.000000	0.295596
1929.000000	0.296791
1930.000000	0.298519
1931.000000	0.299795
1932.000000	0.300828
1933.000000	0.302037
1934.000000	0.302953
1935.000000	0.304112
1936.000000	0.305130
1937.000000	0.306006
1938.000000	0.307104
1939.000000	0.308018
1940.000000	0.308744
1941.000000	0.309498
1942.000000	0.310644
1943.000000	0.311350
1944.000000	0.311610
1945.000000	0.311784
1946.000000	0.311714
1947.000000	0.311850
1948.000000	0.312175
1949.000000	0.312756
1950.000000	0.313495
1951.000000	0.313914
1952.000000	0.314195
1953.000000	0.314566
1954.000000	0.315102
1955.000000	0.315548
1956.000000	0.316138
1957.000000	0.316971
1958.000000	0.317503
1959.000000	0.318203
1960.000000	0.318934
1961.000000	0.319559
1962.000000	0.320333
1963.000000	0.321412
1964.000000	0.322211
1965.000000	0.323078
1966.000000	0.323944
1967.000000	0.324740
1968.000000	0.325484
1969.000000	0.325975
1970.000000	0.326760
1971.000000	0.327364
1972.000000	0.328001
1973.000000	0.328577
1974.000000	0.329386
1975.000000	0.330005
1976.000000	0.330463
1977.000000	0.331170
1978.000000	0.332006
1979.000000	0.332532
1980.000000	0.333232
1981.000000	0.334017
1982.000000	0.334951
1983.000000	0.335864
1984.000000	0.336671
1985.000000	0.337791
1986.000000	0.338501
1987.000000	0.338813
1988.000000	0.339586
1989.000000	0.340276
1990.000000	0.341148
1991.000000	0.342313
1992.000000	0.343115
1993.000000	0.344302
1994.000000	0.345487
1995.000000	0.345931
1996.000000	0.346480
1997.000000	0.347057
1998.000000	0.347239
1999.000000	0.347891
2000.000000	0.348982
2001.000000	0.349886
2002.000000	0.350693
2003.000000	0.351627
2004.000000	0.352002
2005.000000	0.352472
2006.000000	0.353395
2007.000000	0.354213
2008.000000	0.355074
2009.000000	0.356188
2010.000000	0.357087
2011.000000	0.357664
2012.000000	0.358312
2013.000000	0.358911
2014.000000	0.359322
2015.000000	0.359760
2016.000000	0.360401
2017.000000	0.360751
2018.000000	0.361049
2019.000000	0.361606
2020.000000	0.361894
2021.000000	0.362591
2022.000000	0.363692
2023.000000	0.364504
2024.000000	0.365633
2025.000000	0.366415
2026.000000	0.366532
2027.000000	0.367058
2028.000000	0.367933
2029.000000	0.368409
2030.000000	0.369138
2031.000000	0.369554
2032.000000	0.369822
2033.000000	0.370580
2034.000000	0.371091
2035.000000	0.371958
2036.000000	0.372294
2037.000000	0.372264
2038.000000	0.372609
2039.000000	0.373023
2040.000000	0.373586
2041.000000	0.374262
2042.000000	0.374826
2043.000000	0.375227
2044.000000	0.375671
2045.000000	0.375981
2046.000000	0.376320
2047.000000	0.376523
2048.000000	0.376170
2049.000000	0.376645
2050.000000	0.376973
2051.000000	0.377348
2052.000000	0.378265
2053.000000	0.378618
2054.000000	0.378792
2055.000000	0.379414
2056.000000	0.379781
2057.000000	0.379974
2058.000000	0.380441
2059.000000	0.380636
2060.000000	0.380830
2061.000000	0.380952
2062.000000	0.381191
2063.000000	0.381581
2064.000000	0.381564
2065.000000	0.381880
2066.000000	0.381741
2067.000000	0.381297
2068.000000	0.381243
2069.000000	0.381349
2070.000000	0.381752
2071.000000	0.382274
2072.000000	0.382691
2073.000000	0.383322
2074.000000	0.383444
2075.000000	0.383467
2076.000000	0.383353
2077.000000	0.383265
2078.000000	0.382820
2079.000000	0.382630
2080.000000	0.382484
2081.000000	0.382576
2082.000000	0.382972
2083.000000	0.383209
2084.000000	0.383296
2085.000000	0.383734
2086.000000	0.383510
2087.000000	0.383280
2088.000000	0.383351
2089.000000	0.383276
2090.000000	0.383298
2091.000000	0.383445
2092.000000	0.383693
2093.000000	0.384116
2094.000000	0.384310
2095.000000	0.384607
2096.000000	0.384852
2097.000000	0.384840
2098.000000	0.384726
2099.000000	0.384884
2100.000000	0.385103
2101.000000	0.385397
2102.000000	0.385698
2103.000000	0.386035
2104.000000	0.386497
2105.000000	0.386809
2106.000000	0.387038
2107.000000	0.387331
2108.000000	0.387595
2109.000000	0.387854
2110.000000	0.387863
2111.000000	0.387999
2112.000000	0.388298
2113.000000	0.387659
2114.000000	0.387897
2115.000000	0.388272
2116.000000	0.388173
2117.000000	0.388673
2118.000000	0.388634
2119.000000	0.388274
2120.000000	0.388445
2121.000000	0.389010
2122.000000	0.389048
2123.000000	0.389169
2124.000000	0.389056
2125.000000	0.388443
2126.000000	0.388150
2127.000000	0.387823
2128.000000	0.387889
2129.000000	0.388209
2130.000000	0.388230
2131.000000	0.388404
2132.000000	0.389036
2133.000000	0.389362
2134.000000	0.389792
2135.000000	0.390212
2136.000000	0.390529
2137.000000	0.390900
2138.000000	0.391398
2139.000000	0.391688
2140.000000	0.391930
2141.000000	0.392049
2142.000000	0.391799
2143.000000	0.391499
2144.000000	0.391431
2145.000000	0.391377
2146.000000	0.391402
2147.000000	0.391710
2148.000000	0.391825
2149.000000	0.392198
2150.000000	0.392352
2151.000000	0.392666
2152.000000	0.392578
2153.000000	0.392278
2154.000000	0.392215
2155.000000	0.392093
2156.000000	0.392050
2157.000000	0.392220
2158.000000	0.392505
2159.000000	0.392884
2160.000000	0.393405
2161.000000	0.394436
2162.000000	0.394946
2163.000000	0.395061
2164.000000	0.395010
2165.000000	0.394547
2166.000000	0.394216
2167.000000	0.393917
2168.000000	0.393875
2169.000000	0.393722
2170.000000	0.393452
2171.000000	0.393249
2172.000000	0.392916
2173.000000	0.392687
2174.000000	0.392570
2175.000000	0.392515
2176.000000	0.392591
2177.000000	0.392544
2178.000000	0.392450
2179.000000	0.392573
2180.000000	0.392511
2181.000000	0.392959
2182.000000	0.393085
2183.000000	0.393598
2184.000000	0.393983
2185.000000	0.393679
2186.000000	0.393155
2187.000000	0.392798
2188.000000	0.392015
2189.000000	0.391033
2190.000000	0.389897
2191.000000	0.389623
2192.000000	0.389616
2193.000000	0.390386
2194.000000	0.390508
2195.000000	0.390911
2196.000000	0.391215
2197.000000	0.390783
2198.000000	0.390972
2199.000000	0.392652
2200.000000	0.392857
2201.000000	0.392308
2202.000000	0.391670
2203.000000	0.389745
2204.000000	0.387532
2205.000000	0.386123
2206.000000	0.385889
2207.000000	0.385709
2208.000000	0.385694
2209.000000	0.386894
2210.000000	0.387846
2211.000000	0.388619
2212.000000	0.390335
2213.000000	0.390943
2214.000000	0.391035
2215.000000	0.389799
2216.000000	0.387379
2217.000000	0.386001
2218.000000	0.382635
2219.000000	0.382345
2220.000000	0.384945
2221.000000	0.385726
2222.000000	0.387745
2223.000000	0.388103
2224.000000	0.386727
2225.000000	0.385938
2226.000000	0.384995
2227.000000	0.383319
2228.000000	0.382862
2229.000000	0.382146
2230.000000	0.380746
2231.000000	0.379751
2232.000000	0.380138
2233.000000	0.379644
2234.000000	0.379563
2235.000000	0.381534
2236.000000	0.381606
2237.000000	0.380595
2238.000000	0.379972
2239.000000	0.378584
2240.000000	0.377904
2241.000000	0.377398
2242.000000	0.377039
2243.000000	0.376612
2244.000000	0.377150
2245.000000	0.378475
2246.000000	0.379962
2247.000000	0.382762
2248.000000	0.384193
2249.000000	0.386404
2250.000000	0.385384
2251.000000	0.382514
2252.000000	0.380299
2253.000000	0.377009
2254.000000	0.374910
2255.000000	0.374932
2256.000000	0.375755
2257.000000	0.375809
2258.000000	0.375220
2259.000000	0.375155
2260.000000	0.374418
2261.000000	0.374498
2262.000000	0.376499
2263.000000	0.375877
2264.000000	0.373919
2265.000000	0.372598
2266.000000	0.369463
2267.000000	0.368574
2268.000000	0.369906
2269.000000	0.369613
2270.000000	0.369828
2271.000000	0.368980
2272.000000	0.366119
2273.000000	0.364995
2274.000000	0.363924
2275.000000	0.362894
2276.000000	0.363079
2277.000000	0.362708
2278.000000	0.360236
2279.000000	0.358662
2280.000000	0.354352
2281.000000	0.349569
2282.000000	0.346890
2283.000000	0.344763
2284.000000	0.344111
2285.000000	0.342983
2286.000000	0.340552
2287.000000	0.337079
2288.000000	0.334311
2289.000000	0.333122
2290.000000	0.331549
2291.000000	0.331903
2292.000000	0.330816
2293.000000	0.328861
2294.000000	0.328305
2295.000000	0.328169
2296.000000	0.327374
2297.000000	0.327420
2298.000000	0.326564
2299.000000	0.325238
2300.000000	0.323443
2301.000000	0.321158
2302.000000	0.319366
2303.000000	0.316859
2304.000000	0.314486
2305.000000	0.312834
2306.000000	0.310299
2307.000000	0.306717
2308.000000	0.304055
2309.000000	0.302011
2310.000000	0.300103
2311.000000	0.298215
2312.000000	0.295404
2313.000000	0.291766
2314.000000	0.289140
2315.000000	0.288106
2316.000000	0.288860
2317.000000	0.290802
2318.000000	0.293399
2319.000000	0.296678
2320.000000	0.300729
2321.000000	0.306043
2322.000000	0.310000
2323.000000	0.312917
2324.000000	0.316472
2325.000000	0.319427
2326.000000	0.323304
2327.000000	0.328356
2328.000000	0.330839
2329.000000	0.332332
2330.000000	0.333028
2331.000000	0.331564
2332.000000	0.332516
2333.000000	0.333309
2334.000000	0.332880
2335.000000	0.333693
2336.000000	0.334502
2337.000000	0.335424
2338.000000	0.337085
2339.000000	0.338299
2340.000000	0.340101
2341.000000	0.340357
2342.000000	0.338504
2343.000000	0.338692
2344.000000	0.339593
2345.000000	0.339284
2346.000000	0.340272
2347.000000	0.340414
2348.000000	0.338933
2349.000000	0.337830
2350.000000	0.336343
2351.000000	0.334526
2352.000000	0.333611
2353.000000	0.333756
2354.000000	0.334387
2355.000000	0.335448
2356.000000	0.337470
2357.000000	0.336853
2358.000000	0.336250
2359.000000	0.336961
2360.000000	0.335754
2361.000000	0.335714
2362.000000	0.337210
2363.000000	0.337085
2364.000000	0.334953
2365.000000	0.333456
2366.000000	0.332565
2367.000000	0.333632
2368.000000	0.334626
2369.000000	0.333368
2370.000000	0.329644
2371.000000	0.324732
2372.000000	0.321870
2373.000000	0.319980
2374.000000	0.319743
2375.000000	0.319261
2376.000000	0.317145
2377.000000	0.315398
2378.000000	0.315303
2379.000000	0.312928
2380.000000	0.309475
2381.000000	0.309321
2382.000000	0.304180
2383.000000	0.299748
2384.000000	0.302020
2385.000000	0.303091
2386.000000	0.306002
2387.000000	0.308628
2388.000000	0.309798
2389.000000	0.310723
2390.000000	0.306893
2391.000000	0.305629
2392.000000	0.304295
2393.000000	0.298936
2394.000000	0.299366
2395.000000	0.302313
2396.000000	0.303199
2397.000000	0.307721
2398.000000	0.310783
2399.000000	0.309216
2400.000000	0.307454
2401.000000	0.305524
2402.000000	0.306103
2403.000000	0.309365
2404.000000	0.316582
2405.000000	0.322281
2406.000000	0.321904
2407.000000	0.318004
2408.000000	0.309020
2409.000000	0.302077
2410.000000	0.299345
2411.000000	0.297011
2412.000000	0.298705
2413.000000	0.303852
2414.000000	0.305346
2415.000000	0.306073
2416.000000	0.308016
2417.000000	0.303539
2418.000000	0.297958
2419.000000	0.298124
2420.000000	0.301078
2421.000000	0.304145
2422.000000	0.306785
2423.000000	0.308162
2424.000000	0.307589
2425.000000	0.304803
2426.000000	0.304000
2427.000000	0.303682
2428.000000	0.300650
2429.000000	0.298817
2430.000000	0.295233
2431.000000	0.297063
2432.000000	0.302675
2433.000000	0.304432
2434.000000	0.309735
2435.000000	0.308295
2436.000000	0.297801
2437.000000	0.297640
2438.000000	0.302356
2439.000000	0.302099
2440.000000	0.304311
2441.000000	0.300599
2442.000000	0.295943
2443.000000	0.293729
2444.000000	0.293294
2445.000000	0.298094
2446.000000	0.289048
2447.000000	0.288839
2448.000000	0.301766
2449.000000	0.302778
2450.000000	0.304121
2451.000000	0.301012
2452.000000	0.290036
2453.000000	0.285210
2454.000000	0.290013
2455.000000	0.295487
2456.000000	0.294142
2457.000000	0.291500
2458.000000	0.291334
2459.000000	0.284513
2460.000000	0.282075
2461.000000	0.286093
2462.000000	0.282879
2463.000000	0.283593
2464.000000	0.283768
2465.000000	0.283125
2466.000000	0.279782
2467.000000	0.271585
2468.000000	0.265827
2469.000000	0.258102
2470.000000	0.251583
2471.000000	0.241388
2472.000000	0.236053
2473.000000	0.230017
2474.000000	0.222961
2475.000000	0.236947
2476.000000	0.250452
2477.000000	0.260623
2478.000000	0.277121
2479.000000	0.278737
2480.000000	0.280005
2481.000000	0.285851
2482.000000	0.274896
2483.000000	0.270048
2484.000000	0.273125
2485.000000	0.263136
2486.000000	0.276949
2487.000000	0.302636
2488.000000	0.303560
2489.000000	0.297472
2490.000000	0.272827
2491.000000	0.235905
2492.000000	0.218441
2493.000000	0.222788
2494.000000	0.236538
2495.000000	0.272873
2496.000000	0.283824
2497.000000	0.286550
2498.000000	0.291982
2499.000000	0.283939
2500.000000	0.279466
