# Wavelength	SM1200H-10_HEX-20_FV7-70_00002.asd.rts.txt
350.000000	0.189884
351.000000	0.223635
352.000000	0.212087
353.000000	0.197426
354.000000	0.201998
355.000000	0.195780
356.000000	0.193153
357.000000	0.201145
358.000000	0.220141
359.000000	0.214833
360.000000	0.201846
361.000000	0.205005
362.000000	0.205355
363.000000	0.207693
364.000000	0.213650
365.000000	0.214286
366.000000	0.215743
367.000000	0.216795
368.000000	0.210221
369.000000	0.208073
370.000000	0.209840
371.000000	0.211154
372.000000	0.210660
373.000000	0.209369
374.000000	0.208889
375.000000	0.210392
376.000000	0.209516
377.000000	0.207500
378.000000	0.211346
379.000000	0.214211
380.000000	0.216925
381.000000	0.222152
382.000000	0.218097
383.000000	0.212770
384.000000	0.212695
385.000000	0.213767
386.000000	0.214971
387.000000	0.216051
388.000000	0.217240
389.000000	0.217249
390.000000	0.217118
391.000000	0.218222
392.000000	0.218738
393.000000	0.218902
394.000000	0.219302
395.000000	0.220997
396.000000	0.221678
397.000000	0.220901
398.000000	0.220623
399.000000	0.220785
400.000000	0.221218
401.000000	0.221482
402.000000	0.221580
403.000000	0.221523
404.000000	0.221613
405.000000	0.222742
406.000000	0.223491
407.000000	0.223617
408.000000	0.224989
409.000000	0.224896
410.000000	0.223934
411.000000	0.224531
412.000000	0.225606
413.000000	0.226619
414.000000	0.227179
415.000000	0.226903
416.000000	0.226966
417.000000	0.227780
418.000000	0.227945
419.000000	0.228048
420.000000	0.228338
421.000000	0.228855
422.000000	0.228722
423.000000	0.228405
424.000000	0.228803
425.000000	0.229689
426.000000	0.230337
427.000000	0.230348
428.000000	0.230511
429.000000	0.230638
430.000000	0.230838
431.000000	0.231710
432.000000	0.232040
433.000000	0.231947
434.000000	0.232232
435.000000	0.232149
436.000000	0.232229
437.000000	0.232899
438.000000	0.233160
439.000000	0.233362
440.000000	0.233674
441.000000	0.233415
442.000000	0.233280
443.000000	0.233429
444.000000	0.233837
445.000000	0.233869
446.000000	0.233931
447.000000	0.234435
448.000000	0.234909
449.000000	0.235156
450.000000	0.235224
451.000000	0.235698
452.000000	0.236138
453.000000	0.236328
454.000000	0.236473
455.000000	0.236779
456.000000	0.237109
457.000000	0.237049
458.000000	0.237447
459.000000	0.238056
460.000000	0.238496
461.000000	0.238397
462.000000	0.238382
463.000000	0.238604
464.000000	0.238863
465.000000	0.239250
466.000000	0.239566
467.000000	0.239555
468.000000	0.239634
469.000000	0.239912
470.000000	0.240459
471.000000	0.240489
472.000000	0.240382
473.000000	0.240490
474.000000	0.240674
475.000000	0.240930
476.000000	0.241274
477.000000	0.241404
478.000000	0.241307
479.000000	0.241357
480.000000	0.241733
481.000000	0.242117
482.000000	0.242538
483.000000	0.242839
484.000000	0.242984
485.000000	0.243102
486.000000	0.243392
487.000000	0.243598
488.000000	0.243941
489.000000	0.244337
490.000000	0.244481
491.000000	0.244608
492.000000	0.244784
493.000000	0.244922
494.000000	0.245246
495.000000	0.245647
496.000000	0.245993
497.000000	0.246370
498.000000	0.246622
499.000000	0.246797
500.000000	0.247011
501.000000	0.247159
502.000000	0.247405
503.000000	0.247913
504.000000	0.248168
505.000000	0.248250
506.000000	0.248350
507.000000	0.248506
508.000000	0.248743
509.000000	0.249042
510.000000	0.249473
511.000000	0.249699
512.000000	0.249821
513.000000	0.250258
514.000000	0.250550
515.000000	0.250764
516.000000	0.251053
517.000000	0.251443
518.000000	0.251837
519.000000	0.252111
520.000000	0.252512
521.000000	0.252823
522.000000	0.253002
523.000000	0.253254
524.000000	0.253465
525.000000	0.253644
526.000000	0.253901
527.000000	0.254186
528.000000	0.254475
529.000000	0.254794
530.000000	0.255066
531.000000	0.255347
532.000000	0.255582
533.000000	0.255748
534.000000	0.256047
535.000000	0.256431
536.000000	0.256617
537.000000	0.256877
538.000000	0.257134
539.000000	0.257206
540.000000	0.257470
541.000000	0.257781
542.000000	0.258011
543.000000	0.258322
544.000000	0.258620
545.000000	0.258822
546.000000	0.259108
547.000000	0.259383
548.000000	0.259695
549.000000	0.260107
550.000000	0.260372
551.000000	0.260560
552.000000	0.260781
553.000000	0.261086
554.000000	0.261418
555.000000	0.261732
556.000000	0.262051
557.000000	0.262324
558.000000	0.262644
559.000000	0.262942
560.000000	0.263215
561.000000	0.263565
562.000000	0.263989
563.000000	0.264240
564.000000	0.264501
565.000000	0.264871
566.000000	0.265178
567.000000	0.265490
568.000000	0.265817
569.000000	0.266073
570.000000	0.266340
571.000000	0.266630
572.000000	0.266926
573.000000	0.267182
574.000000	0.267413
575.000000	0.267712
576.000000	0.268029
577.000000	0.268328
578.000000	0.268641
579.000000	0.268930
580.000000	0.269243
581.000000	0.269588
582.000000	0.269913
583.000000	0.270147
584.000000	0.270349
585.000000	0.270662
586.000000	0.270878
587.000000	0.271070
588.000000	0.271352
589.000000	0.271625
590.000000	0.271930
591.000000	0.272266
592.000000	0.272493
593.000000	0.272751
594.000000	0.273032
595.000000	0.273173
596.000000	0.273450
597.000000	0.273831
598.000000	0.274072
599.000000	0.274179
600.000000	0.274342
601.000000	0.274627
602.000000	0.274916
603.000000	0.275061
604.000000	0.275077
605.000000	0.275240
606.000000	0.275372
607.000000	0.275473
608.000000	0.275636
609.000000	0.275755
610.000000	0.275853
611.000000	0.275991
612.000000	0.276249
613.000000	0.276493
614.000000	0.276659
615.000000	0.276762
616.000000	0.276900
617.000000	0.277085
618.000000	0.277340
619.000000	0.277535
620.000000	0.277638
621.000000	0.277725
622.000000	0.277822
623.000000	0.278000
624.000000	0.278274
625.000000	0.278482
626.000000	0.278664
627.000000	0.278843
628.000000	0.278993
629.000000	0.279199
630.000000	0.279369
631.000000	0.279580
632.000000	0.279767
633.000000	0.279925
634.000000	0.280036
635.000000	0.280053
636.000000	0.280111
637.000000	0.280246
638.000000	0.280345
639.000000	0.280441
640.000000	0.280585
641.000000	0.280686
642.000000	0.280926
643.000000	0.281170
644.000000	0.281222
645.000000	0.281325
646.000000	0.281515
647.000000	0.281735
648.000000	0.281842
649.000000	0.281933
650.000000	0.282063
651.000000	0.282306
652.000000	0.282444
653.000000	0.282530
654.000000	0.282661
655.000000	0.282845
656.000000	0.283032
657.000000	0.283138
658.000000	0.283333
659.000000	0.283549
660.000000	0.283711
661.000000	0.283759
662.000000	0.283834
663.000000	0.283991
664.000000	0.284135
665.000000	0.284283
666.000000	0.284442
667.000000	0.284584
668.000000	0.284716
669.000000	0.284904
670.000000	0.285159
671.000000	0.285333
672.000000	0.285517
673.000000	0.285730
674.000000	0.285962
675.000000	0.286134
676.000000	0.286283
677.000000	0.286477
678.000000	0.286579
679.000000	0.286661
680.000000	0.286792
681.000000	0.286940
682.000000	0.287104
683.000000	0.287238
684.000000	0.287474
685.000000	0.287618
686.000000	0.287739
687.000000	0.287931
688.000000	0.288125
689.000000	0.288292
690.000000	0.288453
691.000000	0.288603
692.000000	0.288730
693.000000	0.288883
694.000000	0.289002
695.000000	0.289132
696.000000	0.289275
697.000000	0.289424
698.000000	0.289591
699.000000	0.289788
700.000000	0.290012
701.000000	0.290186
702.000000	0.290330
703.000000	0.290439
704.000000	0.290526
705.000000	0.290652
706.000000	0.290792
707.000000	0.290968
708.000000	0.291126
709.000000	0.291263
710.000000	0.291402
711.000000	0.291504
712.000000	0.291632
713.000000	0.291817
714.000000	0.291983
715.000000	0.292168
716.000000	0.292340
717.000000	0.292427
718.000000	0.292569
719.000000	0.292718
720.000000	0.292838
721.000000	0.293013
722.000000	0.293156
723.000000	0.293302
724.000000	0.293477
725.000000	0.293636
726.000000	0.293804
727.000000	0.293886
728.000000	0.294015
729.000000	0.294219
730.000000	0.294426
731.000000	0.294561
732.000000	0.294696
733.000000	0.294865
734.000000	0.294936
735.000000	0.294948
736.000000	0.295056
737.000000	0.295194
738.000000	0.295213
739.000000	0.295241
740.000000	0.295249
741.000000	0.295387
742.000000	0.295540
743.000000	0.295634
744.000000	0.295724
745.000000	0.295756
746.000000	0.295810
747.000000	0.295904
748.000000	0.296062
749.000000	0.296228
750.000000	0.296331
751.000000	0.296419
752.000000	0.296454
753.000000	0.296467
754.000000	0.296527
755.000000	0.296643
756.000000	0.296785
757.000000	0.296876
758.000000	0.296994
759.000000	0.297111
760.000000	0.297146
761.000000	0.297193
762.000000	0.297250
763.000000	0.297306
764.000000	0.297409
765.000000	0.297518
766.000000	0.297618
767.000000	0.297695
768.000000	0.297755
769.000000	0.297765
770.000000	0.297745
771.000000	0.297785
772.000000	0.297819
773.000000	0.297796
774.000000	0.297808
775.000000	0.297896
776.000000	0.297985
777.000000	0.298023
778.000000	0.298145
779.000000	0.298243
780.000000	0.298283
781.000000	0.298278
782.000000	0.298282
783.000000	0.298329
784.000000	0.298300
785.000000	0.298462
786.000000	0.298598
787.000000	0.298586
788.000000	0.298532
789.000000	0.298515
790.000000	0.298531
791.000000	0.298577
792.000000	0.298683
793.000000	0.298777
794.000000	0.298810
795.000000	0.298813
796.000000	0.298861
797.000000	0.298950
798.000000	0.299001
799.000000	0.299017
800.000000	0.299013
801.000000	0.299009
802.000000	0.298993
803.000000	0.298931
804.000000	0.298864
805.000000	0.298837
806.000000	0.298846
807.000000	0.298928
808.000000	0.298980
809.000000	0.299032
810.000000	0.299086
811.000000	0.299121
812.000000	0.299119
813.000000	0.299062
814.000000	0.298997
815.000000	0.299045
816.000000	0.299118
817.000000	0.299165
818.000000	0.299081
819.000000	0.299005
820.000000	0.298978
821.000000	0.298968
822.000000	0.299001
823.000000	0.299017
824.000000	0.298993
825.000000	0.299037
826.000000	0.299051
827.000000	0.299035
828.000000	0.299044
829.000000	0.299078
830.000000	0.299094
831.000000	0.299115
832.000000	0.299048
833.000000	0.299050
834.000000	0.299075
835.000000	0.299091
836.000000	0.299052
837.000000	0.298987
838.000000	0.298938
839.000000	0.298903
840.000000	0.298786
841.000000	0.298658
842.000000	0.298580
843.000000	0.298662
844.000000	0.298650
845.000000	0.298508
846.000000	0.298524
847.000000	0.298533
848.000000	0.298528
849.000000	0.298552
850.000000	0.298463
851.000000	0.298378
852.000000	0.298364
853.000000	0.298305
854.000000	0.298175
855.000000	0.298124
856.000000	0.298131
857.000000	0.298033
858.000000	0.298000
859.000000	0.297997
860.000000	0.297834
861.000000	0.297762
862.000000	0.297750
863.000000	0.297614
864.000000	0.297568
865.000000	0.297538
866.000000	0.297470
867.000000	0.297301
868.000000	0.297197
869.000000	0.297070
870.000000	0.296873
871.000000	0.296775
872.000000	0.296682
873.000000	0.296516
874.000000	0.296504
875.000000	0.296352
876.000000	0.296139
877.000000	0.296009
878.000000	0.295820
879.000000	0.295631
880.000000	0.295366
881.000000	0.295150
882.000000	0.294902
883.000000	0.294652
884.000000	0.294427
885.000000	0.294403
886.000000	0.294414
887.000000	0.294366
888.000000	0.294262
889.000000	0.294197
890.000000	0.294102
891.000000	0.294053
892.000000	0.293888
893.000000	0.293726
894.000000	0.293692
895.000000	0.293508
896.000000	0.293169
897.000000	0.292835
898.000000	0.292677
899.000000	0.292477
900.000000	0.292277
901.000000	0.292087
902.000000	0.291977
903.000000	0.291859
904.000000	0.291733
905.000000	0.291542
906.000000	0.291427
907.000000	0.291337
908.000000	0.291225
909.000000	0.290899
910.000000	0.290635
911.000000	0.290430
912.000000	0.290240
913.000000	0.290055
914.000000	0.289735
915.000000	0.289452
916.000000	0.289418
917.000000	0.289227
918.000000	0.288995
919.000000	0.288800
920.000000	0.288447
921.000000	0.288144
922.000000	0.287892
923.000000	0.287569
924.000000	0.287261
925.000000	0.286874
926.000000	0.286496
927.000000	0.286460
928.000000	0.286240
929.000000	0.285930
930.000000	0.285806
931.000000	0.285852
932.000000	0.285819
933.000000	0.285619
934.000000	0.285265
935.000000	0.284899
936.000000	0.284683
937.000000	0.284534
938.000000	0.284064
939.000000	0.283584
940.000000	0.283250
941.000000	0.283225
942.000000	0.283108
943.000000	0.283048
944.000000	0.282991
945.000000	0.282782
946.000000	0.282552
947.000000	0.282470
948.000000	0.282512
949.000000	0.282070
950.000000	0.281675
951.000000	0.281435
952.000000	0.281130
953.000000	0.280864
954.000000	0.280645
955.000000	0.280381
956.000000	0.280028
957.000000	0.279737
958.000000	0.279596
959.000000	0.279682
960.000000	0.279368
961.000000	0.279147
962.000000	0.279103
963.000000	0.278807
964.000000	0.278422
965.000000	0.278185
966.000000	0.278062
967.000000	0.277640
968.000000	0.277384
969.000000	0.277192
970.000000	0.276856
971.000000	0.276640
972.000000	0.276635
973.000000	0.276582
974.000000	0.276040
975.000000	0.275787
976.000000	0.275712
977.000000	0.275519
978.000000	0.274981
979.000000	0.274818
980.000000	0.274810
981.000000	0.274763
982.000000	0.274465
983.000000	0.274161
984.000000	0.274010
985.000000	0.273888
986.000000	0.273879
987.000000	0.273791
988.000000	0.273432
989.000000	0.273102
990.000000	0.272840
991.000000	0.272565
992.000000	0.272282
993.000000	0.272464
994.000000	0.272144
995.000000	0.271620
996.000000	0.271689
997.000000	0.271733
998.000000	0.271824
999.000000	0.271926
1000.000000	0.271522
1001.000000	0.272429
1002.000000	0.271772
1003.000000	0.271071
1004.000000	0.270659
1005.000000	0.270747
1006.000000	0.270697
1007.000000	0.270579
1008.000000	0.270498
1009.000000	0.271343
1010.000000	0.271646
1011.000000	0.271744
1012.000000	0.272043
1013.000000	0.271711
1014.000000	0.270932
1015.000000	0.269693
1016.000000	0.269180
1017.000000	0.269756
1018.000000	0.269942
1019.000000	0.270034
1020.000000	0.271109
1021.000000	0.271093
1022.000000	0.270009
1023.000000	0.269808
1024.000000	0.269762
1025.000000	0.269618
1026.000000	0.269916
1027.000000	0.270108
1028.000000	0.269715
1029.000000	0.269511
1030.000000	0.268862
1031.000000	0.268398
1032.000000	0.269013
1033.000000	0.269098
1034.000000	0.269106
1035.000000	0.269114
1036.000000	0.269210
1037.000000	0.269033
1038.000000	0.269184
1039.000000	0.269935
1040.000000	0.270140
1041.000000	0.270136
1042.000000	0.270273
1043.000000	0.270057
1044.000000	0.270054
1045.000000	0.270326
1046.000000	0.270030
1047.000000	0.270213
1048.000000	0.270752
1049.000000	0.270965
1050.000000	0.271323
1051.000000	0.271354
1052.000000	0.270667
1053.000000	0.270500
1054.000000	0.270646
1055.000000	0.270898
1056.000000	0.271276
1057.000000	0.272264
1058.000000	0.272761
1059.000000	0.272352
1060.000000	0.272543
1061.000000	0.272534
1062.000000	0.272564
1063.000000	0.273013
1064.000000	0.273266
1065.000000	0.273424
1066.000000	0.273591
1067.000000	0.273852
1068.000000	0.273908
1069.000000	0.273540
1070.000000	0.273569
1071.000000	0.273802
1072.000000	0.273935
1073.000000	0.274284
1074.000000	0.274676
1075.000000	0.274740
1076.000000	0.274819
1077.000000	0.275132
1078.000000	0.275614
1079.000000	0.275657
1080.000000	0.275507
1081.000000	0.275598
1082.000000	0.275508
1083.000000	0.275653
1084.000000	0.276205
1085.000000	0.276606
1086.000000	0.276864
1087.000000	0.277193
1088.000000	0.277843
1089.000000	0.278024
1090.000000	0.277833
1091.000000	0.277668
1092.000000	0.277654
1093.000000	0.277468
1094.000000	0.277630
1095.000000	0.278234
1096.000000	0.278410
1097.000000	0.278221
1098.000000	0.278709
1099.000000	0.279516
1100.000000	0.279954
1101.000000	0.280765
1102.000000	0.281082
1103.000000	0.280550
1104.000000	0.280625
1105.000000	0.281139
1106.000000	0.281259
1107.000000	0.281122
1108.000000	0.281232
1109.000000	0.281439
1110.000000	0.281376
1111.000000	0.281453
1112.000000	0.281727
1113.000000	0.282021
1114.000000	0.282188
1115.000000	0.282502
1116.000000	0.283268
1117.000000	0.283498
1118.000000	0.283391
1119.000000	0.283380
1120.000000	0.283065
1121.000000	0.283085
1122.000000	0.283403
1123.000000	0.283774
1124.000000	0.284266
1125.000000	0.284512
1126.000000	0.284512
1127.000000	0.284525
1128.000000	0.284470
1129.000000	0.284215
1130.000000	0.284288
1131.000000	0.284439
1132.000000	0.284707
1133.000000	0.285330
1134.000000	0.285605
1135.000000	0.285803
1136.000000	0.285923
1137.000000	0.285890
1138.000000	0.285789
1139.000000	0.285526
1140.000000	0.285626
1141.000000	0.285775
1142.000000	0.285925
1143.000000	0.286398
1144.000000	0.286711
1145.000000	0.286658
1146.000000	0.286625
1147.000000	0.286633
1148.000000	0.286468
1149.000000	0.286523
1150.000000	0.286736
1151.000000	0.286863
1152.000000	0.287020
1153.000000	0.287115
1154.000000	0.287104
1155.000000	0.287113
1156.000000	0.287041
1157.000000	0.287117
1158.000000	0.287312
1159.000000	0.287356
1160.000000	0.287366
1161.000000	0.287381
1162.000000	0.287277
1163.000000	0.287398
1164.000000	0.287555
1165.000000	0.287666
1166.000000	0.287689
1167.000000	0.287593
1168.000000	0.287562
1169.000000	0.287476
1170.000000	0.287518
1171.000000	0.287733
1172.000000	0.287830
1173.000000	0.287831
1174.000000	0.287919
1175.000000	0.288034
1176.000000	0.288029
1177.000000	0.288155
1178.000000	0.288181
1179.000000	0.287916
1180.000000	0.287842
1181.000000	0.288019
1182.000000	0.288016
1183.000000	0.288104
1184.000000	0.288286
1185.000000	0.288226
1186.000000	0.287921
1187.000000	0.287856
1188.000000	0.287810
1189.000000	0.287727
1190.000000	0.287830
1191.000000	0.287775
1192.000000	0.287565
1193.000000	0.287643
1194.000000	0.287734
1195.000000	0.287814
1196.000000	0.288039
1197.000000	0.288101
1198.000000	0.288049
1199.000000	0.288046
1200.000000	0.288006
1201.000000	0.287917
1202.000000	0.287917
1203.000000	0.288037
1204.000000	0.288018
1205.000000	0.288149
1206.000000	0.288147
1207.000000	0.288143
1208.000000	0.288073
1209.000000	0.288010
1210.000000	0.287973
1211.000000	0.287883
1212.000000	0.287915
1213.000000	0.288116
1214.000000	0.288144
1215.000000	0.288143
1216.000000	0.288148
1217.000000	0.287996
1218.000000	0.287920
1219.000000	0.287962
1220.000000	0.287901
1221.000000	0.287970
1222.000000	0.288103
1223.000000	0.288255
1224.000000	0.288416
1225.000000	0.288431
1226.000000	0.288560
1227.000000	0.288607
1228.000000	0.288609
1229.000000	0.288612
1230.000000	0.288558
1231.000000	0.288442
1232.000000	0.288435
1233.000000	0.288465
1234.000000	0.288401
1235.000000	0.288395
1236.000000	0.288371
1237.000000	0.288362
1238.000000	0.288382
1239.000000	0.288335
1240.000000	0.288205
1241.000000	0.288175
1242.000000	0.288146
1243.000000	0.287976
1244.000000	0.287985
1245.000000	0.288043
1246.000000	0.287954
1247.000000	0.288039
1248.000000	0.288120
1249.000000	0.288136
1250.000000	0.288250
1251.000000	0.288357
1252.000000	0.288361
1253.000000	0.288282
1254.000000	0.288246
1255.000000	0.288164
1256.000000	0.288124
1257.000000	0.288219
1258.000000	0.288220
1259.000000	0.288060
1260.000000	0.287990
1261.000000	0.287805
1262.000000	0.287703
1263.000000	0.287678
1264.000000	0.287697
1265.000000	0.287755
1266.000000	0.287863
1267.000000	0.287878
1268.000000	0.287822
1269.000000	0.287668
1270.000000	0.287577
1271.000000	0.287498
1272.000000	0.287525
1273.000000	0.287579
1274.000000	0.287567
1275.000000	0.287514
1276.000000	0.287422
1277.000000	0.287393
1278.000000	0.287229
1279.000000	0.287147
1280.000000	0.287083
1281.000000	0.287015
1282.000000	0.287061
1283.000000	0.287115
1284.000000	0.287036
1285.000000	0.287083
1286.000000	0.287211
1287.000000	0.287203
1288.000000	0.287379
1289.000000	0.287544
1290.000000	0.287465
1291.000000	0.287427
1292.000000	0.287446
1293.000000	0.287412
1294.000000	0.287352
1295.000000	0.287309
1296.000000	0.287181
1297.000000	0.287072
1298.000000	0.287173
1299.000000	0.287334
1300.000000	0.287452
1301.000000	0.287495
1302.000000	0.287440
1303.000000	0.287310
1304.000000	0.287261
1305.000000	0.287336
1306.000000	0.287275
1307.000000	0.287222
1308.000000	0.287153
1309.000000	0.286935
1310.000000	0.286865
1311.000000	0.286881
1312.000000	0.286933
1313.000000	0.287042
1314.000000	0.287140
1315.000000	0.287198
1316.000000	0.287242
1317.000000	0.287098
1318.000000	0.286931
1319.000000	0.286826
1320.000000	0.286918
1321.000000	0.287164
1322.000000	0.287149
1323.000000	0.286940
1324.000000	0.286650
1325.000000	0.286357
1326.000000	0.286276
1327.000000	0.286356
1328.000000	0.286675
1329.000000	0.286762
1330.000000	0.286746
1331.000000	0.286739
1332.000000	0.286696
1333.000000	0.286700
1334.000000	0.286867
1335.000000	0.286939
1336.000000	0.286947
1337.000000	0.286945
1338.000000	0.286825
1339.000000	0.286677
1340.000000	0.286696
1341.000000	0.286708
1342.000000	0.286699
1343.000000	0.286688
1344.000000	0.286611
1345.000000	0.286398
1346.000000	0.286280
1347.000000	0.286266
1348.000000	0.286162
1349.000000	0.286021
1350.000000	0.285928
1351.000000	0.285753
1352.000000	0.285656
1353.000000	0.285645
1354.000000	0.285657
1355.000000	0.285518
1356.000000	0.285358
1357.000000	0.285358
1358.000000	0.285429
1359.000000	0.285353
1360.000000	0.285214
1361.000000	0.285015
1362.000000	0.284951
1363.000000	0.284814
1364.000000	0.284816
1365.000000	0.285066
1366.000000	0.285135
1367.000000	0.285112
1368.000000	0.285052
1369.000000	0.285110
1370.000000	0.285012
1371.000000	0.284750
1372.000000	0.284516
1373.000000	0.284322
1374.000000	0.284128
1375.000000	0.284090
1376.000000	0.284030
1377.000000	0.283877
1378.000000	0.283802
1379.000000	0.283581
1380.000000	0.283371
1381.000000	0.283138
1382.000000	0.282800
1383.000000	0.282572
1384.000000	0.282344
1385.000000	0.282104
1386.000000	0.281885
1387.000000	0.281661
1388.000000	0.281459
1389.000000	0.281346
1390.000000	0.281328
1391.000000	0.281245
1392.000000	0.281227
1393.000000	0.281178
1394.000000	0.281100
1395.000000	0.281058
1396.000000	0.281104
1397.000000	0.281011
1398.000000	0.280775
1399.000000	0.280713
1400.000000	0.280708
1401.000000	0.280581
1402.000000	0.280522
1403.000000	0.280420
1404.000000	0.280230
1405.000000	0.279751
1406.000000	0.279462
1407.000000	0.279303
1408.000000	0.278928
1409.000000	0.278735
1410.000000	0.278511
1411.000000	0.278211
1412.000000	0.278096
1413.000000	0.278110
1414.000000	0.278223
1415.000000	0.278236
1416.000000	0.278053
1417.000000	0.277923
1418.000000	0.277758
1419.000000	0.277584
1420.000000	0.277378
1421.000000	0.277222
1422.000000	0.277072
1423.000000	0.276928
1424.000000	0.276854
1425.000000	0.276861
1426.000000	0.276721
1427.000000	0.276648
1428.000000	0.276635
1429.000000	0.276622
1430.000000	0.276668
1431.000000	0.276570
1432.000000	0.276469
1433.000000	0.276319
1434.000000	0.276175
1435.000000	0.276125
1436.000000	0.276082
1437.000000	0.276055
1438.000000	0.275903
1439.000000	0.275686
1440.000000	0.275527
1441.000000	0.275332
1442.000000	0.275212
1443.000000	0.275123
1444.000000	0.275071
1445.000000	0.274875
1446.000000	0.274668
1447.000000	0.274550
1448.000000	0.274380
1449.000000	0.274313
1450.000000	0.274258
1451.000000	0.274128
1452.000000	0.273990
1453.000000	0.273799
1454.000000	0.273655
1455.000000	0.273578
1456.000000	0.273575
1457.000000	0.273660
1458.000000	0.273697
1459.000000	0.273707
1460.000000	0.273716
1461.000000	0.273702
1462.000000	0.273775
1463.000000	0.273804
1464.000000	0.273821
1465.000000	0.273933
1466.000000	0.273965
1467.000000	0.273975
1468.000000	0.273994
1469.000000	0.274015
1470.000000	0.274001
1471.000000	0.273956
1472.000000	0.273968
1473.000000	0.274137
1474.000000	0.274117
1475.000000	0.274084
1476.000000	0.274113
1477.000000	0.273949
1478.000000	0.273807
1479.000000	0.273885
1480.000000	0.273982
1481.000000	0.273976
1482.000000	0.274008
1483.000000	0.274050
1484.000000	0.273990
1485.000000	0.274026
1486.000000	0.274144
1487.000000	0.274234
1488.000000	0.274284
1489.000000	0.274401
1490.000000	0.274472
1491.000000	0.274618
1492.000000	0.274826
1493.000000	0.274975
1494.000000	0.275081
1495.000000	0.275177
1496.000000	0.275216
1497.000000	0.275321
1498.000000	0.275467
1499.000000	0.275601
1500.000000	0.275838
1501.000000	0.276001
1502.000000	0.276043
1503.000000	0.276123
1504.000000	0.276111
1505.000000	0.276031
1506.000000	0.276092
1507.000000	0.276092
1508.000000	0.276107
1509.000000	0.276240
1510.000000	0.276322
1511.000000	0.276390
1512.000000	0.276438
1513.000000	0.276417
1514.000000	0.276396
1515.000000	0.276441
1516.000000	0.276464
1517.000000	0.276436
1518.000000	0.276433
1519.000000	0.276390
1520.000000	0.276452
1521.000000	0.276451
1522.000000	0.276443
1523.000000	0.276515
1524.000000	0.276541
1525.000000	0.276639
1526.000000	0.276707
1527.000000	0.276741
1528.000000	0.276760
1529.000000	0.276660
1530.000000	0.276573
1531.000000	0.276692
1532.000000	0.276715
1533.000000	0.276619
1534.000000	0.276638
1535.000000	0.276553
1536.000000	0.276465
1537.000000	0.276604
1538.000000	0.276685
1539.000000	0.276666
1540.000000	0.276698
1541.000000	0.276894
1542.000000	0.277007
1543.000000	0.276954
1544.000000	0.276986
1545.000000	0.276973
1546.000000	0.276872
1547.000000	0.276895
1548.000000	0.276861
1549.000000	0.276696
1550.000000	0.276727
1551.000000	0.276803
1552.000000	0.276824
1553.000000	0.276813
1554.000000	0.276616
1555.000000	0.276454
1556.000000	0.276453
1557.000000	0.276474
1558.000000	0.276477
1559.000000	0.276507
1560.000000	0.276491
1561.000000	0.276416
1562.000000	0.276362
1563.000000	0.276414
1564.000000	0.276385
1565.000000	0.276249
1566.000000	0.276201
1567.000000	0.276264
1568.000000	0.276284
1569.000000	0.276398
1570.000000	0.276468
1571.000000	0.276500
1572.000000	0.276509
1573.000000	0.276550
1574.000000	0.276551
1575.000000	0.276454
1576.000000	0.276476
1577.000000	0.276601
1578.000000	0.276528
1579.000000	0.276424
1580.000000	0.276392
1581.000000	0.276348
1582.000000	0.276279
1583.000000	0.276311
1584.000000	0.276241
1585.000000	0.276041
1586.000000	0.275974
1587.000000	0.275970
1588.000000	0.275994
1589.000000	0.276123
1590.000000	0.276197
1591.000000	0.276306
1592.000000	0.276377
1593.000000	0.276437
1594.000000	0.276414
1595.000000	0.276393
1596.000000	0.276370
1597.000000	0.276321
1598.000000	0.276272
1599.000000	0.276254
1600.000000	0.276180
1601.000000	0.276105
1602.000000	0.276029
1603.000000	0.275961
1604.000000	0.275964
1605.000000	0.276020
1606.000000	0.276062
1607.000000	0.276236
1608.000000	0.276260
1609.000000	0.276259
1610.000000	0.276224
1611.000000	0.276106
1612.000000	0.276044
1613.000000	0.276074
1614.000000	0.276031
1615.000000	0.275985
1616.000000	0.276078
1617.000000	0.276223
1618.000000	0.276259
1619.000000	0.276321
1620.000000	0.276340
1621.000000	0.276206
1622.000000	0.276251
1623.000000	0.276408
1624.000000	0.276496
1625.000000	0.276492
1626.000000	0.276492
1627.000000	0.276492
1628.000000	0.276496
1629.000000	0.276518
1630.000000	0.276498
1631.000000	0.276314
1632.000000	0.276279
1633.000000	0.276276
1634.000000	0.276354
1635.000000	0.276649
1636.000000	0.276750
1637.000000	0.276869
1638.000000	0.276849
1639.000000	0.276658
1640.000000	0.276654
1641.000000	0.276725
1642.000000	0.276781
1643.000000	0.276997
1644.000000	0.277079
1645.000000	0.277077
1646.000000	0.277034
1647.000000	0.276986
1648.000000	0.276909
1649.000000	0.276819
1650.000000	0.276805
1651.000000	0.276877
1652.000000	0.276873
1653.000000	0.276770
1654.000000	0.276832
1655.000000	0.276888
1656.000000	0.276888
1657.000000	0.277090
1658.000000	0.277111
1659.000000	0.277031
1660.000000	0.277061
1661.000000	0.277028
1662.000000	0.277069
1663.000000	0.277186
1664.000000	0.277184
1665.000000	0.277137
1666.000000	0.277187
1667.000000	0.277110
1668.000000	0.277159
1669.000000	0.277327
1670.000000	0.277319
1671.000000	0.277364
1672.000000	0.277419
1673.000000	0.277395
1674.000000	0.277498
1675.000000	0.277497
1676.000000	0.277377
1677.000000	0.277269
1678.000000	0.277249
1679.000000	0.277214
1680.000000	0.277139
1681.000000	0.277144
1682.000000	0.277092
1683.000000	0.277170
1684.000000	0.277378
1685.000000	0.277422
1686.000000	0.277373
1687.000000	0.277362
1688.000000	0.277441
1689.000000	0.277588
1690.000000	0.277650
1691.000000	0.277710
1692.000000	0.277611
1693.000000	0.277531
1694.000000	0.277557
1695.000000	0.277638
1696.000000	0.277675
1697.000000	0.277662
1698.000000	0.277716
1699.000000	0.277734
1700.000000	0.277672
1701.000000	0.277716
1702.000000	0.277665
1703.000000	0.277523
1704.000000	0.277407
1705.000000	0.277349
1706.000000	0.277289
1707.000000	0.277239
1708.000000	0.277246
1709.000000	0.277173
1710.000000	0.277102
1711.000000	0.277079
1712.000000	0.277050
1713.000000	0.277092
1714.000000	0.277259
1715.000000	0.277387
1716.000000	0.277586
1717.000000	0.277714
1718.000000	0.277787
1719.000000	0.277783
1720.000000	0.277762
1721.000000	0.277741
1722.000000	0.277661
1723.000000	0.277612
1724.000000	0.277547
1725.000000	0.277594
1726.000000	0.277627
1727.000000	0.277672
1728.000000	0.277774
1729.000000	0.277777
1730.000000	0.277833
1731.000000	0.277853
1732.000000	0.277838
1733.000000	0.277938
1734.000000	0.277940
1735.000000	0.277994
1736.000000	0.278114
1737.000000	0.278176
1738.000000	0.278224
1739.000000	0.278265
1740.000000	0.278289
1741.000000	0.278288
1742.000000	0.278259
1743.000000	0.278303
1744.000000	0.278369
1745.000000	0.278341
1746.000000	0.278293
1747.000000	0.278194
1748.000000	0.278118
1749.000000	0.278150
1750.000000	0.278107
1751.000000	0.278127
1752.000000	0.278229
1753.000000	0.278238
1754.000000	0.278240
1755.000000	0.278276
1756.000000	0.278213
1757.000000	0.277949
1758.000000	0.277907
1759.000000	0.277919
1760.000000	0.277957
1761.000000	0.278155
1762.000000	0.278262
1763.000000	0.278362
1764.000000	0.278397
1765.000000	0.278327
1766.000000	0.278338
1767.000000	0.278271
1768.000000	0.278191
1769.000000	0.278266
1770.000000	0.278267
1771.000000	0.278134
1772.000000	0.278045
1773.000000	0.277890
1774.000000	0.277841
1775.000000	0.277898
1776.000000	0.277923
1777.000000	0.277971
1778.000000	0.277981
1779.000000	0.277961
1780.000000	0.277907
1781.000000	0.277792
1782.000000	0.277790
1783.000000	0.277831
1784.000000	0.277883
1785.000000	0.277835
1786.000000	0.277897
1787.000000	0.278077
1788.000000	0.278133
1789.000000	0.278178
1790.000000	0.277785
1791.000000	0.277681
1792.000000	0.277976
1793.000000	0.278057
1794.000000	0.278219
1795.000000	0.278345
1796.000000	0.278313
1797.000000	0.278251
1798.000000	0.278169
1799.000000	0.278116
1800.000000	0.277955
1801.000000	0.278013
1802.000000	0.277975
1803.000000	0.278253
1804.000000	0.278228
1805.000000	0.277567
1806.000000	0.277324
1807.000000	0.277296
1808.000000	0.277219
1809.000000	0.277059
1810.000000	0.277077
1811.000000	0.277026
1812.000000	0.277166
1813.000000	0.277041
1814.000000	0.276777
1815.000000	0.276594
1816.000000	0.276183
1817.000000	0.275987
1818.000000	0.276112
1819.000000	0.276123
1820.000000	0.276162
1821.000000	0.275822
1822.000000	0.275951
1823.000000	0.276181
1824.000000	0.276258
1825.000000	0.276718
1826.000000	0.276800
1827.000000	0.276305
1828.000000	0.275854
1829.000000	0.276282
1830.000000	0.276605
1831.000000	0.276636
1832.000000	0.276909
1833.000000	0.276942
1834.000000	0.276268
1835.000000	0.276169
1836.000000	0.276742
1837.000000	0.276811
1838.000000	0.276715
1839.000000	0.276170
1840.000000	0.275907
1841.000000	0.275156
1842.000000	0.275005
1843.000000	0.275226
1844.000000	0.275219
1845.000000	0.275554
1846.000000	0.275503
1847.000000	0.274634
1848.000000	0.274577
1849.000000	0.274623
1850.000000	0.274190
1851.000000	0.274142
1852.000000	0.274242
1853.000000	0.274179
1854.000000	0.273965
1855.000000	0.273930
1856.000000	0.273818
1857.000000	0.273961
1858.000000	0.273766
1859.000000	0.273416
1860.000000	0.273004
1861.000000	0.272650
1862.000000	0.272536
1863.000000	0.273159
1864.000000	0.272976
1865.000000	0.272424
1866.000000	0.272051
1867.000000	0.271504
1868.000000	0.270687
1869.000000	0.269932
1870.000000	0.269723
1871.000000	0.269713
1872.000000	0.269929
1873.000000	0.270085
1874.000000	0.270760
1875.000000	0.270696
1876.000000	0.270098
1877.000000	0.269158
1878.000000	0.268236
1879.000000	0.267453
1880.000000	0.266782
1881.000000	0.266627
1882.000000	0.265987
1883.000000	0.265248
1884.000000	0.264460
1885.000000	0.263146
1886.000000	0.261800
1887.000000	0.260477
1888.000000	0.258861
1889.000000	0.256986
1890.000000	0.256081
1891.000000	0.255159
1892.000000	0.254372
1893.000000	0.253682
1894.000000	0.253035
1895.000000	0.252176
1896.000000	0.251360
1897.000000	0.250365
1898.000000	0.249175
1899.000000	0.248018
1900.000000	0.247236
1901.000000	0.246603
1902.000000	0.246009
1903.000000	0.245957
1904.000000	0.245485
1905.000000	0.244672
1906.000000	0.243988
1907.000000	0.243595
1908.000000	0.242514
1909.000000	0.241427
1910.000000	0.240694
1911.000000	0.240266
1912.000000	0.239994
1913.000000	0.239778
1914.000000	0.239465
1915.000000	0.238441
1916.000000	0.237888
1917.000000	0.237295
1918.000000	0.236803
1919.000000	0.236308
1920.000000	0.236539
1921.000000	0.236517
1922.000000	0.235964
1923.000000	0.235767
1924.000000	0.235133
1925.000000	0.234108
1926.000000	0.233316
1927.000000	0.232477
1928.000000	0.232265
1929.000000	0.232427
1930.000000	0.232835
1931.000000	0.233600
1932.000000	0.234805
1933.000000	0.235885
1934.000000	0.236862
1935.000000	0.237360
1936.000000	0.237326
1937.000000	0.236547
1938.000000	0.235393
1939.000000	0.234792
1940.000000	0.234258
1941.000000	0.234241
1942.000000	0.234658
1943.000000	0.234952
1944.000000	0.234673
1945.000000	0.234678
1946.000000	0.234846
1947.000000	0.234703
1948.000000	0.234994
1949.000000	0.234978
1950.000000	0.234344
1951.000000	0.234050
1952.000000	0.233954
1953.000000	0.233677
1954.000000	0.233656
1955.000000	0.234155
1956.000000	0.234133
1957.000000	0.234081
1958.000000	0.233874
1959.000000	0.233425
1960.000000	0.233101
1961.000000	0.232699
1962.000000	0.232595
1963.000000	0.232657
1964.000000	0.233176
1965.000000	0.233700
1966.000000	0.234122
1967.000000	0.234687
1968.000000	0.234293
1969.000000	0.233520
1970.000000	0.233039
1971.000000	0.232098
1972.000000	0.231916
1973.000000	0.231695
1974.000000	0.231725
1975.000000	0.231906
1976.000000	0.232610
1977.000000	0.232555
1978.000000	0.232641
1979.000000	0.232968
1980.000000	0.232986
1981.000000	0.233275
1982.000000	0.233642
1983.000000	0.234426
1984.000000	0.234724
1985.000000	0.234828
1986.000000	0.234821
1987.000000	0.234659
1988.000000	0.234386
1989.000000	0.234393
1990.000000	0.234654
1991.000000	0.235185
1992.000000	0.235709
1993.000000	0.236218
1994.000000	0.237034
1995.000000	0.237388
1996.000000	0.237225
1997.000000	0.237215
1998.000000	0.236684
1999.000000	0.236687
2000.000000	0.236885
2001.000000	0.237539
2002.000000	0.238234
2003.000000	0.238801
2004.000000	0.239132
2005.000000	0.239082
2006.000000	0.239113
2007.000000	0.239397
2008.000000	0.239474
2009.000000	0.239536
2010.000000	0.239851
2011.000000	0.239830
2012.000000	0.240078
2013.000000	0.240846
2014.000000	0.241118
2015.000000	0.241019
2016.000000	0.241167
2017.000000	0.240852
2018.000000	0.240802
2019.000000	0.241294
2020.000000	0.241185
2021.000000	0.241429
2022.000000	0.242101
2023.000000	0.242418
2024.000000	0.242622
2025.000000	0.243022
2026.000000	0.243500
2027.000000	0.243158
2028.000000	0.243395
2029.000000	0.243982
2030.000000	0.244077
2031.000000	0.244586
2032.000000	0.245223
2033.000000	0.245276
2034.000000	0.245661
2035.000000	0.246485
2036.000000	0.246803
2037.000000	0.247109
2038.000000	0.247409
2039.000000	0.247563
2040.000000	0.247693
2041.000000	0.247990
2042.000000	0.248116
2043.000000	0.248278
2044.000000	0.248112
2045.000000	0.247861
2046.000000	0.247730
2047.000000	0.247906
2048.000000	0.248449
2049.000000	0.248841
2050.000000	0.249172
2051.000000	0.249270
2052.000000	0.248679
2053.000000	0.248581
2054.000000	0.248815
2055.000000	0.249531
2056.000000	0.249816
2057.000000	0.249750
2058.000000	0.249386
2059.000000	0.249027
2060.000000	0.249215
2061.000000	0.250163
2062.000000	0.250519
2063.000000	0.251006
2064.000000	0.251136
2065.000000	0.250641
2066.000000	0.250615
2067.000000	0.251012
2068.000000	0.251757
2069.000000	0.251426
2070.000000	0.252294
2071.000000	0.252729
2072.000000	0.251741
2073.000000	0.251632
2074.000000	0.251808
2075.000000	0.251831
2076.000000	0.251977
2077.000000	0.251933
2078.000000	0.251562
2079.000000	0.251526
2080.000000	0.251555
2081.000000	0.251782
2082.000000	0.252419
2083.000000	0.252987
2084.000000	0.253180
2085.000000	0.253100
2086.000000	0.253621
2087.000000	0.253975
2088.000000	0.253981
2089.000000	0.254140
2090.000000	0.254373
2091.000000	0.254241
2092.000000	0.254460
2093.000000	0.255365
2094.000000	0.255724
2095.000000	0.255959
2096.000000	0.256109
2097.000000	0.255864
2098.000000	0.255636
2099.000000	0.256399
2100.000000	0.256917
2101.000000	0.256827
2102.000000	0.256986
2103.000000	0.256116
2104.000000	0.254613
2105.000000	0.254084
2106.000000	0.253915
2107.000000	0.254101
2108.000000	0.255139
2109.000000	0.255640
2110.000000	0.256180
2111.000000	0.256517
2112.000000	0.256842
2113.000000	0.256085
2114.000000	0.255636
2115.000000	0.255558
2116.000000	0.255258
2117.000000	0.255416
2118.000000	0.255483
2119.000000	0.255973
2120.000000	0.256597
2121.000000	0.257599
2122.000000	0.258042
2123.000000	0.258719
2124.000000	0.258803
2125.000000	0.258035
2126.000000	0.257630
2127.000000	0.256955
2128.000000	0.256915
2129.000000	0.257195
2130.000000	0.257345
2131.000000	0.258262
2132.000000	0.258223
2133.000000	0.257565
2134.000000	0.258483
2135.000000	0.259072
2136.000000	0.259434
2137.000000	0.260123
2138.000000	0.261484
2139.000000	0.261713
2140.000000	0.261753
2141.000000	0.261373
2142.000000	0.259554
2143.000000	0.258945
2144.000000	0.258982
2145.000000	0.258773
2146.000000	0.259200
2147.000000	0.259654
2148.000000	0.258866
2149.000000	0.258640
2150.000000	0.258815
2151.000000	0.259200
2152.000000	0.260304
2153.000000	0.260731
2154.000000	0.260637
2155.000000	0.259895
2156.000000	0.259530
2157.000000	0.258842
2158.000000	0.258365
2159.000000	0.258066
2160.000000	0.258071
2161.000000	0.257848
2162.000000	0.258138
2163.000000	0.259542
2164.000000	0.259999
2165.000000	0.260291
2166.000000	0.260119
2167.000000	0.259383
2168.000000	0.258765
2169.000000	0.258853
2170.000000	0.259136
2171.000000	0.259024
2172.000000	0.259367
2173.000000	0.258658
2174.000000	0.256774
2175.000000	0.255856
2176.000000	0.254567
2177.000000	0.254070
2178.000000	0.254486
2179.000000	0.254899
2180.000000	0.255790
2181.000000	0.256671
2182.000000	0.257813
2183.000000	0.257837
2184.000000	0.257471
2185.000000	0.257007
2186.000000	0.255991
2187.000000	0.256104
2188.000000	0.256564
2189.000000	0.256709
2190.000000	0.257843
2191.000000	0.258165
2192.000000	0.257733
2193.000000	0.256378
2194.000000	0.255788
2195.000000	0.254337
2196.000000	0.253785
2197.000000	0.254885
2198.000000	0.254762
2199.000000	0.253661
2200.000000	0.253214
2201.000000	0.252002
2202.000000	0.252122
2203.000000	0.253152
2204.000000	0.255227
2205.000000	0.257257
2206.000000	0.257632
2207.000000	0.255218
2208.000000	0.254642
2209.000000	0.253518
2210.000000	0.253509
2211.000000	0.255519
2212.000000	0.256198
2213.000000	0.256259
2214.000000	0.255903
2215.000000	0.254245
2216.000000	0.249941
2217.000000	0.249171
2218.000000	0.249132
2219.000000	0.250809
2220.000000	0.256711
2221.000000	0.258719
2222.000000	0.258522
2223.000000	0.259741
2224.000000	0.259832
2225.000000	0.261250
2226.000000	0.264031
2227.000000	0.263800
2228.000000	0.261134
2229.000000	0.256921
2230.000000	0.252865
2231.000000	0.250873
2232.000000	0.250006
2233.000000	0.249589
2234.000000	0.248835
2235.000000	0.248938
2236.000000	0.249732
2237.000000	0.251114
2238.000000	0.252227
2239.000000	0.254963
2240.000000	0.255539
2241.000000	0.255132
2242.000000	0.255120
2243.000000	0.253898
2244.000000	0.253423
2245.000000	0.252753
2246.000000	0.252886
2247.000000	0.254146
2248.000000	0.253913
2249.000000	0.253540
2250.000000	0.253310
2251.000000	0.252383
2252.000000	0.251545
2253.000000	0.249729
2254.000000	0.250312
2255.000000	0.250104
2256.000000	0.250019
2257.000000	0.251565
2258.000000	0.251389
2259.000000	0.251843
2260.000000	0.251908
2261.000000	0.251896
2262.000000	0.252642
2263.000000	0.252280
2264.000000	0.250665
2265.000000	0.250538
2266.000000	0.251108
2267.000000	0.250148
2268.000000	0.248427
2269.000000	0.248505
2270.000000	0.248387
2271.000000	0.248820
2272.000000	0.251251
2273.000000	0.251844
2274.000000	0.251272
2275.000000	0.251132
2276.000000	0.250281
2277.000000	0.251462
2278.000000	0.252224
2279.000000	0.249704
2280.000000	0.247467
2281.000000	0.247879
2282.000000	0.248203
2283.000000	0.249859
2284.000000	0.251471
2285.000000	0.250123
2286.000000	0.249201
2287.000000	0.248994
2288.000000	0.249242
2289.000000	0.249831
2290.000000	0.249510
2291.000000	0.250070
2292.000000	0.251245
2293.000000	0.251536
2294.000000	0.251483
2295.000000	0.250696
2296.000000	0.250059
2297.000000	0.248992
2298.000000	0.248323
2299.000000	0.249169
2300.000000	0.248724
2301.000000	0.246215
2302.000000	0.245151
2303.000000	0.242965
2304.000000	0.242577
2305.000000	0.245204
2306.000000	0.246819
2307.000000	0.249378
2308.000000	0.250604
2309.000000	0.250162
2310.000000	0.249933
2311.000000	0.249976
2312.000000	0.249801
2313.000000	0.249376
2314.000000	0.248123
2315.000000	0.246394
2316.000000	0.246010
2317.000000	0.246069
2318.000000	0.245814
2319.000000	0.246423
2320.000000	0.245482
2321.000000	0.245639
2322.000000	0.245171
2323.000000	0.243379
2324.000000	0.243435
2325.000000	0.242466
2326.000000	0.242712
2327.000000	0.242146
2328.000000	0.240586
2329.000000	0.241311
2330.000000	0.242282
2331.000000	0.244159
2332.000000	0.246702
2333.000000	0.247149
2334.000000	0.246425
2335.000000	0.245934
2336.000000	0.244149
2337.000000	0.242910
2338.000000	0.241114
2339.000000	0.239924
2340.000000	0.240418
2341.000000	0.239078
2342.000000	0.235727
2343.000000	0.235644
2344.000000	0.236378
2345.000000	0.236941
2346.000000	0.240415
2347.000000	0.241787
2348.000000	0.242236
2349.000000	0.240514
2350.000000	0.239108
2351.000000	0.240996
2352.000000	0.242341
2353.000000	0.242489
2354.000000	0.243032
2355.000000	0.241787
2356.000000	0.237789
2357.000000	0.235434
2358.000000	0.237852
2359.000000	0.238621
2360.000000	0.240073
2361.000000	0.244053
2362.000000	0.240540
2363.000000	0.236877
2364.000000	0.235171
2365.000000	0.232104
2366.000000	0.234884
2367.000000	0.236382
2368.000000	0.235346
2369.000000	0.235244
2370.000000	0.229051
2371.000000	0.228105
2372.000000	0.235222
2373.000000	0.236978
2374.000000	0.236961
2375.000000	0.236236
2376.000000	0.233327
2377.000000	0.236347
2378.000000	0.241733
2379.000000	0.240779
2380.000000	0.235795
2381.000000	0.226539
2382.000000	0.217272
2383.000000	0.215083
2384.000000	0.214983
2385.000000	0.212716
2386.000000	0.211311
2387.000000	0.210230
2388.000000	0.208440
2389.000000	0.215193
2390.000000	0.224033
2391.000000	0.228516
2392.000000	0.233389
2393.000000	0.228855
2394.000000	0.222940
2395.000000	0.217949
2396.000000	0.209492
2397.000000	0.205199
2398.000000	0.200383
2399.000000	0.200719
2400.000000	0.204212
2401.000000	0.205828
2402.000000	0.210547
2403.000000	0.211886
2404.000000	0.209802
2405.000000	0.209184
2406.000000	0.206003
2407.000000	0.203189
2408.000000	0.201843
2409.000000	0.200047
2410.000000	0.203482
2411.000000	0.204181
2412.000000	0.203811
2413.000000	0.212528
2414.000000	0.213542
2415.000000	0.209334
2416.000000	0.217174
2417.000000	0.217311
2418.000000	0.213281
2419.000000	0.216299
2420.000000	0.209919
2421.000000	0.196488
2422.000000	0.188841
2423.000000	0.190531
2424.000000	0.191077
2425.000000	0.195684
2426.000000	0.210249
2427.000000	0.223416
2428.000000	0.234807
2429.000000	0.230533
2430.000000	0.216390
2431.000000	0.207133
2432.000000	0.192446
2433.000000	0.187965
2434.000000	0.194140
2435.000000	0.183893
2436.000000	0.172008
2437.000000	0.177519
2438.000000	0.176839
2439.000000	0.180935
2440.000000	0.190207
2441.000000	0.179479
2442.000000	0.178196
2443.000000	0.180293
2444.000000	0.186722
2445.000000	0.207857
2446.000000	0.219069
2447.000000	0.216574
2448.000000	0.205130
2449.000000	0.195100
2450.000000	0.188182
2451.000000	0.187166
2452.000000	0.182778
2453.000000	0.177125
2454.000000	0.176986
2455.000000	0.173906
2456.000000	0.186029
2457.000000	0.197339
2458.000000	0.195677
2459.000000	0.196385
2460.000000	0.181824
2461.000000	0.165538
2462.000000	0.152590
2463.000000	0.151435
2464.000000	0.168210
2465.000000	0.180403
2466.000000	0.202458
2467.000000	0.212847
2468.000000	0.205765
2469.000000	0.188167
2470.000000	0.172679
2471.000000	0.163725
2472.000000	0.158988
2473.000000	0.192515
2474.000000	0.206148
2475.000000	0.202874
2476.000000	0.223832
2477.000000	0.202131
2478.000000	0.179164
2479.000000	0.168707
2480.000000	0.140177
2481.000000	0.152872
2482.000000	0.158296
2483.000000	0.132631
2484.000000	0.154425
2485.000000	0.147612
2486.000000	0.155483
2487.000000	0.233395
2488.000000	0.236041
2489.000000	0.217024
2490.000000	0.180572
2491.000000	0.113500
2492.000000	0.080224
2493.000000	0.067436
2494.000000	0.062891
2495.000000	0.076633
2496.000000	0.091332
2497.000000	0.131475
2498.000000	0.122653
2499.000000	0.070584
2500.000000	0.056171
