# Wavelength	SM1200H-60_HEX-20_FV7-20_00002.asd.rts.txt
350.000000	0.325467
351.000000	0.345158
352.000000	0.350793
353.000000	0.344015
354.000000	0.336366
355.000000	0.341928
356.000000	0.348258
357.000000	0.351305
358.000000	0.345940
359.000000	0.344560
360.000000	0.340187
361.000000	0.325785
362.000000	0.333804
363.000000	0.348616
364.000000	0.355611
365.000000	0.352030
366.000000	0.348311
367.000000	0.347431
368.000000	0.347283
369.000000	0.349986
370.000000	0.352397
371.000000	0.350522
372.000000	0.345106
373.000000	0.345549
374.000000	0.354767
375.000000	0.354881
376.000000	0.351765
377.000000	0.350580
378.000000	0.357241
379.000000	0.356293
380.000000	0.352280
381.000000	0.355964
382.000000	0.358419
383.000000	0.357705
384.000000	0.355332
385.000000	0.358299
386.000000	0.361257
387.000000	0.361670
388.000000	0.358665
389.000000	0.358292
390.000000	0.359370
391.000000	0.358217
392.000000	0.360424
393.000000	0.361859
394.000000	0.359937
395.000000	0.361019
396.000000	0.362346
397.000000	0.362656
398.000000	0.362783
399.000000	0.363063
400.000000	0.363949
401.000000	0.365556
402.000000	0.365168
403.000000	0.365134
404.000000	0.367388
405.000000	0.367404
406.000000	0.367455
407.000000	0.368364
408.000000	0.367824
409.000000	0.368082
410.000000	0.369231
411.000000	0.370123
412.000000	0.370087
413.000000	0.370007
414.000000	0.370761
415.000000	0.370521
416.000000	0.370683
417.000000	0.371821
418.000000	0.372299
419.000000	0.372656
420.000000	0.373119
421.000000	0.373702
422.000000	0.374349
423.000000	0.374781
424.000000	0.374866
425.000000	0.375193
426.000000	0.375628
427.000000	0.375943
428.000000	0.376029
429.000000	0.376065
430.000000	0.376338
431.000000	0.377426
432.000000	0.377475
433.000000	0.377059
434.000000	0.377976
435.000000	0.378548
436.000000	0.378726
437.000000	0.378723
438.000000	0.378549
439.000000	0.378740
440.000000	0.379430
441.000000	0.379428
442.000000	0.379396
443.000000	0.379570
444.000000	0.380215
445.000000	0.380498
446.000000	0.380797
447.000000	0.381408
448.000000	0.381654
449.000000	0.381949
450.000000	0.382538
451.000000	0.382826
452.000000	0.383105
453.000000	0.383374
454.000000	0.383653
455.000000	0.383992
456.000000	0.384471
457.000000	0.384882
458.000000	0.384961
459.000000	0.385099
460.000000	0.385642
461.000000	0.385890
462.000000	0.386049
463.000000	0.386090
464.000000	0.386340
465.000000	0.386589
466.000000	0.386839
467.000000	0.387423
468.000000	0.387549
469.000000	0.387358
470.000000	0.387465
471.000000	0.387754
472.000000	0.388025
473.000000	0.388233
474.000000	0.388643
475.000000	0.388671
476.000000	0.388597
477.000000	0.389170
478.000000	0.389392
479.000000	0.389572
480.000000	0.389955
481.000000	0.390123
482.000000	0.390287
483.000000	0.390404
484.000000	0.390855
485.000000	0.391075
486.000000	0.391173
487.000000	0.391651
488.000000	0.391918
489.000000	0.392033
490.000000	0.392444
491.000000	0.392769
492.000000	0.393136
493.000000	0.393539
494.000000	0.393788
495.000000	0.394020
496.000000	0.394299
497.000000	0.394709
498.000000	0.394948
499.000000	0.395125
500.000000	0.395575
501.000000	0.395967
502.000000	0.396286
503.000000	0.396514
504.000000	0.396761
505.000000	0.397030
506.000000	0.397298
507.000000	0.397490
508.000000	0.397752
509.000000	0.398093
510.000000	0.398488
511.000000	0.398733
512.000000	0.398922
513.000000	0.399309
514.000000	0.399624
515.000000	0.399979
516.000000	0.400453
517.000000	0.400708
518.000000	0.400910
519.000000	0.401131
520.000000	0.401536
521.000000	0.401913
522.000000	0.402197
523.000000	0.402490
524.000000	0.402835
525.000000	0.403204
526.000000	0.403595
527.000000	0.403907
528.000000	0.404097
529.000000	0.404249
530.000000	0.404470
531.000000	0.404848
532.000000	0.405234
533.000000	0.405424
534.000000	0.405629
535.000000	0.405925
536.000000	0.406346
537.000000	0.406610
538.000000	0.406789
539.000000	0.407075
540.000000	0.407402
541.000000	0.407720
542.000000	0.408047
543.000000	0.408372
544.000000	0.408704
545.000000	0.408961
546.000000	0.409261
547.000000	0.409529
548.000000	0.409853
549.000000	0.410296
550.000000	0.410660
551.000000	0.411015
552.000000	0.411395
553.000000	0.411615
554.000000	0.411805
555.000000	0.412101
556.000000	0.412544
557.000000	0.412842
558.000000	0.413114
559.000000	0.413489
560.000000	0.413754
561.000000	0.414037
562.000000	0.414394
563.000000	0.414676
564.000000	0.414971
565.000000	0.415244
566.000000	0.415599
567.000000	0.415945
568.000000	0.416221
569.000000	0.416588
570.000000	0.416906
571.000000	0.417168
572.000000	0.417521
573.000000	0.417870
574.000000	0.418153
575.000000	0.418423
576.000000	0.418769
577.000000	0.419054
578.000000	0.419271
579.000000	0.419537
580.000000	0.419803
581.000000	0.420065
582.000000	0.420411
583.000000	0.420764
584.000000	0.421111
585.000000	0.421473
586.000000	0.421750
587.000000	0.421996
588.000000	0.422278
589.000000	0.422417
590.000000	0.422554
591.000000	0.422792
592.000000	0.423105
593.000000	0.423384
594.000000	0.423631
595.000000	0.423975
596.000000	0.424296
597.000000	0.424583
598.000000	0.424726
599.000000	0.424856
600.000000	0.425089
601.000000	0.425364
602.000000	0.425576
603.000000	0.425706
604.000000	0.425803
605.000000	0.425987
606.000000	0.426188
607.000000	0.426351
608.000000	0.426417
609.000000	0.426527
610.000000	0.426706
611.000000	0.426933
612.000000	0.427136
613.000000	0.427315
614.000000	0.427513
615.000000	0.427632
616.000000	0.427738
617.000000	0.427840
618.000000	0.428049
619.000000	0.428198
620.000000	0.428281
621.000000	0.428432
622.000000	0.428586
623.000000	0.428727
624.000000	0.428851
625.000000	0.428970
626.000000	0.429140
627.000000	0.429358
628.000000	0.429503
629.000000	0.429831
630.000000	0.430102
631.000000	0.430231
632.000000	0.430347
633.000000	0.430507
634.000000	0.430685
635.000000	0.430688
636.000000	0.430703
637.000000	0.430808
638.000000	0.430910
639.000000	0.430989
640.000000	0.431088
641.000000	0.431064
642.000000	0.431193
643.000000	0.431381
644.000000	0.431448
645.000000	0.431548
646.000000	0.431686
647.000000	0.431811
648.000000	0.431925
649.000000	0.432086
650.000000	0.432262
651.000000	0.432387
652.000000	0.432509
653.000000	0.432677
654.000000	0.432825
655.000000	0.433047
656.000000	0.433278
657.000000	0.433385
658.000000	0.433537
659.000000	0.433729
660.000000	0.433908
661.000000	0.434024
662.000000	0.434171
663.000000	0.434396
664.000000	0.434566
665.000000	0.434735
666.000000	0.434900
667.000000	0.435019
668.000000	0.435238
669.000000	0.435429
670.000000	0.435548
671.000000	0.435728
672.000000	0.435918
673.000000	0.436106
674.000000	0.436344
675.000000	0.436504
676.000000	0.436618
677.000000	0.436778
678.000000	0.436861
679.000000	0.436944
680.000000	0.437079
681.000000	0.437138
682.000000	0.437290
683.000000	0.437460
684.000000	0.437647
685.000000	0.437787
686.000000	0.437927
687.000000	0.438074
688.000000	0.438227
689.000000	0.438393
690.000000	0.438611
691.000000	0.438812
692.000000	0.438957
693.000000	0.439131
694.000000	0.439308
695.000000	0.439455
696.000000	0.439579
697.000000	0.439710
698.000000	0.439855
699.000000	0.439997
700.000000	0.440124
701.000000	0.440189
702.000000	0.440327
703.000000	0.440508
704.000000	0.440533
705.000000	0.440636
706.000000	0.440792
707.000000	0.441002
708.000000	0.441149
709.000000	0.441267
710.000000	0.441426
711.000000	0.441565
712.000000	0.441709
713.000000	0.441888
714.000000	0.442059
715.000000	0.442257
716.000000	0.442455
717.000000	0.442564
718.000000	0.442736
719.000000	0.442867
720.000000	0.442907
721.000000	0.443055
722.000000	0.443160
723.000000	0.443261
724.000000	0.443397
725.000000	0.443470
726.000000	0.443592
727.000000	0.443720
728.000000	0.443810
729.000000	0.443923
730.000000	0.444036
731.000000	0.444166
732.000000	0.444275
733.000000	0.444405
734.000000	0.444529
735.000000	0.444595
736.000000	0.444752
737.000000	0.444849
738.000000	0.444872
739.000000	0.444925
740.000000	0.444878
741.000000	0.444998
742.000000	0.445134
743.000000	0.445195
744.000000	0.445273
745.000000	0.445349
746.000000	0.445443
747.000000	0.445449
748.000000	0.445501
749.000000	0.445565
750.000000	0.445576
751.000000	0.445638
752.000000	0.445726
753.000000	0.445831
754.000000	0.445915
755.000000	0.446060
756.000000	0.446200
757.000000	0.446199
758.000000	0.446257
759.000000	0.446339
760.000000	0.446337
761.000000	0.446424
762.000000	0.446569
763.000000	0.446713
764.000000	0.446880
765.000000	0.446981
766.000000	0.446995
767.000000	0.446944
768.000000	0.446999
769.000000	0.447027
770.000000	0.446989
771.000000	0.446974
772.000000	0.447037
773.000000	0.447123
774.000000	0.447299
775.000000	0.447370
776.000000	0.447395
777.000000	0.447425
778.000000	0.447491
779.000000	0.447529
780.000000	0.447542
781.000000	0.447565
782.000000	0.447559
783.000000	0.447661
784.000000	0.447755
785.000000	0.447799
786.000000	0.447816
787.000000	0.447818
788.000000	0.447805
789.000000	0.447806
790.000000	0.447790
791.000000	0.447763
792.000000	0.447736
793.000000	0.447756
794.000000	0.447833
795.000000	0.447810
796.000000	0.447767
797.000000	0.447772
798.000000	0.447896
799.000000	0.448003
800.000000	0.448060
801.000000	0.448073
802.000000	0.448025
803.000000	0.447980
804.000000	0.447997
805.000000	0.447896
806.000000	0.447827
807.000000	0.447882
808.000000	0.447904
809.000000	0.447956
810.000000	0.448068
811.000000	0.448194
812.000000	0.448172
813.000000	0.448092
814.000000	0.448021
815.000000	0.448044
816.000000	0.448036
817.000000	0.448032
818.000000	0.447957
819.000000	0.447818
820.000000	0.447792
821.000000	0.447804
822.000000	0.447629
823.000000	0.447537
824.000000	0.447472
825.000000	0.447447
826.000000	0.447423
827.000000	0.447429
828.000000	0.447504
829.000000	0.447465
830.000000	0.447381
831.000000	0.447342
832.000000	0.447222
833.000000	0.447217
834.000000	0.447260
835.000000	0.447305
836.000000	0.447299
837.000000	0.447181
838.000000	0.447009
839.000000	0.446879
840.000000	0.446937
841.000000	0.447061
842.000000	0.447048
843.000000	0.446970
844.000000	0.446901
845.000000	0.446863
846.000000	0.446924
847.000000	0.446943
848.000000	0.446850
849.000000	0.446685
850.000000	0.446588
851.000000	0.446477
852.000000	0.446395
853.000000	0.446415
854.000000	0.446291
855.000000	0.446243
856.000000	0.446301
857.000000	0.446224
858.000000	0.446158
859.000000	0.446049
860.000000	0.445836
861.000000	0.445688
862.000000	0.445704
863.000000	0.445796
864.000000	0.445787
865.000000	0.445714
866.000000	0.445634
867.000000	0.445462
868.000000	0.445386
869.000000	0.445264
870.000000	0.445022
871.000000	0.444867
872.000000	0.444746
873.000000	0.444561
874.000000	0.444500
875.000000	0.444402
876.000000	0.444276
877.000000	0.444095
878.000000	0.443842
879.000000	0.443686
880.000000	0.443509
881.000000	0.443342
882.000000	0.443177
883.000000	0.443017
884.000000	0.442786
885.000000	0.442621
886.000000	0.442542
887.000000	0.442526
888.000000	0.442361
889.000000	0.442211
890.000000	0.441964
891.000000	0.441750
892.000000	0.441544
893.000000	0.441319
894.000000	0.441236
895.000000	0.441186
896.000000	0.440981
897.000000	0.440699
898.000000	0.440500
899.000000	0.440349
900.000000	0.440172
901.000000	0.439943
902.000000	0.439894
903.000000	0.439802
904.000000	0.439669
905.000000	0.439422
906.000000	0.439255
907.000000	0.439018
908.000000	0.438761
909.000000	0.438494
910.000000	0.438279
911.000000	0.438082
912.000000	0.437890
913.000000	0.437710
914.000000	0.437579
915.000000	0.437538
916.000000	0.437391
917.000000	0.437145
918.000000	0.436931
919.000000	0.436779
920.000000	0.436524
921.000000	0.436344
922.000000	0.436195
923.000000	0.435900
924.000000	0.435610
925.000000	0.435243
926.000000	0.434872
927.000000	0.434711
928.000000	0.434558
929.000000	0.434287
930.000000	0.433875
931.000000	0.433631
932.000000	0.433347
933.000000	0.433047
934.000000	0.432872
935.000000	0.432728
936.000000	0.432581
937.000000	0.432262
938.000000	0.431771
939.000000	0.431532
940.000000	0.431428
941.000000	0.431247
942.000000	0.430993
943.000000	0.430777
944.000000	0.430466
945.000000	0.430082
946.000000	0.429537
947.000000	0.429052
948.000000	0.428773
949.000000	0.428546
950.000000	0.428375
951.000000	0.428178
952.000000	0.427971
953.000000	0.427855
954.000000	0.427735
955.000000	0.427446
956.000000	0.427147
957.000000	0.426905
958.000000	0.426632
959.000000	0.426376
960.000000	0.426202
961.000000	0.425985
962.000000	0.425688
963.000000	0.425474
964.000000	0.425195
965.000000	0.425089
966.000000	0.425101
967.000000	0.424870
968.000000	0.424430
969.000000	0.423984
970.000000	0.423915
971.000000	0.423650
972.000000	0.423337
973.000000	0.423030
974.000000	0.422853
975.000000	0.422650
976.000000	0.422509
977.000000	0.422480
978.000000	0.422391
979.000000	0.422482
980.000000	0.422276
981.000000	0.421813
982.000000	0.421596
983.000000	0.421498
984.000000	0.421427
985.000000	0.421163
986.000000	0.420657
987.000000	0.420370
988.000000	0.420302
989.000000	0.419774
990.000000	0.419735
991.000000	0.419754
992.000000	0.419326
993.000000	0.419690
994.000000	0.419769
995.000000	0.419594
996.000000	0.419472
997.000000	0.419129
998.000000	0.418994
999.000000	0.419191
1000.000000	0.418930
1001.000000	0.418509
1002.000000	0.419287
1003.000000	0.419319
1004.000000	0.418995
1005.000000	0.418230
1006.000000	0.417731
1007.000000	0.416601
1008.000000	0.416823
1009.000000	0.417599
1010.000000	0.417753
1011.000000	0.418525
1012.000000	0.418359
1013.000000	0.416649
1014.000000	0.416133
1015.000000	0.416203
1016.000000	0.416034
1017.000000	0.416309
1018.000000	0.416576
1019.000000	0.416859
1020.000000	0.417322
1021.000000	0.416812
1022.000000	0.416118
1023.000000	0.416050
1024.000000	0.415388
1025.000000	0.414921
1026.000000	0.415533
1027.000000	0.415998
1028.000000	0.416014
1029.000000	0.416009
1030.000000	0.415835
1031.000000	0.415886
1032.000000	0.416460
1033.000000	0.416842
1034.000000	0.416805
1035.000000	0.416308
1036.000000	0.416437
1037.000000	0.416519
1038.000000	0.416607
1039.000000	0.417262
1040.000000	0.417924
1041.000000	0.418103
1042.000000	0.417837
1043.000000	0.417911
1044.000000	0.417651
1045.000000	0.417173
1046.000000	0.417319
1047.000000	0.417479
1048.000000	0.417943
1049.000000	0.417950
1050.000000	0.417706
1051.000000	0.417665
1052.000000	0.417401
1053.000000	0.417321
1054.000000	0.417600
1055.000000	0.418197
1056.000000	0.419210
1057.000000	0.419910
1058.000000	0.420113
1059.000000	0.420054
1060.000000	0.419870
1061.000000	0.419731
1062.000000	0.419895
1063.000000	0.420359
1064.000000	0.420728
1065.000000	0.420890
1066.000000	0.420990
1067.000000	0.421296
1068.000000	0.421335
1069.000000	0.420795
1070.000000	0.420685
1071.000000	0.420606
1072.000000	0.420836
1073.000000	0.421476
1074.000000	0.422253
1075.000000	0.422728
1076.000000	0.423027
1077.000000	0.422723
1078.000000	0.422742
1079.000000	0.422806
1080.000000	0.422984
1081.000000	0.423152
1082.000000	0.423674
1083.000000	0.423748
1084.000000	0.423495
1085.000000	0.423727
1086.000000	0.424013
1087.000000	0.424233
1088.000000	0.424783
1089.000000	0.424993
1090.000000	0.424834
1091.000000	0.424575
1092.000000	0.424489
1093.000000	0.424743
1094.000000	0.424847
1095.000000	0.424957
1096.000000	0.425042
1097.000000	0.425027
1098.000000	0.425251
1099.000000	0.425407
1100.000000	0.425927
1101.000000	0.427023
1102.000000	0.427334
1103.000000	0.427376
1104.000000	0.427531
1105.000000	0.427056
1106.000000	0.427047
1107.000000	0.427402
1108.000000	0.427642
1109.000000	0.428104
1110.000000	0.428437
1111.000000	0.428611
1112.000000	0.428680
1113.000000	0.428893
1114.000000	0.429045
1115.000000	0.429169
1116.000000	0.429344
1117.000000	0.429549
1118.000000	0.429750
1119.000000	0.429750
1120.000000	0.429705
1121.000000	0.429747
1122.000000	0.429734
1123.000000	0.429994
1124.000000	0.430101
1125.000000	0.430401
1126.000000	0.430910
1127.000000	0.431055
1128.000000	0.431092
1129.000000	0.431183
1130.000000	0.431248
1131.000000	0.431023
1132.000000	0.431001
1133.000000	0.431252
1134.000000	0.431397
1135.000000	0.431481
1136.000000	0.431426
1137.000000	0.431299
1138.000000	0.431180
1139.000000	0.430993
1140.000000	0.430994
1141.000000	0.431016
1142.000000	0.431125
1143.000000	0.431458
1144.000000	0.431571
1145.000000	0.431244
1146.000000	0.431033
1147.000000	0.430889
1148.000000	0.430376
1149.000000	0.430268
1150.000000	0.430541
1151.000000	0.430636
1152.000000	0.430636
1153.000000	0.430693
1154.000000	0.430694
1155.000000	0.430763
1156.000000	0.430955
1157.000000	0.430999
1158.000000	0.430928
1159.000000	0.430929
1160.000000	0.430824
1161.000000	0.430751
1162.000000	0.430816
1163.000000	0.431069
1164.000000	0.431080
1165.000000	0.430955
1166.000000	0.430969
1167.000000	0.430911
1168.000000	0.430853
1169.000000	0.430909
1170.000000	0.430931
1171.000000	0.430908
1172.000000	0.431015
1173.000000	0.431174
1174.000000	0.431252
1175.000000	0.431311
1176.000000	0.431353
1177.000000	0.431465
1178.000000	0.431520
1179.000000	0.431618
1180.000000	0.431532
1181.000000	0.431374
1182.000000	0.431244
1183.000000	0.431296
1184.000000	0.431368
1185.000000	0.431306
1186.000000	0.431318
1187.000000	0.431193
1188.000000	0.430788
1189.000000	0.430629
1190.000000	0.430584
1191.000000	0.430612
1192.000000	0.430981
1193.000000	0.431235
1194.000000	0.431365
1195.000000	0.431476
1196.000000	0.431348
1197.000000	0.431352
1198.000000	0.431494
1199.000000	0.431563
1200.000000	0.431633
1201.000000	0.431643
1202.000000	0.431731
1203.000000	0.431789
1204.000000	0.431667
1205.000000	0.431624
1206.000000	0.431521
1207.000000	0.431340
1208.000000	0.431335
1209.000000	0.431642
1210.000000	0.431650
1211.000000	0.431599
1212.000000	0.431503
1213.000000	0.431235
1214.000000	0.431186
1215.000000	0.431207
1216.000000	0.431232
1217.000000	0.431363
1218.000000	0.431337
1219.000000	0.431231
1220.000000	0.431261
1221.000000	0.431270
1222.000000	0.431234
1223.000000	0.431313
1224.000000	0.431393
1225.000000	0.431307
1226.000000	0.431254
1227.000000	0.431309
1228.000000	0.431451
1229.000000	0.431355
1230.000000	0.431099
1231.000000	0.431004
1232.000000	0.431005
1233.000000	0.431017
1234.000000	0.431180
1235.000000	0.431215
1236.000000	0.430909
1237.000000	0.430894
1238.000000	0.431070
1239.000000	0.431104
1240.000000	0.431182
1241.000000	0.431061
1242.000000	0.431091
1243.000000	0.430996
1244.000000	0.430985
1245.000000	0.431303
1246.000000	0.431344
1247.000000	0.431535
1248.000000	0.431796
1249.000000	0.431745
1250.000000	0.431722
1251.000000	0.431740
1252.000000	0.431707
1253.000000	0.431635
1254.000000	0.431579
1255.000000	0.431529
1256.000000	0.431489
1257.000000	0.431540
1258.000000	0.431533
1259.000000	0.431289
1260.000000	0.431295
1261.000000	0.431288
1262.000000	0.431282
1263.000000	0.431458
1264.000000	0.431651
1265.000000	0.431548
1266.000000	0.431481
1267.000000	0.431476
1268.000000	0.431334
1269.000000	0.431084
1270.000000	0.431118
1271.000000	0.431149
1272.000000	0.431077
1273.000000	0.431292
1274.000000	0.431302
1275.000000	0.431227
1276.000000	0.431019
1277.000000	0.431120
1278.000000	0.431152
1279.000000	0.431141
1280.000000	0.431228
1281.000000	0.431088
1282.000000	0.430783
1283.000000	0.430784
1284.000000	0.430712
1285.000000	0.430698
1286.000000	0.430886
1287.000000	0.430849
1288.000000	0.430711
1289.000000	0.430624
1290.000000	0.430276
1291.000000	0.430144
1292.000000	0.430193
1293.000000	0.430133
1294.000000	0.430099
1295.000000	0.429975
1296.000000	0.429781
1297.000000	0.429742
1298.000000	0.429811
1299.000000	0.429797
1300.000000	0.429805
1301.000000	0.429798
1302.000000	0.429647
1303.000000	0.429541
1304.000000	0.429388
1305.000000	0.429241
1306.000000	0.429129
1307.000000	0.429143
1308.000000	0.429149
1309.000000	0.429147
1310.000000	0.429153
1311.000000	0.429229
1312.000000	0.429165
1313.000000	0.429053
1314.000000	0.428826
1315.000000	0.428518
1316.000000	0.428509
1317.000000	0.428525
1318.000000	0.428349
1319.000000	0.428142
1320.000000	0.427923
1321.000000	0.427847
1322.000000	0.427901
1323.000000	0.427891
1324.000000	0.427830
1325.000000	0.427549
1326.000000	0.427129
1327.000000	0.426806
1328.000000	0.426629
1329.000000	0.426381
1330.000000	0.426267
1331.000000	0.426036
1332.000000	0.425767
1333.000000	0.425515
1334.000000	0.425264
1335.000000	0.425118
1336.000000	0.425091
1337.000000	0.424941
1338.000000	0.424658
1339.000000	0.424486
1340.000000	0.424402
1341.000000	0.424237
1342.000000	0.424083
1343.000000	0.423952
1344.000000	0.423627
1345.000000	0.423339
1346.000000	0.423299
1347.000000	0.423042
1348.000000	0.422978
1349.000000	0.422852
1350.000000	0.422610
1351.000000	0.422420
1352.000000	0.422036
1353.000000	0.421576
1354.000000	0.421461
1355.000000	0.421542
1356.000000	0.421631
1357.000000	0.421609
1358.000000	0.421396
1359.000000	0.421042
1360.000000	0.420735
1361.000000	0.420420
1362.000000	0.420178
1363.000000	0.420013
1364.000000	0.419714
1365.000000	0.419384
1366.000000	0.419003
1367.000000	0.418493
1368.000000	0.418021
1369.000000	0.417671
1370.000000	0.417128
1371.000000	0.416694
1372.000000	0.416071
1373.000000	0.415350
1374.000000	0.414708
1375.000000	0.413712
1376.000000	0.412501
1377.000000	0.410968
1378.000000	0.408871
1379.000000	0.406529
1380.000000	0.403990
1381.000000	0.400905
1382.000000	0.397761
1383.000000	0.394518
1384.000000	0.390824
1385.000000	0.387370
1386.000000	0.384295
1387.000000	0.381379
1388.000000	0.378942
1389.000000	0.377117
1390.000000	0.375818
1391.000000	0.375080
1392.000000	0.374849
1393.000000	0.374924
1394.000000	0.375747
1395.000000	0.376258
1396.000000	0.377095
1397.000000	0.377456
1398.000000	0.377585
1399.000000	0.377498
1400.000000	0.377176
1401.000000	0.376653
1402.000000	0.375982
1403.000000	0.375097
1404.000000	0.374197
1405.000000	0.373144
1406.000000	0.372196
1407.000000	0.371406
1408.000000	0.370507
1409.000000	0.369717
1410.000000	0.369038
1411.000000	0.368325
1412.000000	0.367732
1413.000000	0.367269
1414.000000	0.366765
1415.000000	0.366382
1416.000000	0.365992
1417.000000	0.365681
1418.000000	0.365585
1419.000000	0.365604
1420.000000	0.365609
1421.000000	0.365694
1422.000000	0.365723
1423.000000	0.365788
1424.000000	0.365766
1425.000000	0.365744
1426.000000	0.365738
1427.000000	0.365772
1428.000000	0.365860
1429.000000	0.366088
1430.000000	0.366316
1431.000000	0.366311
1432.000000	0.366333
1433.000000	0.366333
1434.000000	0.366334
1435.000000	0.366474
1436.000000	0.366516
1437.000000	0.366465
1438.000000	0.366409
1439.000000	0.366308
1440.000000	0.366243
1441.000000	0.366294
1442.000000	0.366285
1443.000000	0.366122
1444.000000	0.366136
1445.000000	0.366124
1446.000000	0.365939
1447.000000	0.365836
1448.000000	0.365592
1449.000000	0.365399
1450.000000	0.365426
1451.000000	0.365373
1452.000000	0.365281
1453.000000	0.365218
1454.000000	0.364951
1455.000000	0.364703
1456.000000	0.364727
1457.000000	0.364651
1458.000000	0.364472
1459.000000	0.364394
1460.000000	0.364279
1461.000000	0.364239
1462.000000	0.364322
1463.000000	0.364302
1464.000000	0.364376
1465.000000	0.364587
1466.000000	0.364746
1467.000000	0.365098
1468.000000	0.365482
1469.000000	0.365762
1470.000000	0.366049
1471.000000	0.366394
1472.000000	0.366772
1473.000000	0.367164
1474.000000	0.367472
1475.000000	0.367847
1476.000000	0.368198
1477.000000	0.368678
1478.000000	0.369249
1479.000000	0.369670
1480.000000	0.370199
1481.000000	0.370661
1482.000000	0.371066
1483.000000	0.371531
1484.000000	0.372090
1485.000000	0.372548
1486.000000	0.372964
1487.000000	0.373458
1488.000000	0.373930
1489.000000	0.374396
1490.000000	0.374743
1491.000000	0.375214
1492.000000	0.375677
1493.000000	0.376150
1494.000000	0.376672
1495.000000	0.377066
1496.000000	0.377326
1497.000000	0.377754
1498.000000	0.378242
1499.000000	0.378679
1500.000000	0.379277
1501.000000	0.379790
1502.000000	0.380085
1503.000000	0.380594
1504.000000	0.381123
1505.000000	0.381468
1506.000000	0.381894
1507.000000	0.382186
1508.000000	0.382379
1509.000000	0.382697
1510.000000	0.383058
1511.000000	0.383392
1512.000000	0.383598
1513.000000	0.383752
1514.000000	0.383995
1515.000000	0.384204
1516.000000	0.384492
1517.000000	0.384807
1518.000000	0.384948
1519.000000	0.385013
1520.000000	0.385208
1521.000000	0.385345
1522.000000	0.385491
1523.000000	0.385763
1524.000000	0.385980
1525.000000	0.386147
1526.000000	0.386315
1527.000000	0.386338
1528.000000	0.386356
1529.000000	0.386467
1530.000000	0.386429
1531.000000	0.386653
1532.000000	0.387013
1533.000000	0.387176
1534.000000	0.387483
1535.000000	0.387766
1536.000000	0.387775
1537.000000	0.387941
1538.000000	0.388078
1539.000000	0.388082
1540.000000	0.388297
1541.000000	0.388584
1542.000000	0.388821
1543.000000	0.389067
1544.000000	0.389322
1545.000000	0.389494
1546.000000	0.389595
1547.000000	0.389770
1548.000000	0.389893
1549.000000	0.389998
1550.000000	0.390106
1551.000000	0.390218
1552.000000	0.390382
1553.000000	0.390418
1554.000000	0.390436
1555.000000	0.390559
1556.000000	0.390697
1557.000000	0.390743
1558.000000	0.390789
1559.000000	0.390796
1560.000000	0.390787
1561.000000	0.390732
1562.000000	0.390779
1563.000000	0.390924
1564.000000	0.391000
1565.000000	0.391084
1566.000000	0.391023
1567.000000	0.391047
1568.000000	0.391049
1569.000000	0.391050
1570.000000	0.391082
1571.000000	0.391057
1572.000000	0.391070
1573.000000	0.391140
1574.000000	0.391222
1575.000000	0.391399
1576.000000	0.391494
1577.000000	0.391542
1578.000000	0.391549
1579.000000	0.391596
1580.000000	0.391569
1581.000000	0.391524
1582.000000	0.391522
1583.000000	0.391462
1584.000000	0.391447
1585.000000	0.391620
1586.000000	0.391740
1587.000000	0.391806
1588.000000	0.391916
1589.000000	0.392137
1590.000000	0.392213
1591.000000	0.392256
1592.000000	0.392377
1593.000000	0.392473
1594.000000	0.392521
1595.000000	0.392692
1596.000000	0.392767
1597.000000	0.392788
1598.000000	0.392782
1599.000000	0.392768
1600.000000	0.392736
1601.000000	0.392733
1602.000000	0.392767
1603.000000	0.392891
1604.000000	0.392971
1605.000000	0.393056
1606.000000	0.393106
1607.000000	0.393278
1608.000000	0.393313
1609.000000	0.393299
1610.000000	0.393296
1611.000000	0.393223
1612.000000	0.393184
1613.000000	0.393337
1614.000000	0.393380
1615.000000	0.393461
1616.000000	0.393523
1617.000000	0.393460
1618.000000	0.393443
1619.000000	0.393376
1620.000000	0.393395
1621.000000	0.393478
1622.000000	0.393702
1623.000000	0.394054
1624.000000	0.394244
1625.000000	0.394318
1626.000000	0.394306
1627.000000	0.394110
1628.000000	0.394139
1629.000000	0.394225
1630.000000	0.394304
1631.000000	0.394385
1632.000000	0.394435
1633.000000	0.394478
1634.000000	0.394580
1635.000000	0.394759
1636.000000	0.394886
1637.000000	0.395087
1638.000000	0.395131
1639.000000	0.395143
1640.000000	0.395164
1641.000000	0.395142
1642.000000	0.395221
1643.000000	0.395469
1644.000000	0.395595
1645.000000	0.395686
1646.000000	0.395736
1647.000000	0.395719
1648.000000	0.395707
1649.000000	0.395871
1650.000000	0.395955
1651.000000	0.395982
1652.000000	0.396198
1653.000000	0.396422
1654.000000	0.396598
1655.000000	0.396847
1656.000000	0.396858
1657.000000	0.396756
1658.000000	0.396747
1659.000000	0.396815
1660.000000	0.396932
1661.000000	0.396993
1662.000000	0.397135
1663.000000	0.397348
1664.000000	0.397388
1665.000000	0.397352
1666.000000	0.397490
1667.000000	0.397470
1668.000000	0.397550
1669.000000	0.397833
1670.000000	0.397787
1671.000000	0.397658
1672.000000	0.397726
1673.000000	0.397739
1674.000000	0.397849
1675.000000	0.398026
1676.000000	0.398144
1677.000000	0.398133
1678.000000	0.398178
1679.000000	0.398338
1680.000000	0.398322
1681.000000	0.398321
1682.000000	0.398392
1683.000000	0.398468
1684.000000	0.398611
1685.000000	0.398766
1686.000000	0.398950
1687.000000	0.398986
1688.000000	0.398804
1689.000000	0.398767
1690.000000	0.398768
1691.000000	0.398751
1692.000000	0.398766
1693.000000	0.398910
1694.000000	0.398896
1695.000000	0.398880
1696.000000	0.398976
1697.000000	0.398877
1698.000000	0.398599
1699.000000	0.398531
1700.000000	0.398438
1701.000000	0.398554
1702.000000	0.398760
1703.000000	0.398857
1704.000000	0.399074
1705.000000	0.399229
1706.000000	0.399424
1707.000000	0.399511
1708.000000	0.399412
1709.000000	0.399391
1710.000000	0.399489
1711.000000	0.399561
1712.000000	0.399782
1713.000000	0.399833
1714.000000	0.399760
1715.000000	0.399771
1716.000000	0.399787
1717.000000	0.399787
1718.000000	0.399819
1719.000000	0.399730
1720.000000	0.399541
1721.000000	0.399514
1722.000000	0.399559
1723.000000	0.399546
1724.000000	0.399674
1725.000000	0.399689
1726.000000	0.399426
1727.000000	0.399332
1728.000000	0.399238
1729.000000	0.399066
1730.000000	0.398993
1731.000000	0.399069
1732.000000	0.399279
1733.000000	0.399367
1734.000000	0.399361
1735.000000	0.399375
1736.000000	0.399123
1737.000000	0.399224
1738.000000	0.399650
1739.000000	0.399782
1740.000000	0.399940
1741.000000	0.399867
1742.000000	0.399538
1743.000000	0.399506
1744.000000	0.399478
1745.000000	0.399403
1746.000000	0.399387
1747.000000	0.399471
1748.000000	0.399394
1749.000000	0.399405
1750.000000	0.399300
1751.000000	0.399046
1752.000000	0.399045
1753.000000	0.398924
1754.000000	0.398970
1755.000000	0.399311
1756.000000	0.399356
1757.000000	0.399270
1758.000000	0.399301
1759.000000	0.399179
1760.000000	0.399105
1761.000000	0.399227
1762.000000	0.399118
1763.000000	0.398774
1764.000000	0.398588
1765.000000	0.398249
1766.000000	0.398186
1767.000000	0.398341
1768.000000	0.398249
1769.000000	0.398263
1770.000000	0.398327
1771.000000	0.398219
1772.000000	0.398193
1773.000000	0.398248
1774.000000	0.398266
1775.000000	0.398329
1776.000000	0.398287
1777.000000	0.398163
1778.000000	0.398091
1779.000000	0.397898
1780.000000	0.397883
1781.000000	0.398034
1782.000000	0.397960
1783.000000	0.397853
1784.000000	0.397706
1785.000000	0.397588
1786.000000	0.397847
1787.000000	0.398227
1788.000000	0.398489
1789.000000	0.398635
1790.000000	0.398627
1791.000000	0.398554
1792.000000	0.398524
1793.000000	0.398545
1794.000000	0.398542
1795.000000	0.398572
1796.000000	0.398718
1797.000000	0.398763
1798.000000	0.398737
1799.000000	0.398677
1800.000000	0.398522
1801.000000	0.398497
1802.000000	0.398667
1803.000000	0.398773
1804.000000	0.398698
1805.000000	0.398485
1806.000000	0.398669
1807.000000	0.398751
1808.000000	0.398876
1809.000000	0.398981
1810.000000	0.400142
1811.000000	0.400497
1812.000000	0.400398
1813.000000	0.400652
1814.000000	0.401554
1815.000000	0.401463
1816.000000	0.400621
1817.000000	0.400161
1818.000000	0.399647
1819.000000	0.398754
1820.000000	0.398741
1821.000000	0.398737
1822.000000	0.398462
1823.000000	0.397904
1824.000000	0.397477
1825.000000	0.396564
1826.000000	0.396498
1827.000000	0.397014
1828.000000	0.397013
1829.000000	0.397364
1830.000000	0.397351
1831.000000	0.396866
1832.000000	0.395125
1833.000000	0.394846
1834.000000	0.395259
1835.000000	0.395298
1836.000000	0.395901
1837.000000	0.396206
1838.000000	0.396345
1839.000000	0.395337
1840.000000	0.395086
1841.000000	0.394643
1842.000000	0.394035
1843.000000	0.392845
1844.000000	0.392334
1845.000000	0.391528
1846.000000	0.391460
1847.000000	0.391956
1848.000000	0.392646
1849.000000	0.392412
1850.000000	0.392342
1851.000000	0.392194
1852.000000	0.391178
1853.000000	0.390871
1854.000000	0.391012
1855.000000	0.390855
1856.000000	0.390782
1857.000000	0.390159
1858.000000	0.389312
1859.000000	0.388078
1860.000000	0.385737
1861.000000	0.383588
1862.000000	0.381813
1863.000000	0.380061
1864.000000	0.378721
1865.000000	0.378228
1866.000000	0.376956
1867.000000	0.375671
1868.000000	0.373906
1869.000000	0.371711
1870.000000	0.369346
1871.000000	0.367108
1872.000000	0.364758
1873.000000	0.362534
1874.000000	0.360833
1875.000000	0.358276
1876.000000	0.355288
1877.000000	0.351358
1878.000000	0.347979
1879.000000	0.343880
1880.000000	0.339465
1881.000000	0.335696
1882.000000	0.331091
1883.000000	0.326356
1884.000000	0.321553
1885.000000	0.316232
1886.000000	0.311370
1887.000000	0.306772
1888.000000	0.301244
1889.000000	0.296137
1890.000000	0.291838
1891.000000	0.286812
1892.000000	0.281777
1893.000000	0.276925
1894.000000	0.271673
1895.000000	0.266479
1896.000000	0.261168
1897.000000	0.256337
1898.000000	0.251655
1899.000000	0.247518
1900.000000	0.243521
1901.000000	0.239504
1902.000000	0.236209
1903.000000	0.233555
1904.000000	0.231620
1905.000000	0.230545
1906.000000	0.229306
1907.000000	0.228404
1908.000000	0.227335
1909.000000	0.226362
1910.000000	0.225333
1911.000000	0.224891
1912.000000	0.224834
1913.000000	0.225279
1914.000000	0.226068
1915.000000	0.226226
1916.000000	0.226741
1917.000000	0.227101
1918.000000	0.227344
1919.000000	0.227776
1920.000000	0.228575
1921.000000	0.228786
1922.000000	0.229538
1923.000000	0.230226
1924.000000	0.230823
1925.000000	0.232249
1926.000000	0.233295
1927.000000	0.234157
1928.000000	0.234967
1929.000000	0.235911
1930.000000	0.236042
1931.000000	0.236335
1932.000000	0.236771
1933.000000	0.236789
1934.000000	0.237026
1935.000000	0.237186
1936.000000	0.237254
1937.000000	0.237639
1938.000000	0.237988
1939.000000	0.238452
1940.000000	0.239021
1941.000000	0.240050
1942.000000	0.240836
1943.000000	0.241194
1944.000000	0.241192
1945.000000	0.240853
1946.000000	0.240302
1947.000000	0.240052
1948.000000	0.240775
1949.000000	0.241229
1950.000000	0.241209
1951.000000	0.241270
1952.000000	0.241499
1953.000000	0.240792
1954.000000	0.240594
1955.000000	0.241391
1956.000000	0.241684
1957.000000	0.241774
1958.000000	0.241825
1959.000000	0.241817
1960.000000	0.241218
1961.000000	0.241182
1962.000000	0.241557
1963.000000	0.242516
1964.000000	0.242673
1965.000000	0.243495
1966.000000	0.244385
1967.000000	0.243966
1968.000000	0.244160
1969.000000	0.244318
1970.000000	0.244041
1971.000000	0.244483
1972.000000	0.244641
1973.000000	0.244890
1974.000000	0.245300
1975.000000	0.245962
1976.000000	0.246848
1977.000000	0.247744
1978.000000	0.248427
1979.000000	0.249230
1980.000000	0.249844
1981.000000	0.251006
1982.000000	0.252309
1983.000000	0.253125
1984.000000	0.253827
1985.000000	0.254086
1986.000000	0.254626
1987.000000	0.255047
1988.000000	0.256090
1989.000000	0.257235
1990.000000	0.258253
1991.000000	0.258946
1992.000000	0.258990
1993.000000	0.259075
1994.000000	0.259713
1995.000000	0.260413
1996.000000	0.261578
1997.000000	0.262767
1998.000000	0.264320
1999.000000	0.265467
2000.000000	0.266498
2001.000000	0.267846
2002.000000	0.268504
2003.000000	0.269209
2004.000000	0.270556
2005.000000	0.271280
2006.000000	0.272320
2007.000000	0.273716
2008.000000	0.274537
2009.000000	0.274815
2010.000000	0.275489
2011.000000	0.275721
2012.000000	0.276366
2013.000000	0.277365
2014.000000	0.277966
2015.000000	0.278747
2016.000000	0.279862
2017.000000	0.280829
2018.000000	0.281908
2019.000000	0.283025
2020.000000	0.284077
2021.000000	0.285006
2022.000000	0.285816
2023.000000	0.286443
2024.000000	0.286677
2025.000000	0.287453
2026.000000	0.288125
2027.000000	0.288880
2028.000000	0.290424
2029.000000	0.292157
2030.000000	0.293081
2031.000000	0.294265
2032.000000	0.295302
2033.000000	0.295960
2034.000000	0.296720
2035.000000	0.297780
2036.000000	0.298314
2037.000000	0.298362
2038.000000	0.299007
2039.000000	0.299876
2040.000000	0.300813
2041.000000	0.301638
2042.000000	0.302823
2043.000000	0.303483
2044.000000	0.303771
2045.000000	0.304541
2046.000000	0.305540
2047.000000	0.306320
2048.000000	0.307305
2049.000000	0.308000
2050.000000	0.307663
2051.000000	0.308056
2052.000000	0.308396
2053.000000	0.308772
2054.000000	0.309925
2055.000000	0.311033
2056.000000	0.311212
2057.000000	0.311809
2058.000000	0.312213
2059.000000	0.312787
2060.000000	0.313261
2061.000000	0.314061
2062.000000	0.314340
2063.000000	0.313927
2064.000000	0.314168
2065.000000	0.314887
2066.000000	0.315385
2067.000000	0.316446
2068.000000	0.317547
2069.000000	0.318050
2070.000000	0.318266
2071.000000	0.318451
2072.000000	0.319144
2073.000000	0.319442
2074.000000	0.319993
2075.000000	0.320674
2076.000000	0.321460
2077.000000	0.321982
2078.000000	0.322531
2079.000000	0.323092
2080.000000	0.323711
2081.000000	0.324002
2082.000000	0.324186
2083.000000	0.324401
2084.000000	0.324722
2085.000000	0.325123
2086.000000	0.326108
2087.000000	0.327704
2088.000000	0.328014
2089.000000	0.328079
2090.000000	0.328425
2091.000000	0.328089
2092.000000	0.328803
2093.000000	0.330712
2094.000000	0.331753
2095.000000	0.333340
2096.000000	0.334078
2097.000000	0.334073
2098.000000	0.333414
2099.000000	0.333434
2100.000000	0.333182
2101.000000	0.333070
2102.000000	0.333761
2103.000000	0.333751
2104.000000	0.333560
2105.000000	0.334035
2106.000000	0.335103
2107.000000	0.335512
2108.000000	0.336200
2109.000000	0.336643
2110.000000	0.335858
2111.000000	0.335962
2112.000000	0.336597
2113.000000	0.336852
2114.000000	0.337282
2115.000000	0.337581
2116.000000	0.337733
2117.000000	0.337721
2118.000000	0.337497
2119.000000	0.338202
2120.000000	0.338647
2121.000000	0.339100
2122.000000	0.339696
2123.000000	0.340368
2124.000000	0.340932
2125.000000	0.341855
2126.000000	0.342337
2127.000000	0.342426
2128.000000	0.342962
2129.000000	0.343721
2130.000000	0.343794
2131.000000	0.343693
2132.000000	0.344098
2133.000000	0.343724
2134.000000	0.342961
2135.000000	0.343388
2136.000000	0.343696
2137.000000	0.343974
2138.000000	0.344776
2139.000000	0.345448
2140.000000	0.345795
2141.000000	0.346326
2142.000000	0.347245
2143.000000	0.347365
2144.000000	0.347398
2145.000000	0.347358
2146.000000	0.346936
2147.000000	0.346863
2148.000000	0.347219
2149.000000	0.347554
2150.000000	0.347864
2151.000000	0.348239
2152.000000	0.347664
2153.000000	0.347120
2154.000000	0.347140
2155.000000	0.347587
2156.000000	0.347562
2157.000000	0.348010
2158.000000	0.347681
2159.000000	0.346584
2160.000000	0.346127
2161.000000	0.344950
2162.000000	0.345149
2163.000000	0.346553
2164.000000	0.347187
2165.000000	0.348076
2166.000000	0.349634
2167.000000	0.350488
2168.000000	0.349351
2169.000000	0.348280
2170.000000	0.347610
2171.000000	0.347216
2172.000000	0.347238
2173.000000	0.346645
2174.000000	0.345809
2175.000000	0.345551
2176.000000	0.344407
2177.000000	0.344380
2178.000000	0.346372
2179.000000	0.347280
2180.000000	0.348425
2181.000000	0.348944
2182.000000	0.348815
2183.000000	0.346919
2184.000000	0.343933
2185.000000	0.342426
2186.000000	0.342882
2187.000000	0.344068
2188.000000	0.346800
2189.000000	0.347857
2190.000000	0.347207
2191.000000	0.346801
2192.000000	0.346409
2193.000000	0.346154
2194.000000	0.345795
2195.000000	0.344970
2196.000000	0.344741
2197.000000	0.344648
2198.000000	0.344121
2199.000000	0.344182
2200.000000	0.344089
2201.000000	0.344361
2202.000000	0.343692
2203.000000	0.342378
2204.000000	0.339523
2205.000000	0.338542
2206.000000	0.338260
2207.000000	0.339883
2208.000000	0.343243
2209.000000	0.347324
2210.000000	0.348678
2211.000000	0.346730
2212.000000	0.346769
2213.000000	0.345766
2214.000000	0.341483
2215.000000	0.339831
2216.000000	0.340039
2217.000000	0.340461
2218.000000	0.341396
2219.000000	0.342623
2220.000000	0.345439
2221.000000	0.346371
2222.000000	0.346669
2223.000000	0.346266
2224.000000	0.344697
2225.000000	0.343408
2226.000000	0.342931
2227.000000	0.341208
2228.000000	0.339143
2229.000000	0.338229
2230.000000	0.336069
2231.000000	0.335217
2232.000000	0.336283
2233.000000	0.336599
2234.000000	0.333797
2235.000000	0.331567
2236.000000	0.331276
2237.000000	0.330661
2238.000000	0.331020
2239.000000	0.334860
2240.000000	0.336056
2241.000000	0.335985
2242.000000	0.336275
2243.000000	0.335381
2244.000000	0.335539
2245.000000	0.336095
2246.000000	0.336243
2247.000000	0.337563
2248.000000	0.338249
2249.000000	0.338752
2250.000000	0.338092
2251.000000	0.337050
2252.000000	0.335238
2253.000000	0.333875
2254.000000	0.334003
2255.000000	0.336816
2256.000000	0.340500
2257.000000	0.341121
2258.000000	0.340483
2259.000000	0.338618
2260.000000	0.334733
2261.000000	0.331785
2262.000000	0.329510
2263.000000	0.327333
2264.000000	0.323558
2265.000000	0.323026
2266.000000	0.326344
2267.000000	0.326230
2268.000000	0.325167
2269.000000	0.325543
2270.000000	0.324002
2271.000000	0.323508
2272.000000	0.326791
2273.000000	0.326871
2274.000000	0.325159
2275.000000	0.323828
2276.000000	0.321346
2277.000000	0.318345
2278.000000	0.318274
2279.000000	0.317445
2280.000000	0.317053
2281.000000	0.316313
2282.000000	0.311474
2283.000000	0.308008
2284.000000	0.304253
2285.000000	0.299847
2286.000000	0.300386
2287.000000	0.301301
2288.000000	0.302505
2289.000000	0.304520
2290.000000	0.304678
2291.000000	0.303555
2292.000000	0.303181
2293.000000	0.301679
2294.000000	0.299573
2295.000000	0.296525
2296.000000	0.294354
2297.000000	0.291229
2298.000000	0.290144
2299.000000	0.290669
2300.000000	0.290144
2301.000000	0.290095
2302.000000	0.288621
2303.000000	0.286741
2304.000000	0.283994
2305.000000	0.280607
2306.000000	0.277547
2307.000000	0.273316
2308.000000	0.269921
2309.000000	0.267476
2310.000000	0.263674
2311.000000	0.263257
2312.000000	0.261159
2313.000000	0.258458
2314.000000	0.255917
2315.000000	0.253236
2316.000000	0.255146
2317.000000	0.257918
2318.000000	0.264135
2319.000000	0.270266
2320.000000	0.271114
2321.000000	0.273870
2322.000000	0.274366
2323.000000	0.274107
2324.000000	0.277201
2325.000000	0.277342
2326.000000	0.278870
2327.000000	0.281562
2328.000000	0.282195
2329.000000	0.286267
2330.000000	0.289898
2331.000000	0.291248
2332.000000	0.292803
2333.000000	0.292226
2334.000000	0.289204
2335.000000	0.287849
2336.000000	0.286162
2337.000000	0.285593
2338.000000	0.286616
2339.000000	0.285728
2340.000000	0.283371
2341.000000	0.283164
2342.000000	0.282763
2343.000000	0.284220
2344.000000	0.289993
2345.000000	0.290948
2346.000000	0.289328
2347.000000	0.287773
2348.000000	0.284269
2349.000000	0.281765
2350.000000	0.278697
2351.000000	0.277076
2352.000000	0.276590
2353.000000	0.276929
2354.000000	0.277326
2355.000000	0.277914
2356.000000	0.275129
2357.000000	0.270792
2358.000000	0.268586
2359.000000	0.266357
2360.000000	0.266124
2361.000000	0.267007
2362.000000	0.266054
2363.000000	0.267560
2364.000000	0.268499
2365.000000	0.268250
2366.000000	0.268600
2367.000000	0.265783
2368.000000	0.264470
2369.000000	0.265339
2370.000000	0.263256
2371.000000	0.261553
2372.000000	0.261367
2373.000000	0.257507
2374.000000	0.255614
2375.000000	0.257842
2376.000000	0.252536
2377.000000	0.248216
2378.000000	0.247453
2379.000000	0.245154
2380.000000	0.249705
2381.000000	0.251448
2382.000000	0.249718
2383.000000	0.247064
2384.000000	0.242191
2385.000000	0.242546
2386.000000	0.242667
2387.000000	0.239260
2388.000000	0.234230
2389.000000	0.229717
2390.000000	0.227674
2391.000000	0.227032
2392.000000	0.230729
2393.000000	0.238982
2394.000000	0.245291
2395.000000	0.252865
2396.000000	0.261384
2397.000000	0.258734
2398.000000	0.250330
2399.000000	0.242754
2400.000000	0.237365
2401.000000	0.237778
2402.000000	0.235343
2403.000000	0.234519
2404.000000	0.233430
2405.000000	0.226789
2406.000000	0.226504
2407.000000	0.229328
2408.000000	0.226008
2409.000000	0.218399
2410.000000	0.213465
2411.000000	0.203998
2412.000000	0.200775
2413.000000	0.204014
2414.000000	0.205158
2415.000000	0.217634
2416.000000	0.223465
2417.000000	0.230234
2418.000000	0.235392
2419.000000	0.227948
2420.000000	0.225129
2421.000000	0.216282
2422.000000	0.215677
2423.000000	0.216885
2424.000000	0.211496
2425.000000	0.211611
2426.000000	0.205747
2427.000000	0.210878
2428.000000	0.222268
2429.000000	0.234306
2430.000000	0.247523
2431.000000	0.247060
2432.000000	0.238339
2433.000000	0.226018
2434.000000	0.218412
2435.000000	0.211705
2436.000000	0.205382
2437.000000	0.202893
2438.000000	0.207673
2439.000000	0.210245
2440.000000	0.216114
2441.000000	0.222700
2442.000000	0.205895
2443.000000	0.195736
2444.000000	0.195884
2445.000000	0.198149
2446.000000	0.208891
2447.000000	0.218932
2448.000000	0.218403
2449.000000	0.203212
2450.000000	0.192962
2451.000000	0.192412
2452.000000	0.194682
2453.000000	0.203371
2454.000000	0.211897
2455.000000	0.199115
2456.000000	0.177542
2457.000000	0.163839
2458.000000	0.156206
2459.000000	0.168988
2460.000000	0.195954
2461.000000	0.210062
2462.000000	0.211916
2463.000000	0.215619
2464.000000	0.203615
2465.000000	0.188441
2466.000000	0.187279
2467.000000	0.165414
2468.000000	0.158115
2469.000000	0.167858
2470.000000	0.153255
2471.000000	0.157005
2472.000000	0.150102
2473.000000	0.118167
2474.000000	0.128075
2475.000000	0.161394
2476.000000	0.173031
2477.000000	0.217180
2478.000000	0.257693
2479.000000	0.216113
2480.000000	0.192465
2481.000000	0.177950
2482.000000	0.147020
2483.000000	0.159405
2484.000000	0.172575
2485.000000	0.160508
2486.000000	0.158380
2487.000000	0.183658
2488.000000	0.181587
2489.000000	0.151395
2490.000000	0.096760
2491.000000	0.034264
2492.000000	0.017991
2493.000000	0.076245
2494.000000	0.119594
2495.000000	0.174414
2496.000000	0.206044
2497.000000	0.239712
2498.000000	0.224452
2499.000000	0.164169
2500.000000	0.120695
