# Wavelength	SM1200H_00001.asd.rts.txt
350.000000	0.622394
351.000000	0.617009
352.000000	0.612596
353.000000	0.611245
354.000000	0.616077
355.000000	0.614288
356.000000	0.616802
357.000000	0.625248
358.000000	0.624892
359.000000	0.623792
360.000000	0.623375
361.000000	0.623002
362.000000	0.627175
363.000000	0.629821
364.000000	0.627876
365.000000	0.633269
366.000000	0.634896
367.000000	0.631769
368.000000	0.633021
369.000000	0.636022
370.000000	0.639321
371.000000	0.641700
372.000000	0.643154
373.000000	0.645259
374.000000	0.649556
375.000000	0.652276
376.000000	0.652993
377.000000	0.652846
378.000000	0.655476
379.000000	0.657568
380.000000	0.658669
381.000000	0.661321
382.000000	0.663883
383.000000	0.664849
384.000000	0.664599
385.000000	0.665624
386.000000	0.667741
387.000000	0.670471
388.000000	0.672044
389.000000	0.672505
390.000000	0.673252
391.000000	0.675200
392.000000	0.676758
393.000000	0.678216
394.000000	0.679926
395.000000	0.681745
396.000000	0.683012
397.000000	0.683546
398.000000	0.683994
399.000000	0.684942
400.000000	0.686326
401.000000	0.687357
402.000000	0.687776
403.000000	0.688229
404.000000	0.689510
405.000000	0.690252
406.000000	0.691320
407.000000	0.692850
408.000000	0.693147
409.000000	0.693605
410.000000	0.694406
411.000000	0.694987
412.000000	0.695564
413.000000	0.696348
414.000000	0.697491
415.000000	0.698400
416.000000	0.699276
417.000000	0.700231
418.000000	0.701023
419.000000	0.701716
420.000000	0.702463
421.000000	0.703488
422.000000	0.704639
423.000000	0.705690
424.000000	0.706659
425.000000	0.707649
426.000000	0.708734
427.000000	0.709889
428.000000	0.711080
429.000000	0.712225
430.000000	0.713331
431.000000	0.714446
432.000000	0.715727
433.000000	0.716972
434.000000	0.718116
435.000000	0.719226
436.000000	0.720252
437.000000	0.721152
438.000000	0.722411
439.000000	0.723548
440.000000	0.724576
441.000000	0.725558
442.000000	0.726508
443.000000	0.727376
444.000000	0.728548
445.000000	0.729443
446.000000	0.730571
447.000000	0.732039
448.000000	0.733069
449.000000	0.734033
450.000000	0.735191
451.000000	0.736012
452.000000	0.736846
453.000000	0.737642
454.000000	0.738570
455.000000	0.739452
456.000000	0.740462
457.000000	0.741356
458.000000	0.742036
459.000000	0.742633
460.000000	0.743367
461.000000	0.743788
462.000000	0.744431
463.000000	0.745077
464.000000	0.745657
465.000000	0.746209
466.000000	0.746642
467.000000	0.747188
468.000000	0.747864
469.000000	0.748311
470.000000	0.748663
471.000000	0.749230
472.000000	0.749692
473.000000	0.749997
474.000000	0.750637
475.000000	0.751023
476.000000	0.751420
477.000000	0.752007
478.000000	0.752259
479.000000	0.752799
480.000000	0.753621
481.000000	0.754027
482.000000	0.754619
483.000000	0.755353
484.000000	0.756194
485.000000	0.756715
486.000000	0.757245
487.000000	0.757724
488.000000	0.758356
489.000000	0.759172
490.000000	0.760008
491.000000	0.760697
492.000000	0.761433
493.000000	0.762081
494.000000	0.762688
495.000000	0.763392
496.000000	0.764140
497.000000	0.764870
498.000000	0.765550
499.000000	0.766348
500.000000	0.767104
501.000000	0.767887
502.000000	0.768757
503.000000	0.769513
504.000000	0.770383
505.000000	0.771244
506.000000	0.771978
507.000000	0.772689
508.000000	0.773483
509.000000	0.774287
510.000000	0.775090
511.000000	0.775823
512.000000	0.776551
513.000000	0.777276
514.000000	0.778033
515.000000	0.778859
516.000000	0.779597
517.000000	0.780261
518.000000	0.781028
519.000000	0.781763
520.000000	0.782432
521.000000	0.783072
522.000000	0.783734
523.000000	0.784435
524.000000	0.785147
525.000000	0.785819
526.000000	0.786516
527.000000	0.787240
528.000000	0.787897
529.000000	0.788543
530.000000	0.789133
531.000000	0.789833
532.000000	0.790494
533.000000	0.791183
534.000000	0.791886
535.000000	0.792567
536.000000	0.793283
537.000000	0.793996
538.000000	0.794676
539.000000	0.795266
540.000000	0.795900
541.000000	0.796516
542.000000	0.797140
543.000000	0.797752
544.000000	0.798452
545.000000	0.799082
546.000000	0.799701
547.000000	0.800294
548.000000	0.800953
549.000000	0.801574
550.000000	0.802224
551.000000	0.802927
552.000000	0.803551
553.000000	0.804180
554.000000	0.804830
555.000000	0.805525
556.000000	0.806286
557.000000	0.806845
558.000000	0.807455
559.000000	0.807973
560.000000	0.808453
561.000000	0.809087
562.000000	0.809689
563.000000	0.810183
564.000000	0.810727
565.000000	0.811191
566.000000	0.811713
567.000000	0.812287
568.000000	0.812825
569.000000	0.813310
570.000000	0.813779
571.000000	0.814227
572.000000	0.814687
573.000000	0.815124
574.000000	0.815490
575.000000	0.815906
576.000000	0.816383
577.000000	0.816793
578.000000	0.817215
579.000000	0.817645
580.000000	0.818043
581.000000	0.818399
582.000000	0.818775
583.000000	0.819110
584.000000	0.819448
585.000000	0.819899
586.000000	0.820272
587.000000	0.820586
588.000000	0.820911
589.000000	0.821264
590.000000	0.821631
591.000000	0.821992
592.000000	0.822305
593.000000	0.822662
594.000000	0.823056
595.000000	0.823401
596.000000	0.823695
597.000000	0.824049
598.000000	0.824337
599.000000	0.824566
600.000000	0.824894
601.000000	0.825226
602.000000	0.825573
603.000000	0.825902
604.000000	0.826215
605.000000	0.826476
606.000000	0.826691
607.000000	0.826886
608.000000	0.827096
609.000000	0.827349
610.000000	0.827607
611.000000	0.827812
612.000000	0.827932
613.000000	0.827995
614.000000	0.828125
615.000000	0.828280
616.000000	0.828410
617.000000	0.828418
618.000000	0.828422
619.000000	0.828517
620.000000	0.828559
621.000000	0.828498
622.000000	0.828436
623.000000	0.828417
624.000000	0.828467
625.000000	0.828622
626.000000	0.828753
627.000000	0.828834
628.000000	0.828992
629.000000	0.829301
630.000000	0.829430
631.000000	0.829610
632.000000	0.829731
633.000000	0.829877
634.000000	0.830085
635.000000	0.830239
636.000000	0.830446
637.000000	0.830711
638.000000	0.830990
639.000000	0.831254
640.000000	0.831585
641.000000	0.831712
642.000000	0.831865
643.000000	0.832067
644.000000	0.832279
645.000000	0.832412
646.000000	0.832537
647.000000	0.832649
648.000000	0.832788
649.000000	0.832971
650.000000	0.833139
651.000000	0.833311
652.000000	0.833397
653.000000	0.833490
654.000000	0.833536
655.000000	0.833627
656.000000	0.833761
657.000000	0.833779
658.000000	0.833840
659.000000	0.833948
660.000000	0.834049
661.000000	0.834149
662.000000	0.834190
663.000000	0.834309
664.000000	0.834462
665.000000	0.834590
666.000000	0.834665
667.000000	0.834624
668.000000	0.834710
669.000000	0.834813
670.000000	0.834882
671.000000	0.834996
672.000000	0.835124
673.000000	0.835226
674.000000	0.835303
675.000000	0.835306
676.000000	0.835295
677.000000	0.835382
678.000000	0.835398
679.000000	0.835407
680.000000	0.835479
681.000000	0.835538
682.000000	0.835726
683.000000	0.835862
684.000000	0.836058
685.000000	0.836190
686.000000	0.836321
687.000000	0.836418
688.000000	0.836459
689.000000	0.836503
690.000000	0.836657
691.000000	0.836742
692.000000	0.836709
693.000000	0.836757
694.000000	0.836898
695.000000	0.837052
696.000000	0.837198
697.000000	0.837349
698.000000	0.837472
699.000000	0.837609
700.000000	0.837782
701.000000	0.837800
702.000000	0.837873
703.000000	0.837980
704.000000	0.837908
705.000000	0.837939
706.000000	0.837990
707.000000	0.838088
708.000000	0.838219
709.000000	0.838306
710.000000	0.838355
711.000000	0.838395
712.000000	0.838463
713.000000	0.838604
714.000000	0.838717
715.000000	0.838744
716.000000	0.838760
717.000000	0.838830
718.000000	0.838860
719.000000	0.838855
720.000000	0.838870
721.000000	0.838915
722.000000	0.838831
723.000000	0.838757
724.000000	0.838756
725.000000	0.838654
726.000000	0.838642
727.000000	0.838604
728.000000	0.838584
729.000000	0.838653
730.000000	0.838714
731.000000	0.838827
732.000000	0.838947
733.000000	0.839123
734.000000	0.839212
735.000000	0.839138
736.000000	0.839219
737.000000	0.839235
738.000000	0.839221
739.000000	0.839373
740.000000	0.839364
741.000000	0.839366
742.000000	0.839373
743.000000	0.839328
744.000000	0.839346
745.000000	0.839342
746.000000	0.839414
747.000000	0.839451
748.000000	0.839623
749.000000	0.839879
750.000000	0.840051
751.000000	0.840095
752.000000	0.840173
753.000000	0.840311
754.000000	0.840355
755.000000	0.840363
756.000000	0.840361
757.000000	0.840262
758.000000	0.840255
759.000000	0.840390
760.000000	0.840493
761.000000	0.840706
762.000000	0.840879
763.000000	0.840939
764.000000	0.841073
765.000000	0.841178
766.000000	0.841277
767.000000	0.841381
768.000000	0.841480
769.000000	0.841536
770.000000	0.841578
771.000000	0.841710
772.000000	0.841873
773.000000	0.841923
774.000000	0.842030
775.000000	0.841990
776.000000	0.841958
777.000000	0.842011
778.000000	0.842074
779.000000	0.842137
780.000000	0.842198
781.000000	0.842204
782.000000	0.842224
783.000000	0.842442
784.000000	0.842545
785.000000	0.842569
786.000000	0.842566
787.000000	0.842576
788.000000	0.842667
789.000000	0.842698
790.000000	0.842626
791.000000	0.842594
792.000000	0.842548
793.000000	0.842511
794.000000	0.842532
795.000000	0.842662
796.000000	0.842762
797.000000	0.842784
798.000000	0.842796
799.000000	0.842859
800.000000	0.842942
801.000000	0.842999
802.000000	0.843050
803.000000	0.843035
804.000000	0.843026
805.000000	0.842991
806.000000	0.842911
807.000000	0.842975
808.000000	0.843052
809.000000	0.843200
810.000000	0.843274
811.000000	0.843171
812.000000	0.843154
813.000000	0.843088
814.000000	0.842995
815.000000	0.843090
816.000000	0.843152
817.000000	0.843267
818.000000	0.843326
819.000000	0.843390
820.000000	0.843409
821.000000	0.843260
822.000000	0.843116
823.000000	0.843094
824.000000	0.843051
825.000000	0.843086
826.000000	0.843161
827.000000	0.843183
828.000000	0.843204
829.000000	0.843178
830.000000	0.842988
831.000000	0.842822
832.000000	0.842588
833.000000	0.842556
834.000000	0.842655
835.000000	0.842818
836.000000	0.842778
837.000000	0.842697
838.000000	0.842675
839.000000	0.842639
840.000000	0.842629
841.000000	0.842695
842.000000	0.842764
843.000000	0.842900
844.000000	0.843057
845.000000	0.843135
846.000000	0.843195
847.000000	0.843270
848.000000	0.843349
849.000000	0.843481
850.000000	0.843504
851.000000	0.843467
852.000000	0.843503
853.000000	0.843544
854.000000	0.843476
855.000000	0.843569
856.000000	0.843633
857.000000	0.843420
858.000000	0.843389
859.000000	0.843491
860.000000	0.843437
861.000000	0.843412
862.000000	0.843595
863.000000	0.843894
864.000000	0.844078
865.000000	0.844202
866.000000	0.844335
867.000000	0.844273
868.000000	0.844287
869.000000	0.844257
870.000000	0.844225
871.000000	0.844146
872.000000	0.844161
873.000000	0.844193
874.000000	0.844322
875.000000	0.844295
876.000000	0.844182
877.000000	0.844009
878.000000	0.843850
879.000000	0.843923
880.000000	0.843918
881.000000	0.843866
882.000000	0.843700
883.000000	0.843579
884.000000	0.843554
885.000000	0.843644
886.000000	0.843642
887.000000	0.843569
888.000000	0.843644
889.000000	0.843814
890.000000	0.843745
891.000000	0.843664
892.000000	0.843662
893.000000	0.843575
894.000000	0.843625
895.000000	0.843607
896.000000	0.843488
897.000000	0.843382
898.000000	0.843416
899.000000	0.843443
900.000000	0.843485
901.000000	0.843483
902.000000	0.843625
903.000000	0.843635
904.000000	0.843680
905.000000	0.843726
906.000000	0.843988
907.000000	0.844153
908.000000	0.844215
909.000000	0.844031
910.000000	0.843856
911.000000	0.843830
912.000000	0.843998
913.000000	0.843973
914.000000	0.843989
915.000000	0.844164
916.000000	0.844075
917.000000	0.843955
918.000000	0.843994
919.000000	0.844161
920.000000	0.844135
921.000000	0.844113
922.000000	0.844081
923.000000	0.843864
924.000000	0.843594
925.000000	0.843355
926.000000	0.843278
927.000000	0.843265
928.000000	0.843292
929.000000	0.843232
930.000000	0.843000
931.000000	0.842841
932.000000	0.842613
933.000000	0.842364
934.000000	0.842074
935.000000	0.841764
936.000000	0.841483
937.000000	0.840988
938.000000	0.840387
939.000000	0.839917
940.000000	0.839188
941.000000	0.837897
942.000000	0.835947
943.000000	0.833649
944.000000	0.830996
945.000000	0.828464
946.000000	0.826043
947.000000	0.824402
948.000000	0.824011
949.000000	0.824459
950.000000	0.825850
951.000000	0.827791
952.000000	0.829712
953.000000	0.830811
954.000000	0.831215
955.000000	0.831051
956.000000	0.830589
957.000000	0.830203
958.000000	0.829899
959.000000	0.829823
960.000000	0.829734
961.000000	0.829765
962.000000	0.829893
963.000000	0.830049
964.000000	0.830287
965.000000	0.830604
966.000000	0.830714
967.000000	0.830990
968.000000	0.831296
969.000000	0.831524
970.000000	0.831934
971.000000	0.832410
972.000000	0.832913
973.000000	0.833248
974.000000	0.833560
975.000000	0.833751
976.000000	0.833997
977.000000	0.834374
978.000000	0.834588
979.000000	0.835095
980.000000	0.835317
981.000000	0.835626
982.000000	0.835908
983.000000	0.836173
984.000000	0.836601
985.000000	0.837082
986.000000	0.837451
987.000000	0.837821
988.000000	0.837960
989.000000	0.837893
990.000000	0.838133
991.000000	0.838561
992.000000	0.838992
993.000000	0.839487
994.000000	0.839600
995.000000	0.839789
996.000000	0.840038
997.000000	0.840449
998.000000	0.840790
999.000000	0.841178
1000.000000	0.841582
1001.000000	0.841221
1002.000000	0.841139
1003.000000	0.841191
1004.000000	0.841230
1005.000000	0.841473
1006.000000	0.841297
1007.000000	0.841034
1008.000000	0.840842
1009.000000	0.840871
1010.000000	0.840845
1011.000000	0.841583
1012.000000	0.842411
1013.000000	0.841907
1014.000000	0.841713
1015.000000	0.842019
1016.000000	0.842155
1017.000000	0.842488
1018.000000	0.843411
1019.000000	0.844086
1020.000000	0.845088
1021.000000	0.844700
1022.000000	0.844212
1023.000000	0.844528
1024.000000	0.843963
1025.000000	0.844327
1026.000000	0.845232
1027.000000	0.845179
1028.000000	0.845187
1029.000000	0.845368
1030.000000	0.845320
1031.000000	0.845541
1032.000000	0.845868
1033.000000	0.845797
1034.000000	0.845972
1035.000000	0.846361
1036.000000	0.846712
1037.000000	0.847246
1038.000000	0.847279
1039.000000	0.847362
1040.000000	0.847515
1041.000000	0.847559
1042.000000	0.847574
1043.000000	0.847823
1044.000000	0.848058
1045.000000	0.847986
1046.000000	0.847899
1047.000000	0.848088
1048.000000	0.848277
1049.000000	0.848402
1050.000000	0.848819
1051.000000	0.848875
1052.000000	0.848479
1053.000000	0.848288
1054.000000	0.848614
1055.000000	0.848791
1056.000000	0.849043
1057.000000	0.849415
1058.000000	0.849384
1059.000000	0.848850
1060.000000	0.849074
1061.000000	0.849527
1062.000000	0.849810
1063.000000	0.850418
1064.000000	0.850654
1065.000000	0.850317
1066.000000	0.850391
1067.000000	0.850478
1068.000000	0.850458
1069.000000	0.850371
1070.000000	0.850304
1071.000000	0.850321
1072.000000	0.850277
1073.000000	0.850218
1074.000000	0.850567
1075.000000	0.850781
1076.000000	0.850985
1077.000000	0.850907
1078.000000	0.850464
1079.000000	0.850268
1080.000000	0.849903
1081.000000	0.849757
1082.000000	0.850233
1083.000000	0.850271
1084.000000	0.850095
1085.000000	0.850170
1086.000000	0.850253
1087.000000	0.850334
1088.000000	0.850330
1089.000000	0.850257
1090.000000	0.850091
1091.000000	0.849694
1092.000000	0.849379
1093.000000	0.849552
1094.000000	0.849448
1095.000000	0.849053
1096.000000	0.849126
1097.000000	0.849562
1098.000000	0.849526
1099.000000	0.849295
1100.000000	0.849344
1101.000000	0.849048
1102.000000	0.848863
1103.000000	0.848949
1104.000000	0.848977
1105.000000	0.848889
1106.000000	0.848747
1107.000000	0.848438
1108.000000	0.848233
1109.000000	0.848178
1110.000000	0.847974
1111.000000	0.847895
1112.000000	0.848039
1113.000000	0.848040
1114.000000	0.847987
1115.000000	0.847910
1116.000000	0.847926
1117.000000	0.847751
1118.000000	0.847370
1119.000000	0.846955
1120.000000	0.846435
1121.000000	0.845977
1122.000000	0.845789
1123.000000	0.845904
1124.000000	0.845550
1125.000000	0.845312
1126.000000	0.845055
1127.000000	0.844538
1128.000000	0.843892
1129.000000	0.843255
1130.000000	0.842574
1131.000000	0.841839
1132.000000	0.840848
1133.000000	0.839918
1134.000000	0.838928
1135.000000	0.837603
1136.000000	0.836295
1137.000000	0.835101
1138.000000	0.833577
1139.000000	0.831951
1140.000000	0.830590
1141.000000	0.829088
1142.000000	0.827619
1143.000000	0.826053
1144.000000	0.824809
1145.000000	0.823203
1146.000000	0.821481
1147.000000	0.820064
1148.000000	0.818466
1149.000000	0.817303
1150.000000	0.816384
1151.000000	0.815690
1152.000000	0.815082
1153.000000	0.814700
1154.000000	0.814459
1155.000000	0.814252
1156.000000	0.814191
1157.000000	0.814228
1158.000000	0.814188
1159.000000	0.814321
1160.000000	0.814564
1161.000000	0.814866
1162.000000	0.815425
1163.000000	0.816312
1164.000000	0.816819
1165.000000	0.817294
1166.000000	0.817879
1167.000000	0.818327
1168.000000	0.818642
1169.000000	0.819073
1170.000000	0.819500
1171.000000	0.819895
1172.000000	0.820315
1173.000000	0.820773
1174.000000	0.821091
1175.000000	0.821196
1176.000000	0.821246
1177.000000	0.821455
1178.000000	0.821606
1179.000000	0.821655
1180.000000	0.821570
1181.000000	0.821647
1182.000000	0.821602
1183.000000	0.821770
1184.000000	0.822010
1185.000000	0.822161
1186.000000	0.822434
1187.000000	0.822491
1188.000000	0.822368
1189.000000	0.822278
1190.000000	0.822250
1191.000000	0.822225
1192.000000	0.822407
1193.000000	0.822754
1194.000000	0.822893
1195.000000	0.823065
1196.000000	0.823154
1197.000000	0.823264
1198.000000	0.823412
1199.000000	0.823572
1200.000000	0.823700
1201.000000	0.823889
1202.000000	0.824029
1203.000000	0.824177
1204.000000	0.824406
1205.000000	0.824642
1206.000000	0.824677
1207.000000	0.824886
1208.000000	0.824914
1209.000000	0.824840
1210.000000	0.824965
1211.000000	0.825218
1212.000000	0.825328
1213.000000	0.825569
1214.000000	0.825778
1215.000000	0.825849
1216.000000	0.825948
1217.000000	0.825959
1218.000000	0.826001
1219.000000	0.826091
1220.000000	0.826288
1221.000000	0.826456
1222.000000	0.826577
1223.000000	0.826692
1224.000000	0.826806
1225.000000	0.826861
1226.000000	0.827083
1227.000000	0.827138
1228.000000	0.827194
1229.000000	0.827173
1230.000000	0.826990
1231.000000	0.826846
1232.000000	0.827014
1233.000000	0.827285
1234.000000	0.827600
1235.000000	0.827797
1236.000000	0.827773
1237.000000	0.827898
1238.000000	0.827925
1239.000000	0.827902
1240.000000	0.827870
1241.000000	0.827846
1242.000000	0.827854
1243.000000	0.827850
1244.000000	0.827915
1245.000000	0.828190
1246.000000	0.828230
1247.000000	0.828344
1248.000000	0.828564
1249.000000	0.828664
1250.000000	0.828788
1251.000000	0.828913
1252.000000	0.828873
1253.000000	0.828802
1254.000000	0.828678
1255.000000	0.828377
1256.000000	0.828190
1257.000000	0.828084
1258.000000	0.828037
1259.000000	0.827900
1260.000000	0.827853
1261.000000	0.827707
1262.000000	0.827520
1263.000000	0.827438
1264.000000	0.827143
1265.000000	0.826780
1266.000000	0.826396
1267.000000	0.825941
1268.000000	0.825479
1269.000000	0.824932
1270.000000	0.824591
1271.000000	0.824199
1272.000000	0.823847
1273.000000	0.823680
1274.000000	0.823398
1275.000000	0.823130
1276.000000	0.822931
1277.000000	0.822942
1278.000000	0.822775
1279.000000	0.822699
1280.000000	0.822635
1281.000000	0.822476
1282.000000	0.822399
1283.000000	0.822526
1284.000000	0.822616
1285.000000	0.822603
1286.000000	0.822563
1287.000000	0.822463
1288.000000	0.822270
1289.000000	0.821912
1290.000000	0.821404
1291.000000	0.820880
1292.000000	0.820403
1293.000000	0.819925
1294.000000	0.819463
1295.000000	0.819085
1296.000000	0.818584
1297.000000	0.818099
1298.000000	0.817771
1299.000000	0.817336
1300.000000	0.817030
1301.000000	0.816707
1302.000000	0.816157
1303.000000	0.815785
1304.000000	0.815237
1305.000000	0.814735
1306.000000	0.814178
1307.000000	0.813734
1308.000000	0.813224
1309.000000	0.812665
1310.000000	0.811994
1311.000000	0.811343
1312.000000	0.810437
1313.000000	0.809535
1314.000000	0.808637
1315.000000	0.807569
1316.000000	0.806770
1317.000000	0.805942
1318.000000	0.804920
1319.000000	0.803821
1320.000000	0.802698
1321.000000	0.801482
1322.000000	0.800234
1323.000000	0.799095
1324.000000	0.798014
1325.000000	0.796734
1326.000000	0.795336
1327.000000	0.793957
1328.000000	0.792662
1329.000000	0.791167
1330.000000	0.789623
1331.000000	0.788188
1332.000000	0.786842
1333.000000	0.785421
1334.000000	0.784193
1335.000000	0.782953
1336.000000	0.781596
1337.000000	0.780263
1338.000000	0.778837
1339.000000	0.777497
1340.000000	0.776130
1341.000000	0.774851
1342.000000	0.773695
1343.000000	0.772527
1344.000000	0.771356
1345.000000	0.770143
1346.000000	0.769074
1347.000000	0.767865
1348.000000	0.766749
1349.000000	0.765595
1350.000000	0.764542
1351.000000	0.763394
1352.000000	0.762127
1353.000000	0.760945
1354.000000	0.759819
1355.000000	0.758554
1356.000000	0.757394
1357.000000	0.756025
1358.000000	0.754506
1359.000000	0.752978
1360.000000	0.751370
1361.000000	0.749858
1362.000000	0.748094
1363.000000	0.746142
1364.000000	0.744168
1365.000000	0.742113
1366.000000	0.739806
1367.000000	0.737406
1368.000000	0.734673
1369.000000	0.731744
1370.000000	0.728181
1371.000000	0.724245
1372.000000	0.719818
1373.000000	0.714764
1374.000000	0.709164
1375.000000	0.702604
1376.000000	0.695097
1377.000000	0.686278
1378.000000	0.675607
1379.000000	0.663575
1380.000000	0.649998
1381.000000	0.634594
1382.000000	0.618558
1383.000000	0.601766
1384.000000	0.584490
1385.000000	0.568060
1386.000000	0.552713
1387.000000	0.539217
1388.000000	0.528032
1389.000000	0.519341
1390.000000	0.513351
1391.000000	0.509618
1392.000000	0.508027
1393.000000	0.507693
1394.000000	0.510027
1395.000000	0.511696
1396.000000	0.514815
1397.000000	0.516493
1398.000000	0.518063
1399.000000	0.518575
1400.000000	0.518392
1401.000000	0.517350
1402.000000	0.515581
1403.000000	0.513123
1404.000000	0.510226
1405.000000	0.507059
1406.000000	0.503963
1407.000000	0.501136
1408.000000	0.498535
1409.000000	0.496353
1410.000000	0.494666
1411.000000	0.493193
1412.000000	0.491985
1413.000000	0.491243
1414.000000	0.490797
1415.000000	0.490634
1416.000000	0.490770
1417.000000	0.491187
1418.000000	0.491716
1419.000000	0.492627
1420.000000	0.493671
1421.000000	0.494916
1422.000000	0.496382
1423.000000	0.497872
1424.000000	0.499300
1425.000000	0.500910
1426.000000	0.502467
1427.000000	0.504125
1428.000000	0.505897
1429.000000	0.507594
1430.000000	0.509319
1431.000000	0.510970
1432.000000	0.512535
1433.000000	0.514113
1434.000000	0.515634
1435.000000	0.517214
1436.000000	0.518728
1437.000000	0.520220
1438.000000	0.521534
1439.000000	0.522811
1440.000000	0.524019
1441.000000	0.525152
1442.000000	0.526288
1443.000000	0.527303
1444.000000	0.528266
1445.000000	0.529108
1446.000000	0.529882
1447.000000	0.530592
1448.000000	0.531157
1449.000000	0.531661
1450.000000	0.532099
1451.000000	0.532423
1452.000000	0.532595
1453.000000	0.532718
1454.000000	0.532821
1455.000000	0.532932
1456.000000	0.533167
1457.000000	0.533461
1458.000000	0.533740
1459.000000	0.534051
1460.000000	0.534450
1461.000000	0.534931
1462.000000	0.535520
1463.000000	0.536164
1464.000000	0.536973
1465.000000	0.538031
1466.000000	0.539222
1467.000000	0.540625
1468.000000	0.542190
1469.000000	0.543882
1470.000000	0.545552
1471.000000	0.547379
1472.000000	0.549246
1473.000000	0.551261
1474.000000	0.553314
1475.000000	0.555337
1476.000000	0.557355
1477.000000	0.559279
1478.000000	0.561128
1479.000000	0.562989
1480.000000	0.564883
1481.000000	0.566727
1482.000000	0.568676
1483.000000	0.570621
1484.000000	0.572534
1485.000000	0.574430
1486.000000	0.576298
1487.000000	0.578197
1488.000000	0.580153
1489.000000	0.582059
1490.000000	0.583765
1491.000000	0.585564
1492.000000	0.587219
1493.000000	0.588985
1494.000000	0.590778
1495.000000	0.592484
1496.000000	0.594165
1497.000000	0.595846
1498.000000	0.597526
1499.000000	0.599170
1500.000000	0.600851
1501.000000	0.602536
1502.000000	0.604106
1503.000000	0.605748
1504.000000	0.607440
1505.000000	0.609015
1506.000000	0.610642
1507.000000	0.612216
1508.000000	0.613816
1509.000000	0.615441
1510.000000	0.616912
1511.000000	0.618476
1512.000000	0.619936
1513.000000	0.621290
1514.000000	0.622824
1515.000000	0.624225
1516.000000	0.625630
1517.000000	0.627051
1518.000000	0.628348
1519.000000	0.629544
1520.000000	0.630820
1521.000000	0.631977
1522.000000	0.633250
1523.000000	0.634651
1524.000000	0.635839
1525.000000	0.637147
1526.000000	0.638395
1527.000000	0.639583
1528.000000	0.640933
1529.000000	0.642113
1530.000000	0.643095
1531.000000	0.644309
1532.000000	0.645524
1533.000000	0.646626
1534.000000	0.647840
1535.000000	0.649039
1536.000000	0.650044
1537.000000	0.651249
1538.000000	0.652495
1539.000000	0.653503
1540.000000	0.654578
1541.000000	0.655805
1542.000000	0.656977
1543.000000	0.658152
1544.000000	0.659348
1545.000000	0.660529
1546.000000	0.661692
1547.000000	0.662802
1548.000000	0.663873
1549.000000	0.664895
1550.000000	0.665776
1551.000000	0.666707
1552.000000	0.667722
1553.000000	0.668570
1554.000000	0.669412
1555.000000	0.670347
1556.000000	0.671225
1557.000000	0.672087
1558.000000	0.673022
1559.000000	0.673919
1560.000000	0.674734
1561.000000	0.675629
1562.000000	0.676399
1563.000000	0.677129
1564.000000	0.677916
1565.000000	0.678699
1566.000000	0.679312
1567.000000	0.680087
1568.000000	0.680798
1569.000000	0.681539
1570.000000	0.682267
1571.000000	0.682975
1572.000000	0.683655
1573.000000	0.684348
1574.000000	0.684972
1575.000000	0.685596
1576.000000	0.686255
1577.000000	0.686844
1578.000000	0.687404
1579.000000	0.688134
1580.000000	0.688723
1581.000000	0.689352
1582.000000	0.689922
1583.000000	0.690435
1584.000000	0.690853
1585.000000	0.691346
1586.000000	0.691874
1587.000000	0.692348
1588.000000	0.692847
1589.000000	0.693447
1590.000000	0.693965
1591.000000	0.694488
1592.000000	0.695035
1593.000000	0.695635
1594.000000	0.696124
1595.000000	0.696690
1596.000000	0.697227
1597.000000	0.697777
1598.000000	0.698251
1599.000000	0.698784
1600.000000	0.699146
1601.000000	0.699541
1602.000000	0.699898
1603.000000	0.700220
1604.000000	0.700568
1605.000000	0.700960
1606.000000	0.701321
1607.000000	0.701841
1608.000000	0.702213
1609.000000	0.702631
1610.000000	0.702923
1611.000000	0.703117
1612.000000	0.703372
1613.000000	0.703827
1614.000000	0.704139
1615.000000	0.704579
1616.000000	0.704989
1617.000000	0.705213
1618.000000	0.705452
1619.000000	0.705635
1620.000000	0.705848
1621.000000	0.706083
1622.000000	0.706513
1623.000000	0.707000
1624.000000	0.707363
1625.000000	0.707474
1626.000000	0.707563
1627.000000	0.707554
1628.000000	0.707808
1629.000000	0.708159
1630.000000	0.708498
1631.000000	0.708805
1632.000000	0.709007
1633.000000	0.709175
1634.000000	0.709394
1635.000000	0.709707
1636.000000	0.709934
1637.000000	0.710188
1638.000000	0.710333
1639.000000	0.710516
1640.000000	0.710644
1641.000000	0.710842
1642.000000	0.711020
1643.000000	0.711245
1644.000000	0.711427
1645.000000	0.711602
1646.000000	0.711680
1647.000000	0.711781
1648.000000	0.711792
1649.000000	0.711905
1650.000000	0.712054
1651.000000	0.712279
1652.000000	0.712503
1653.000000	0.712646
1654.000000	0.712852
1655.000000	0.712956
1656.000000	0.712876
1657.000000	0.712914
1658.000000	0.712885
1659.000000	0.712958
1660.000000	0.713052
1661.000000	0.712943
1662.000000	0.712982
1663.000000	0.712981
1664.000000	0.713020
1665.000000	0.713157
1666.000000	0.713416
1667.000000	0.713533
1668.000000	0.713645
1669.000000	0.713814
1670.000000	0.713757
1671.000000	0.713773
1672.000000	0.713897
1673.000000	0.713937
1674.000000	0.714032
1675.000000	0.714154
1676.000000	0.714146
1677.000000	0.714038
1678.000000	0.713831
1679.000000	0.713650
1680.000000	0.713403
1681.000000	0.713242
1682.000000	0.713203
1683.000000	0.713134
1684.000000	0.713021
1685.000000	0.712942
1686.000000	0.712733
1687.000000	0.712592
1688.000000	0.712396
1689.000000	0.712207
1690.000000	0.712067
1691.000000	0.712021
1692.000000	0.711822
1693.000000	0.711695
1694.000000	0.711552
1695.000000	0.711417
1696.000000	0.711296
1697.000000	0.711070
1698.000000	0.710912
1699.000000	0.710777
1700.000000	0.710609
1701.000000	0.710645
1702.000000	0.710387
1703.000000	0.710077
1704.000000	0.710014
1705.000000	0.709854
1706.000000	0.709700
1707.000000	0.709524
1708.000000	0.709248
1709.000000	0.708867
1710.000000	0.708621
1711.000000	0.708384
1712.000000	0.708188
1713.000000	0.707920
1714.000000	0.707735
1715.000000	0.707491
1716.000000	0.707239
1717.000000	0.706901
1718.000000	0.706388
1719.000000	0.705942
1720.000000	0.705592
1721.000000	0.705190
1722.000000	0.704820
1723.000000	0.704449
1724.000000	0.704062
1725.000000	0.703776
1726.000000	0.703406
1727.000000	0.703019
1728.000000	0.702529
1729.000000	0.701917
1730.000000	0.701490
1731.000000	0.701047
1732.000000	0.700597
1733.000000	0.700274
1734.000000	0.699722
1735.000000	0.699272
1736.000000	0.698817
1737.000000	0.698325
1738.000000	0.697905
1739.000000	0.697390
1740.000000	0.696772
1741.000000	0.696141
1742.000000	0.695482
1743.000000	0.694956
1744.000000	0.694432
1745.000000	0.693772
1746.000000	0.693084
1747.000000	0.692391
1748.000000	0.691598
1749.000000	0.690892
1750.000000	0.690069
1751.000000	0.689337
1752.000000	0.688830
1753.000000	0.688134
1754.000000	0.687448
1755.000000	0.686717
1756.000000	0.685985
1757.000000	0.685197
1758.000000	0.684513
1759.000000	0.683894
1760.000000	0.683229
1761.000000	0.682481
1762.000000	0.681758
1763.000000	0.681078
1764.000000	0.680388
1765.000000	0.679630
1766.000000	0.678949
1767.000000	0.678093
1768.000000	0.677281
1769.000000	0.676729
1770.000000	0.676210
1771.000000	0.675617
1772.000000	0.675073
1773.000000	0.674469
1774.000000	0.673959
1775.000000	0.673648
1776.000000	0.673238
1777.000000	0.672792
1778.000000	0.672284
1779.000000	0.671635
1780.000000	0.671191
1781.000000	0.670735
1782.000000	0.670293
1783.000000	0.670023
1784.000000	0.669729
1785.000000	0.669381
1786.000000	0.669235
1787.000000	0.669271
1788.000000	0.669144
1789.000000	0.668877
1790.000000	0.668610
1791.000000	0.668210
1792.000000	0.667944
1793.000000	0.667657
1794.000000	0.667313
1795.000000	0.667057
1796.000000	0.666819
1797.000000	0.666580
1798.000000	0.666293
1799.000000	0.666085
1800.000000	0.666097
1801.000000	0.666350
1802.000000	0.666216
1803.000000	0.665909
1804.000000	0.665848
1805.000000	0.665940
1806.000000	0.666111
1807.000000	0.666621
1808.000000	0.666688
1809.000000	0.666548
1810.000000	0.666531
1811.000000	0.666380
1812.000000	0.665814
1813.000000	0.665723
1814.000000	0.666039
1815.000000	0.666075
1816.000000	0.666234
1817.000000	0.665906
1818.000000	0.665276
1819.000000	0.665156
1820.000000	0.664750
1821.000000	0.664209
1822.000000	0.663783
1823.000000	0.663388
1824.000000	0.662645
1825.000000	0.661465
1826.000000	0.660784
1827.000000	0.659859
1828.000000	0.659072
1829.000000	0.658654
1830.000000	0.658129
1831.000000	0.657422
1832.000000	0.656285
1833.000000	0.655739
1834.000000	0.655447
1835.000000	0.655075
1836.000000	0.655109
1837.000000	0.654611
1838.000000	0.653623
1839.000000	0.652484
1840.000000	0.651019
1841.000000	0.649395
1842.000000	0.647945
1843.000000	0.646176
1844.000000	0.644932
1845.000000	0.643964
1846.000000	0.642928
1847.000000	0.642035
1848.000000	0.640587
1849.000000	0.639155
1850.000000	0.637126
1851.000000	0.635099
1852.000000	0.632684
1853.000000	0.630593
1854.000000	0.628305
1855.000000	0.625635
1856.000000	0.622894
1857.000000	0.619598
1858.000000	0.615977
1859.000000	0.611929
1860.000000	0.607819
1861.000000	0.603656
1862.000000	0.599205
1863.000000	0.594693
1864.000000	0.590049
1865.000000	0.585378
1866.000000	0.580112
1867.000000	0.574594
1868.000000	0.568495
1869.000000	0.561773
1870.000000	0.554761
1871.000000	0.547227
1872.000000	0.539407
1873.000000	0.531281
1874.000000	0.522744
1875.000000	0.513960
1876.000000	0.504771
1877.000000	0.494611
1878.000000	0.484392
1879.000000	0.473865
1880.000000	0.462972
1881.000000	0.452251
1882.000000	0.441129
1883.000000	0.429391
1884.000000	0.417720
1885.000000	0.405323
1886.000000	0.393098
1887.000000	0.380548
1888.000000	0.368199
1889.000000	0.355769
1890.000000	0.343994
1891.000000	0.332498
1892.000000	0.321033
1893.000000	0.310252
1894.000000	0.299822
1895.000000	0.289991
1896.000000	0.280802
1897.000000	0.272247
1898.000000	0.264153
1899.000000	0.257395
1900.000000	0.251543
1901.000000	0.246666
1902.000000	0.242935
1903.000000	0.239852
1904.000000	0.237307
1905.000000	0.235334
1906.000000	0.234037
1907.000000	0.233488
1908.000000	0.233407
1909.000000	0.233916
1910.000000	0.234965
1911.000000	0.236062
1912.000000	0.237628
1913.000000	0.239451
1914.000000	0.241410
1915.000000	0.243508
1916.000000	0.245641
1917.000000	0.247872
1918.000000	0.250325
1919.000000	0.252787
1920.000000	0.255354
1921.000000	0.257963
1922.000000	0.260130
1923.000000	0.262348
1924.000000	0.264409
1925.000000	0.266317
1926.000000	0.268483
1927.000000	0.270584
1928.000000	0.272364
1929.000000	0.274037
1930.000000	0.275497
1931.000000	0.276940
1932.000000	0.278510
1933.000000	0.280172
1934.000000	0.281916
1935.000000	0.283561
1936.000000	0.285121
1937.000000	0.286694
1938.000000	0.288048
1939.000000	0.289360
1940.000000	0.290590
1941.000000	0.291769
1942.000000	0.292873
1943.000000	0.294153
1944.000000	0.295609
1945.000000	0.296883
1946.000000	0.298053
1947.000000	0.299319
1948.000000	0.300388
1949.000000	0.301461
1950.000000	0.302608
1951.000000	0.303589
1952.000000	0.304519
1953.000000	0.305382
1954.000000	0.306396
1955.000000	0.307543
1956.000000	0.308676
1957.000000	0.309901
1958.000000	0.311039
1959.000000	0.312341
1960.000000	0.313653
1961.000000	0.314792
1962.000000	0.316046
1963.000000	0.317449
1964.000000	0.318720
1965.000000	0.319984
1966.000000	0.321419
1967.000000	0.322989
1968.000000	0.324630
1969.000000	0.326139
1970.000000	0.327805
1971.000000	0.329231
1972.000000	0.330517
1973.000000	0.331879
1974.000000	0.333395
1975.000000	0.335008
1976.000000	0.336748
1977.000000	0.338641
1978.000000	0.340357
1979.000000	0.341928
1980.000000	0.343476
1981.000000	0.345010
1982.000000	0.346604
1983.000000	0.348557
1984.000000	0.350356
1985.000000	0.352264
1986.000000	0.353924
1987.000000	0.355548
1988.000000	0.357262
1989.000000	0.358771
1990.000000	0.360561
1991.000000	0.362471
1992.000000	0.364234
1993.000000	0.366124
1994.000000	0.368214
1995.000000	0.370013
1996.000000	0.371848
1997.000000	0.373830
1998.000000	0.375962
1999.000000	0.377988
2000.000000	0.380170
2001.000000	0.382218
2002.000000	0.384066
2003.000000	0.386069
2004.000000	0.387868
2005.000000	0.389420
2006.000000	0.391255
2007.000000	0.393176
2008.000000	0.395206
2009.000000	0.397551
2010.000000	0.399751
2011.000000	0.401818
2012.000000	0.403694
2013.000000	0.405300
2014.000000	0.406925
2015.000000	0.408810
2016.000000	0.410413
2017.000000	0.412220
2018.000000	0.414143
2019.000000	0.415623
2020.000000	0.417202
2021.000000	0.418796
2022.000000	0.420188
2023.000000	0.421809
2024.000000	0.423631
2025.000000	0.425464
2026.000000	0.427215
2027.000000	0.429030
2028.000000	0.430751
2029.000000	0.432418
2030.000000	0.434129
2031.000000	0.435655
2032.000000	0.437187
2033.000000	0.439052
2034.000000	0.440672
2035.000000	0.442334
2036.000000	0.443797
2037.000000	0.445481
2038.000000	0.446926
2039.000000	0.448207
2040.000000	0.449789
2041.000000	0.451081
2042.000000	0.452211
2043.000000	0.453382
2044.000000	0.454327
2045.000000	0.455396
2046.000000	0.456295
2047.000000	0.457461
2048.000000	0.458713
2049.000000	0.460275
2050.000000	0.461576
2051.000000	0.462860
2052.000000	0.464175
2053.000000	0.465189
2054.000000	0.466233
2055.000000	0.467708
2056.000000	0.469010
2057.000000	0.470261
2058.000000	0.471731
2059.000000	0.473018
2060.000000	0.474063
2061.000000	0.474943
2062.000000	0.475803
2063.000000	0.476547
2064.000000	0.477038
2065.000000	0.477710
2066.000000	0.478292
2067.000000	0.479042
2068.000000	0.479904
2069.000000	0.481041
2070.000000	0.482353
2071.000000	0.483206
2072.000000	0.484071
2073.000000	0.484968
2074.000000	0.485616
2075.000000	0.486390
2076.000000	0.487368
2077.000000	0.488067
2078.000000	0.488651
2079.000000	0.489078
2080.000000	0.489272
2081.000000	0.489700
2082.000000	0.490176
2083.000000	0.490595
2084.000000	0.491082
2085.000000	0.491616
2086.000000	0.492147
2087.000000	0.493000
2088.000000	0.494177
2089.000000	0.495670
2090.000000	0.496753
2091.000000	0.497833
2092.000000	0.498795
2093.000000	0.499605
2094.000000	0.500277
2095.000000	0.501017
2096.000000	0.501667
2097.000000	0.501957
2098.000000	0.502059
2099.000000	0.502527
2100.000000	0.503401
2101.000000	0.504397
2102.000000	0.505469
2103.000000	0.506534
2104.000000	0.507518
2105.000000	0.508517
2106.000000	0.509621
2107.000000	0.510513
2108.000000	0.511331
2109.000000	0.511992
2110.000000	0.511781
2111.000000	0.512300
2112.000000	0.513025
2113.000000	0.513304
2114.000000	0.514167
2115.000000	0.515150
2116.000000	0.515489
2117.000000	0.515968
2118.000000	0.516709
2119.000000	0.517432
2120.000000	0.518447
2121.000000	0.519883
2122.000000	0.521042
2123.000000	0.522389
2124.000000	0.523357
2125.000000	0.524142
2126.000000	0.524766
2127.000000	0.524891
2128.000000	0.525604
2129.000000	0.526281
2130.000000	0.527219
2131.000000	0.528033
2132.000000	0.528860
2133.000000	0.529659
2134.000000	0.530320
2135.000000	0.530878
2136.000000	0.531525
2137.000000	0.532059
2138.000000	0.532424
2139.000000	0.532901
2140.000000	0.533391
2141.000000	0.533808
2142.000000	0.534151
2143.000000	0.534171
2144.000000	0.534389
2145.000000	0.534785
2146.000000	0.535128
2147.000000	0.536251
2148.000000	0.537116
2149.000000	0.537711
2150.000000	0.538193
2151.000000	0.538071
2152.000000	0.538093
2153.000000	0.538156
2154.000000	0.538354
2155.000000	0.538953
2156.000000	0.539133
2157.000000	0.539340
2158.000000	0.539447
2159.000000	0.539365
2160.000000	0.539448
2161.000000	0.539380
2162.000000	0.539553
2163.000000	0.539653
2164.000000	0.539705
2165.000000	0.539802
2166.000000	0.540102
2167.000000	0.540307
2168.000000	0.540729
2169.000000	0.541182
2170.000000	0.541650
2171.000000	0.541608
2172.000000	0.541081
2173.000000	0.540945
2174.000000	0.540454
2175.000000	0.540439
2176.000000	0.541058
2177.000000	0.541336
2178.000000	0.541971
2179.000000	0.542133
2180.000000	0.541490
2181.000000	0.541909
2182.000000	0.541716
2183.000000	0.541282
2184.000000	0.541835
2185.000000	0.541791
2186.000000	0.540394
2187.000000	0.539583
2188.000000	0.538440
2189.000000	0.536918
2190.000000	0.536492
2191.000000	0.536684
2192.000000	0.536401
2193.000000	0.536619
2194.000000	0.535758
2195.000000	0.533787
2196.000000	0.532840
2197.000000	0.531482
2198.000000	0.530661
2199.000000	0.531264
2200.000000	0.531379
2201.000000	0.531462
2202.000000	0.531363
2203.000000	0.531323
2204.000000	0.530215
2205.000000	0.528113
2206.000000	0.526418
2207.000000	0.524801
2208.000000	0.523742
2209.000000	0.523489
2210.000000	0.523537
2211.000000	0.522521
2212.000000	0.522369
2213.000000	0.521797
2214.000000	0.520676
2215.000000	0.519986
2216.000000	0.519471
2217.000000	0.519094
2218.000000	0.519194
2219.000000	0.518799
2220.000000	0.518904
2221.000000	0.517865
2222.000000	0.515137
2223.000000	0.513881
2224.000000	0.512695
2225.000000	0.512078
2226.000000	0.511359
2227.000000	0.509447
2228.000000	0.507346
2229.000000	0.504281
2230.000000	0.502088
2231.000000	0.501574
2232.000000	0.500266
2233.000000	0.499854
2234.000000	0.500151
2235.000000	0.500266
2236.000000	0.500009
2237.000000	0.499651
2238.000000	0.499230
2239.000000	0.498100
2240.000000	0.497953
2241.000000	0.498644
2242.000000	0.498794
2243.000000	0.499305
2244.000000	0.499320
2245.000000	0.498396
2246.000000	0.498371
2247.000000	0.498117
2248.000000	0.498238
2249.000000	0.499169
2250.000000	0.500336
2251.000000	0.500170
2252.000000	0.500072
2253.000000	0.499403
2254.000000	0.497659
2255.000000	0.496923
2256.000000	0.496285
2257.000000	0.495724
2258.000000	0.495198
2259.000000	0.493703
2260.000000	0.492844
2261.000000	0.490547
2262.000000	0.486929
2263.000000	0.484274
2264.000000	0.480941
2265.000000	0.478417
2266.000000	0.476990
2267.000000	0.474809
2268.000000	0.472400
2269.000000	0.470483
2270.000000	0.468691
2271.000000	0.466223
2272.000000	0.464185
2273.000000	0.461455
2274.000000	0.457485
2275.000000	0.454352
2276.000000	0.451947
2277.000000	0.448029
2278.000000	0.444158
2279.000000	0.439380
2280.000000	0.432888
2281.000000	0.426714
2282.000000	0.420751
2283.000000	0.414950
2284.000000	0.409809
2285.000000	0.404305
2286.000000	0.399018
2287.000000	0.394152
2288.000000	0.389142
2289.000000	0.384281
2290.000000	0.379851
2291.000000	0.376333
2292.000000	0.374437
2293.000000	0.373001
2294.000000	0.371116
2295.000000	0.369366
2296.000000	0.367836
2297.000000	0.366210
2298.000000	0.364702
2299.000000	0.364210
2300.000000	0.362008
2301.000000	0.359419
2302.000000	0.355247
2303.000000	0.349309
2304.000000	0.343502
2305.000000	0.335858
2306.000000	0.329821
2307.000000	0.323894
2308.000000	0.319201
2309.000000	0.315412
2310.000000	0.311674
2311.000000	0.308984
2312.000000	0.307025
2313.000000	0.305737
2314.000000	0.305817
2315.000000	0.306627
2316.000000	0.309319
2317.000000	0.313292
2318.000000	0.318086
2319.000000	0.323762
2320.000000	0.328224
2321.000000	0.333094
2322.000000	0.338058
2323.000000	0.342616
2324.000000	0.348646
2325.000000	0.354005
2326.000000	0.359399
2327.000000	0.365444
2328.000000	0.370429
2329.000000	0.375048
2330.000000	0.378494
2331.000000	0.380104
2332.000000	0.381846
2333.000000	0.383717
2334.000000	0.384071
2335.000000	0.385436
2336.000000	0.386668
2337.000000	0.387756
2338.000000	0.389173
2339.000000	0.390025
2340.000000	0.390695
2341.000000	0.390731
2342.000000	0.389507
2343.000000	0.389534
2344.000000	0.389454
2345.000000	0.389830
2346.000000	0.392149
2347.000000	0.392106
2348.000000	0.391254
2349.000000	0.389766
2350.000000	0.387734
2351.000000	0.386363
2352.000000	0.385764
2353.000000	0.386375
2354.000000	0.385016
2355.000000	0.384049
2356.000000	0.383125
2357.000000	0.381148
2358.000000	0.379863
2359.000000	0.378042
2360.000000	0.376911
2361.000000	0.376087
2362.000000	0.374664
2363.000000	0.374849
2364.000000	0.372115
2365.000000	0.369123
2366.000000	0.367653
2367.000000	0.363255
2368.000000	0.361075
2369.000000	0.359364
2370.000000	0.356146
2371.000000	0.355386
2372.000000	0.354793
2373.000000	0.353289
2374.000000	0.350827
2375.000000	0.347566
2376.000000	0.344565
2377.000000	0.340848
2378.000000	0.338570
2379.000000	0.336503
2380.000000	0.332952
2381.000000	0.329922
2382.000000	0.326190
2383.000000	0.323023
2384.000000	0.320231
2385.000000	0.317913
2386.000000	0.315984
2387.000000	0.314935
2388.000000	0.314565
2389.000000	0.312873
2390.000000	0.312707
2391.000000	0.312239
2392.000000	0.312397
2393.000000	0.315719
2394.000000	0.318438
2395.000000	0.321712
2396.000000	0.325256
2397.000000	0.326128
2398.000000	0.327625
2399.000000	0.328551
2400.000000	0.325882
2401.000000	0.323498
2402.000000	0.321770
2403.000000	0.321587
2404.000000	0.323327
2405.000000	0.325327
2406.000000	0.328998
2407.000000	0.329106
2408.000000	0.327856
2409.000000	0.328395
2410.000000	0.326730
2411.000000	0.325819
2412.000000	0.325724
2413.000000	0.323426
2414.000000	0.320784
2415.000000	0.319252
2416.000000	0.320008
2417.000000	0.323572
2418.000000	0.323550
2419.000000	0.322343
2420.000000	0.321244
2421.000000	0.314630
2422.000000	0.311601
2423.000000	0.314737
2424.000000	0.313626
2425.000000	0.310714
2426.000000	0.312061
2427.000000	0.311727
2428.000000	0.310106
2429.000000	0.313522
2430.000000	0.316492
2431.000000	0.314234
2432.000000	0.312723
2433.000000	0.307219
2434.000000	0.297230
2435.000000	0.294231
2436.000000	0.290774
2437.000000	0.291164
2438.000000	0.299919
2439.000000	0.302009
2440.000000	0.300883
2441.000000	0.297829
2442.000000	0.290418
2443.000000	0.284103
2444.000000	0.279161
2445.000000	0.279053
2446.000000	0.281967
2447.000000	0.281810
2448.000000	0.279138
2449.000000	0.274298
2450.000000	0.271990
2451.000000	0.271295
2452.000000	0.270044
2453.000000	0.272077
2454.000000	0.268750
2455.000000	0.264249
2456.000000	0.267890
2457.000000	0.267892
2458.000000	0.265287
2459.000000	0.265893
2460.000000	0.268528
2461.000000	0.273659
2462.000000	0.275669
2463.000000	0.278374
2464.000000	0.272883
2465.000000	0.258715
2466.000000	0.255718
2467.000000	0.249263
2468.000000	0.237283
2469.000000	0.237529
2470.000000	0.240187
2471.000000	0.241323
2472.000000	0.248931
2473.000000	0.254395
2474.000000	0.252919
2475.000000	0.259368
2476.000000	0.265392
2477.000000	0.264276
2478.000000	0.263821
2479.000000	0.250899
2480.000000	0.235271
2481.000000	0.227266
2482.000000	0.224846
2483.000000	0.229269
2484.000000	0.234412
2485.000000	0.241829
2486.000000	0.241640
2487.000000	0.244330
2488.000000	0.256853
2489.000000	0.255506
2490.000000	0.262511
2491.000000	0.261420
2492.000000	0.253762
2493.000000	0.251850
2494.000000	0.253334
2495.000000	0.247231
2496.000000	0.241968
2497.000000	0.245089
2498.000000	0.238054
2499.000000	0.223819
2500.000000	0.221560
