# Wavelength	SM1200H_00000.asd.rts.txt
350.000000	0.627629
351.000000	0.621698
352.000000	0.616790
353.000000	0.615202
354.000000	0.620397
355.000000	0.620125
356.000000	0.622797
357.000000	0.629872
358.000000	0.627842
359.000000	0.626130
360.000000	0.626833
361.000000	0.629082
362.000000	0.632895
363.000000	0.635189
364.000000	0.634184
365.000000	0.637140
366.000000	0.638733
367.000000	0.638018
368.000000	0.639381
369.000000	0.641288
370.000000	0.643575
371.000000	0.646201
372.000000	0.647634
373.000000	0.648730
374.000000	0.651400
375.000000	0.654810
376.000000	0.656449
377.000000	0.656764
378.000000	0.660008
379.000000	0.662424
380.000000	0.663061
381.000000	0.664302
382.000000	0.667215
383.000000	0.669331
384.000000	0.669752
385.000000	0.670083
386.000000	0.670993
387.000000	0.672966
388.000000	0.675521
389.000000	0.676528
390.000000	0.677241
391.000000	0.679131
392.000000	0.680647
393.000000	0.681667
394.000000	0.682529
395.000000	0.684510
396.000000	0.686425
397.000000	0.687550
398.000000	0.687925
399.000000	0.688611
400.000000	0.689720
401.000000	0.690563
402.000000	0.691338
403.000000	0.692103
404.000000	0.693169
405.000000	0.693873
406.000000	0.694588
407.000000	0.695526
408.000000	0.696170
409.000000	0.696818
410.000000	0.697614
411.000000	0.698525
412.000000	0.699091
413.000000	0.699659
414.000000	0.700660
415.000000	0.701399
416.000000	0.702249
417.000000	0.703398
418.000000	0.704531
419.000000	0.705321
420.000000	0.705929
421.000000	0.706925
422.000000	0.707997
423.000000	0.708999
424.000000	0.710061
425.000000	0.711149
426.000000	0.712149
427.000000	0.712994
428.000000	0.713985
429.000000	0.715127
430.000000	0.716402
431.000000	0.717705
432.000000	0.719041
433.000000	0.720242
434.000000	0.721370
435.000000	0.722364
436.000000	0.723461
437.000000	0.724749
438.000000	0.725727
439.000000	0.726616
440.000000	0.727769
441.000000	0.728765
442.000000	0.729881
443.000000	0.730976
444.000000	0.732101
445.000000	0.732912
446.000000	0.733932
447.000000	0.735256
448.000000	0.736378
449.000000	0.737409
450.000000	0.738476
451.000000	0.739401
452.000000	0.740306
453.000000	0.741082
454.000000	0.742022
455.000000	0.742856
456.000000	0.743815
457.000000	0.744758
458.000000	0.745384
459.000000	0.745937
460.000000	0.746734
461.000000	0.747111
462.000000	0.747788
463.000000	0.748571
464.000000	0.749103
465.000000	0.749653
466.000000	0.750141
467.000000	0.750679
468.000000	0.751262
469.000000	0.751619
470.000000	0.751979
471.000000	0.752552
472.000000	0.752993
473.000000	0.753259
474.000000	0.753917
475.000000	0.754353
476.000000	0.754822
477.000000	0.755514
478.000000	0.755795
479.000000	0.756288
480.000000	0.757034
481.000000	0.757449
482.000000	0.758080
483.000000	0.758797
484.000000	0.759493
485.000000	0.759971
486.000000	0.760615
487.000000	0.761102
488.000000	0.761710
489.000000	0.762493
490.000000	0.763283
491.000000	0.763970
492.000000	0.764701
493.000000	0.765290
494.000000	0.765941
495.000000	0.766685
496.000000	0.767411
497.000000	0.768206
498.000000	0.768949
499.000000	0.769770
500.000000	0.770527
501.000000	0.771298
502.000000	0.772157
503.000000	0.772915
504.000000	0.773691
505.000000	0.774517
506.000000	0.775388
507.000000	0.776081
508.000000	0.776828
509.000000	0.777645
510.000000	0.778499
511.000000	0.779249
512.000000	0.779961
513.000000	0.780708
514.000000	0.781503
515.000000	0.782350
516.000000	0.783055
517.000000	0.783718
518.000000	0.784517
519.000000	0.785294
520.000000	0.785971
521.000000	0.786610
522.000000	0.787269
523.000000	0.787942
524.000000	0.788675
525.000000	0.789398
526.000000	0.790113
527.000000	0.790863
528.000000	0.791533
529.000000	0.792148
530.000000	0.792690
531.000000	0.793353
532.000000	0.794008
533.000000	0.794739
534.000000	0.795444
535.000000	0.796089
536.000000	0.796829
537.000000	0.797534
538.000000	0.798191
539.000000	0.798796
540.000000	0.799449
541.000000	0.800073
542.000000	0.800697
543.000000	0.801355
544.000000	0.802078
545.000000	0.802684
546.000000	0.803288
547.000000	0.803882
548.000000	0.804543
549.000000	0.805136
550.000000	0.805807
551.000000	0.806548
552.000000	0.807170
553.000000	0.807774
554.000000	0.808381
555.000000	0.809022
556.000000	0.809746
557.000000	0.810326
558.000000	0.811006
559.000000	0.811580
560.000000	0.812091
561.000000	0.812726
562.000000	0.813298
563.000000	0.813777
564.000000	0.814337
565.000000	0.814844
566.000000	0.815372
567.000000	0.815931
568.000000	0.816451
569.000000	0.816905
570.000000	0.817362
571.000000	0.817827
572.000000	0.818334
573.000000	0.818772
574.000000	0.819113
575.000000	0.819536
576.000000	0.820052
577.000000	0.820482
578.000000	0.820882
579.000000	0.821334
580.000000	0.821773
581.000000	0.822171
582.000000	0.822595
583.000000	0.822935
584.000000	0.823242
585.000000	0.823674
586.000000	0.824050
587.000000	0.824361
588.000000	0.824652
589.000000	0.825026
590.000000	0.825396
591.000000	0.825717
592.000000	0.826080
593.000000	0.826454
594.000000	0.826812
595.000000	0.827139
596.000000	0.827465
597.000000	0.827874
598.000000	0.828189
599.000000	0.828415
600.000000	0.828733
601.000000	0.829063
602.000000	0.829386
603.000000	0.829658
604.000000	0.829897
605.000000	0.830127
606.000000	0.830348
607.000000	0.830550
608.000000	0.830711
609.000000	0.830982
610.000000	0.831310
611.000000	0.831584
612.000000	0.831771
613.000000	0.831876
614.000000	0.832011
615.000000	0.832139
616.000000	0.832233
617.000000	0.832210
618.000000	0.832210
619.000000	0.832262
620.000000	0.832236
621.000000	0.832127
622.000000	0.832089
623.000000	0.832104
624.000000	0.832142
625.000000	0.832249
626.000000	0.832380
627.000000	0.832515
628.000000	0.832650
629.000000	0.833007
630.000000	0.833224
631.000000	0.833410
632.000000	0.833536
633.000000	0.833695
634.000000	0.833916
635.000000	0.834076
636.000000	0.834289
637.000000	0.834568
638.000000	0.834879
639.000000	0.835176
640.000000	0.835525
641.000000	0.835637
642.000000	0.835803
643.000000	0.836024
644.000000	0.836221
645.000000	0.836366
646.000000	0.836516
647.000000	0.836644
648.000000	0.836784
649.000000	0.836979
650.000000	0.837168
651.000000	0.837318
652.000000	0.837371
653.000000	0.837448
654.000000	0.837520
655.000000	0.837610
656.000000	0.837737
657.000000	0.837772
658.000000	0.837872
659.000000	0.837976
660.000000	0.838020
661.000000	0.838093
662.000000	0.838134
663.000000	0.838266
664.000000	0.838429
665.000000	0.838586
666.000000	0.838687
667.000000	0.838642
668.000000	0.838725
669.000000	0.838826
670.000000	0.838886
671.000000	0.838955
672.000000	0.839062
673.000000	0.839168
674.000000	0.839236
675.000000	0.839255
676.000000	0.839259
677.000000	0.839332
678.000000	0.839380
679.000000	0.839413
680.000000	0.839470
681.000000	0.839501
682.000000	0.839686
683.000000	0.839843
684.000000	0.840049
685.000000	0.840179
686.000000	0.840302
687.000000	0.840394
688.000000	0.840432
689.000000	0.840466
690.000000	0.840604
691.000000	0.840692
692.000000	0.840675
693.000000	0.840738
694.000000	0.840868
695.000000	0.840985
696.000000	0.841110
697.000000	0.841303
698.000000	0.841432
699.000000	0.841559
700.000000	0.841734
701.000000	0.841739
702.000000	0.841793
703.000000	0.841890
704.000000	0.841861
705.000000	0.841876
706.000000	0.841875
707.000000	0.841962
708.000000	0.842098
709.000000	0.842185
710.000000	0.842218
711.000000	0.842252
712.000000	0.842324
713.000000	0.842479
714.000000	0.842621
715.000000	0.842676
716.000000	0.842703
717.000000	0.842747
718.000000	0.842735
719.000000	0.842684
720.000000	0.842669
721.000000	0.842753
722.000000	0.842694
723.000000	0.842602
724.000000	0.842575
725.000000	0.842449
726.000000	0.842419
727.000000	0.842373
728.000000	0.842393
729.000000	0.842478
730.000000	0.842490
731.000000	0.842634
732.000000	0.842762
733.000000	0.842889
734.000000	0.842919
735.000000	0.842834
736.000000	0.842911
737.000000	0.842861
738.000000	0.842806
739.000000	0.842944
740.000000	0.842942
741.000000	0.843005
742.000000	0.843065
743.000000	0.843048
744.000000	0.843102
745.000000	0.843119
746.000000	0.843193
747.000000	0.843217
748.000000	0.843398
749.000000	0.843663
750.000000	0.843836
751.000000	0.843911
752.000000	0.844010
753.000000	0.844166
754.000000	0.844269
755.000000	0.844284
756.000000	0.844289
757.000000	0.844259
758.000000	0.844264
759.000000	0.844376
760.000000	0.844440
761.000000	0.844586
762.000000	0.844704
763.000000	0.844730
764.000000	0.844841
765.000000	0.844912
766.000000	0.844979
767.000000	0.845074
768.000000	0.845186
769.000000	0.845257
770.000000	0.845314
771.000000	0.845483
772.000000	0.845701
773.000000	0.845796
774.000000	0.845903
775.000000	0.845876
776.000000	0.845824
777.000000	0.845798
778.000000	0.845793
779.000000	0.845839
780.000000	0.845925
781.000000	0.845934
782.000000	0.845931
783.000000	0.846136
784.000000	0.846275
785.000000	0.846368
786.000000	0.846397
787.000000	0.846391
788.000000	0.846530
789.000000	0.846598
790.000000	0.846544
791.000000	0.846532
792.000000	0.846517
793.000000	0.846494
794.000000	0.846487
795.000000	0.846533
796.000000	0.846547
797.000000	0.846521
798.000000	0.846551
799.000000	0.846683
800.000000	0.846831
801.000000	0.846902
802.000000	0.846981
803.000000	0.846983
804.000000	0.846961
805.000000	0.846888
806.000000	0.846759
807.000000	0.846795
808.000000	0.846898
809.000000	0.847074
810.000000	0.847162
811.000000	0.847058
812.000000	0.847066
813.000000	0.846989
814.000000	0.846835
815.000000	0.846851
816.000000	0.846855
817.000000	0.846959
818.000000	0.847059
819.000000	0.847201
820.000000	0.847297
821.000000	0.847182
822.000000	0.846982
823.000000	0.846892
824.000000	0.846825
825.000000	0.846909
826.000000	0.846997
827.000000	0.847045
828.000000	0.847119
829.000000	0.847060
830.000000	0.846845
831.000000	0.846696
832.000000	0.846527
833.000000	0.846579
834.000000	0.846713
835.000000	0.846827
836.000000	0.846718
837.000000	0.846595
838.000000	0.846573
839.000000	0.846575
840.000000	0.846622
841.000000	0.846715
842.000000	0.846752
843.000000	0.846864
844.000000	0.847041
845.000000	0.847153
846.000000	0.847151
847.000000	0.847187
848.000000	0.847251
849.000000	0.847371
850.000000	0.847442
851.000000	0.847380
852.000000	0.847313
853.000000	0.847348
854.000000	0.847366
855.000000	0.847549
856.000000	0.847611
857.000000	0.847429
858.000000	0.847391
859.000000	0.847437
860.000000	0.847386
861.000000	0.847371
862.000000	0.847542
863.000000	0.847805
864.000000	0.848026
865.000000	0.848186
866.000000	0.848310
867.000000	0.848233
868.000000	0.848187
869.000000	0.848065
870.000000	0.847951
871.000000	0.847877
872.000000	0.847892
873.000000	0.847868
874.000000	0.847940
875.000000	0.847915
876.000000	0.847859
877.000000	0.847754
878.000000	0.847632
879.000000	0.847704
880.000000	0.847683
881.000000	0.847689
882.000000	0.847614
883.000000	0.847549
884.000000	0.847480
885.000000	0.847529
886.000000	0.847546
887.000000	0.847542
888.000000	0.847616
889.000000	0.847861
890.000000	0.847891
891.000000	0.847804
892.000000	0.847652
893.000000	0.847416
894.000000	0.847418
895.000000	0.847464
896.000000	0.847462
897.000000	0.847450
898.000000	0.847486
899.000000	0.847408
900.000000	0.847374
901.000000	0.847366
902.000000	0.847467
903.000000	0.847491
904.000000	0.847556
905.000000	0.847558
906.000000	0.847731
907.000000	0.847815
908.000000	0.847884
909.000000	0.847890
910.000000	0.847874
911.000000	0.847893
912.000000	0.847997
913.000000	0.847972
914.000000	0.847945
915.000000	0.848057
916.000000	0.847999
917.000000	0.847935
918.000000	0.847987
919.000000	0.848106
920.000000	0.848080
921.000000	0.847970
922.000000	0.847858
923.000000	0.847744
924.000000	0.847593
925.000000	0.847467
926.000000	0.847444
927.000000	0.847276
928.000000	0.847119
929.000000	0.846946
930.000000	0.846715
931.000000	0.846545
932.000000	0.846345
933.000000	0.846126
934.000000	0.845741
935.000000	0.845340
936.000000	0.845015
937.000000	0.844526
938.000000	0.843942
939.000000	0.843497
940.000000	0.842788
941.000000	0.841494
942.000000	0.839556
943.000000	0.837178
944.000000	0.834335
945.000000	0.831667
946.000000	0.829165
947.000000	0.827542
948.000000	0.827282
949.000000	0.827873
950.000000	0.829341
951.000000	0.831241
952.000000	0.833004
953.000000	0.834102
954.000000	0.834531
955.000000	0.834314
956.000000	0.833904
957.000000	0.833550
958.000000	0.833256
959.000000	0.833205
960.000000	0.833083
961.000000	0.833044
962.000000	0.833121
963.000000	0.833329
964.000000	0.833537
965.000000	0.833852
966.000000	0.834071
967.000000	0.834358
968.000000	0.834756
969.000000	0.835068
970.000000	0.835381
971.000000	0.835857
972.000000	0.836457
973.000000	0.836855
974.000000	0.836964
975.000000	0.837155
976.000000	0.837493
977.000000	0.837888
978.000000	0.838124
979.000000	0.838555
980.000000	0.838646
981.000000	0.838887
982.000000	0.839233
983.000000	0.839496
984.000000	0.839843
985.000000	0.840363
986.000000	0.840686
987.000000	0.841078
988.000000	0.841374
989.000000	0.841316
990.000000	0.841662
991.000000	0.842181
992.000000	0.842523
993.000000	0.842951
994.000000	0.843173
995.000000	0.843529
996.000000	0.843722
997.000000	0.844193
998.000000	0.844434
999.000000	0.844553
1000.000000	0.844992
1001.000000	0.844440
1002.000000	0.844701
1003.000000	0.844836
1004.000000	0.844866
1005.000000	0.844692
1006.000000	0.844358
1007.000000	0.843989
1008.000000	0.843714
1009.000000	0.843554
1010.000000	0.843229
1011.000000	0.843970
1012.000000	0.845043
1013.000000	0.844871
1014.000000	0.845049
1015.000000	0.845345
1016.000000	0.845269
1017.000000	0.845362
1018.000000	0.846142
1019.000000	0.846712
1020.000000	0.847578
1021.000000	0.847134
1022.000000	0.846772
1023.000000	0.847111
1024.000000	0.846576
1025.000000	0.846984
1026.000000	0.847632
1027.000000	0.847274
1028.000000	0.847434
1029.000000	0.847864
1030.000000	0.847936
1031.000000	0.848301
1032.000000	0.848532
1033.000000	0.848216
1034.000000	0.848320
1035.000000	0.848961
1036.000000	0.849260
1037.000000	0.849609
1038.000000	0.849475
1039.000000	0.849276
1040.000000	0.849227
1041.000000	0.849089
1042.000000	0.849003
1043.000000	0.849561
1044.000000	0.850258
1045.000000	0.850451
1046.000000	0.850336
1047.000000	0.850548
1048.000000	0.850464
1049.000000	0.850508
1050.000000	0.851016
1051.000000	0.851116
1052.000000	0.850668
1053.000000	0.850445
1054.000000	0.850670
1055.000000	0.850968
1056.000000	0.851437
1057.000000	0.852160
1058.000000	0.852315
1059.000000	0.851799
1060.000000	0.851814
1061.000000	0.851872
1062.000000	0.852010
1063.000000	0.852805
1064.000000	0.853095
1065.000000	0.852896
1066.000000	0.853026
1067.000000	0.853144
1068.000000	0.853128
1069.000000	0.853035
1070.000000	0.852949
1071.000000	0.852882
1072.000000	0.852821
1073.000000	0.852756
1074.000000	0.853151
1075.000000	0.853366
1076.000000	0.853433
1077.000000	0.853292
1078.000000	0.852962
1079.000000	0.852767
1080.000000	0.852455
1081.000000	0.852377
1082.000000	0.852790
1083.000000	0.852922
1084.000000	0.853151
1085.000000	0.853315
1086.000000	0.853368
1087.000000	0.853441
1088.000000	0.853223
1089.000000	0.853050
1090.000000	0.852880
1091.000000	0.852387
1092.000000	0.852155
1093.000000	0.852447
1094.000000	0.852429
1095.000000	0.852255
1096.000000	0.852358
1097.000000	0.852616
1098.000000	0.852635
1099.000000	0.852598
1100.000000	0.852621
1101.000000	0.852298
1102.000000	0.852076
1103.000000	0.851969
1104.000000	0.851833
1105.000000	0.851554
1106.000000	0.851357
1107.000000	0.851063
1108.000000	0.850796
1109.000000	0.850713
1110.000000	0.850583
1111.000000	0.850516
1112.000000	0.850534
1113.000000	0.850550
1114.000000	0.850692
1115.000000	0.850608
1116.000000	0.850463
1117.000000	0.850306
1118.000000	0.849971
1119.000000	0.849580
1120.000000	0.849233
1121.000000	0.848814
1122.000000	0.848518
1123.000000	0.848598
1124.000000	0.848214
1125.000000	0.847948
1126.000000	0.847690
1127.000000	0.847156
1128.000000	0.846485
1129.000000	0.845784
1130.000000	0.845137
1131.000000	0.844509
1132.000000	0.843519
1133.000000	0.842596
1134.000000	0.841602
1135.000000	0.840193
1136.000000	0.838837
1137.000000	0.837616
1138.000000	0.836090
1139.000000	0.834422
1140.000000	0.833083
1141.000000	0.831756
1142.000000	0.830322
1143.000000	0.828726
1144.000000	0.827465
1145.000000	0.825788
1146.000000	0.823952
1147.000000	0.822504
1148.000000	0.820924
1149.000000	0.819778
1150.000000	0.818900
1151.000000	0.818230
1152.000000	0.817654
1153.000000	0.817301
1154.000000	0.817093
1155.000000	0.816912
1156.000000	0.816839
1157.000000	0.816933
1158.000000	0.817064
1159.000000	0.817214
1160.000000	0.817413
1161.000000	0.817712
1162.000000	0.818210
1163.000000	0.818972
1164.000000	0.819573
1165.000000	0.820096
1166.000000	0.820636
1167.000000	0.820960
1168.000000	0.821264
1169.000000	0.821655
1170.000000	0.822066
1171.000000	0.822541
1172.000000	0.822971
1173.000000	0.823374
1174.000000	0.823682
1175.000000	0.823798
1176.000000	0.823862
1177.000000	0.824073
1178.000000	0.824241
1179.000000	0.824330
1180.000000	0.824288
1181.000000	0.824410
1182.000000	0.824452
1183.000000	0.824594
1184.000000	0.824814
1185.000000	0.824987
1186.000000	0.825250
1187.000000	0.825342
1188.000000	0.825344
1189.000000	0.825287
1190.000000	0.825251
1191.000000	0.825233
1192.000000	0.825393
1193.000000	0.825759
1194.000000	0.825961
1195.000000	0.826142
1196.000000	0.826228
1197.000000	0.826340
1198.000000	0.826448
1199.000000	0.826583
1200.000000	0.826704
1201.000000	0.826892
1202.000000	0.827027
1203.000000	0.827233
1204.000000	0.827413
1205.000000	0.827581
1206.000000	0.827609
1207.000000	0.827755
1208.000000	0.827809
1209.000000	0.827913
1210.000000	0.828066
1211.000000	0.828289
1212.000000	0.828395
1213.000000	0.828601
1214.000000	0.828768
1215.000000	0.828794
1216.000000	0.828859
1217.000000	0.828860
1218.000000	0.828831
1219.000000	0.828811
1220.000000	0.828905
1221.000000	0.829052
1222.000000	0.829149
1223.000000	0.829311
1224.000000	0.829537
1225.000000	0.829592
1226.000000	0.829704
1227.000000	0.829751
1228.000000	0.829827
1229.000000	0.829835
1230.000000	0.829763
1231.000000	0.829666
1232.000000	0.829838
1233.000000	0.830145
1234.000000	0.830511
1235.000000	0.830706
1236.000000	0.830648
1237.000000	0.830786
1238.000000	0.830796
1239.000000	0.830796
1240.000000	0.830865
1241.000000	0.830905
1242.000000	0.830899
1243.000000	0.830849
1244.000000	0.830853
1245.000000	0.831064
1246.000000	0.831043
1247.000000	0.831100
1248.000000	0.831269
1249.000000	0.831352
1250.000000	0.831496
1251.000000	0.831608
1252.000000	0.831552
1253.000000	0.831453
1254.000000	0.831292
1255.000000	0.830924
1256.000000	0.830742
1257.000000	0.830681
1258.000000	0.830629
1259.000000	0.830509
1260.000000	0.830443
1261.000000	0.830212
1262.000000	0.829997
1263.000000	0.829906
1264.000000	0.829604
1265.000000	0.829285
1266.000000	0.828957
1267.000000	0.828518
1268.000000	0.828102
1269.000000	0.827619
1270.000000	0.827271
1271.000000	0.826906
1272.000000	0.826618
1273.000000	0.826499
1274.000000	0.826278
1275.000000	0.826014
1276.000000	0.825788
1277.000000	0.825760
1278.000000	0.825493
1279.000000	0.825362
1280.000000	0.825265
1281.000000	0.825065
1282.000000	0.824958
1283.000000	0.825046
1284.000000	0.825079
1285.000000	0.825045
1286.000000	0.825017
1287.000000	0.824876
1288.000000	0.824695
1289.000000	0.824355
1290.000000	0.823828
1291.000000	0.823343
1292.000000	0.822879
1293.000000	0.822375
1294.000000	0.821916
1295.000000	0.821521
1296.000000	0.821047
1297.000000	0.820611
1298.000000	0.820311
1299.000000	0.819965
1300.000000	0.819711
1301.000000	0.819364
1302.000000	0.818821
1303.000000	0.818438
1304.000000	0.817933
1305.000000	0.817527
1306.000000	0.817018
1307.000000	0.816610
1308.000000	0.816135
1309.000000	0.815592
1310.000000	0.814945
1311.000000	0.814318
1312.000000	0.813504
1313.000000	0.812648
1314.000000	0.811708
1315.000000	0.810624
1316.000000	0.809787
1317.000000	0.808927
1318.000000	0.807913
1319.000000	0.806769
1320.000000	0.805568
1321.000000	0.804298
1322.000000	0.803030
1323.000000	0.801849
1324.000000	0.800758
1325.000000	0.799492
1326.000000	0.798026
1327.000000	0.796627
1328.000000	0.795360
1329.000000	0.793886
1330.000000	0.792358
1331.000000	0.790939
1332.000000	0.789622
1333.000000	0.788238
1334.000000	0.787045
1335.000000	0.785855
1336.000000	0.784602
1337.000000	0.783289
1338.000000	0.781839
1339.000000	0.780473
1340.000000	0.779072
1341.000000	0.777822
1342.000000	0.776725
1343.000000	0.775533
1344.000000	0.774334
1345.000000	0.773094
1346.000000	0.771994
1347.000000	0.770748
1348.000000	0.769609
1349.000000	0.768452
1350.000000	0.767375
1351.000000	0.766242
1352.000000	0.764977
1353.000000	0.763689
1354.000000	0.762453
1355.000000	0.761142
1356.000000	0.759948
1357.000000	0.758623
1358.000000	0.757173
1359.000000	0.755648
1360.000000	0.754052
1361.000000	0.752509
1362.000000	0.750752
1363.000000	0.748879
1364.000000	0.746899
1365.000000	0.744766
1366.000000	0.742442
1367.000000	0.740003
1368.000000	0.737251
1369.000000	0.734390
1370.000000	0.730914
1371.000000	0.726981
1372.000000	0.722561
1373.000000	0.717506
1374.000000	0.711926
1375.000000	0.705447
1376.000000	0.697952
1377.000000	0.689137
1378.000000	0.678493
1379.000000	0.666461
1380.000000	0.652949
1381.000000	0.637604
1382.000000	0.621567
1383.000000	0.604752
1384.000000	0.587453
1385.000000	0.571027
1386.000000	0.555665
1387.000000	0.542188
1388.000000	0.531022
1389.000000	0.522293
1390.000000	0.516335
1391.000000	0.512724
1392.000000	0.511198
1393.000000	0.510917
1394.000000	0.513347
1395.000000	0.515042
1396.000000	0.518091
1397.000000	0.519770
1398.000000	0.521341
1399.000000	0.521851
1400.000000	0.521685
1401.000000	0.520666
1402.000000	0.518934
1403.000000	0.516479
1404.000000	0.513582
1405.000000	0.510476
1406.000000	0.507389
1407.000000	0.504557
1408.000000	0.501951
1409.000000	0.499713
1410.000000	0.497977
1411.000000	0.496469
1412.000000	0.495276
1413.000000	0.494529
1414.000000	0.494026
1415.000000	0.493884
1416.000000	0.494028
1417.000000	0.494450
1418.000000	0.495061
1419.000000	0.495927
1420.000000	0.496880
1421.000000	0.498096
1422.000000	0.499497
1423.000000	0.500987
1424.000000	0.502438
1425.000000	0.504005
1426.000000	0.505543
1427.000000	0.507171
1428.000000	0.508894
1429.000000	0.510590
1430.000000	0.512290
1431.000000	0.513935
1432.000000	0.515524
1433.000000	0.517174
1434.000000	0.518711
1435.000000	0.520322
1436.000000	0.521813
1437.000000	0.523221
1438.000000	0.524486
1439.000000	0.525704
1440.000000	0.526864
1441.000000	0.527957
1442.000000	0.529060
1443.000000	0.530024
1444.000000	0.530981
1445.000000	0.531892
1446.000000	0.532680
1447.000000	0.533382
1448.000000	0.533933
1449.000000	0.534372
1450.000000	0.534755
1451.000000	0.535060
1452.000000	0.535212
1453.000000	0.535342
1454.000000	0.535470
1455.000000	0.535616
1456.000000	0.535924
1457.000000	0.536262
1458.000000	0.536537
1459.000000	0.536847
1460.000000	0.537254
1461.000000	0.537732
1462.000000	0.538342
1463.000000	0.539044
1464.000000	0.539880
1465.000000	0.540966
1466.000000	0.542187
1467.000000	0.543602
1468.000000	0.545160
1469.000000	0.546803
1470.000000	0.548437
1471.000000	0.550222
1472.000000	0.552042
1473.000000	0.554038
1474.000000	0.556028
1475.000000	0.557976
1476.000000	0.559966
1477.000000	0.561905
1478.000000	0.563818
1479.000000	0.565725
1480.000000	0.567605
1481.000000	0.569423
1482.000000	0.571273
1483.000000	0.573171
1484.000000	0.575050
1485.000000	0.576947
1486.000000	0.578856
1487.000000	0.580766
1488.000000	0.582721
1489.000000	0.584628
1490.000000	0.586309
1491.000000	0.588136
1492.000000	0.589890
1493.000000	0.591705
1494.000000	0.593537
1495.000000	0.595266
1496.000000	0.596924
1497.000000	0.598608
1498.000000	0.600302
1499.000000	0.601958
1500.000000	0.603671
1501.000000	0.605364
1502.000000	0.606956
1503.000000	0.608651
1504.000000	0.610337
1505.000000	0.611908
1506.000000	0.613535
1507.000000	0.615074
1508.000000	0.616627
1509.000000	0.618221
1510.000000	0.619696
1511.000000	0.621268
1512.000000	0.622765
1513.000000	0.624157
1514.000000	0.625684
1515.000000	0.627041
1516.000000	0.628439
1517.000000	0.629855
1518.000000	0.631130
1519.000000	0.632340
1520.000000	0.633633
1521.000000	0.634784
1522.000000	0.636030
1523.000000	0.637407
1524.000000	0.638583
1525.000000	0.639883
1526.000000	0.641143
1527.000000	0.642338
1528.000000	0.643685
1529.000000	0.644874
1530.000000	0.645879
1531.000000	0.647114
1532.000000	0.648314
1533.000000	0.649391
1534.000000	0.650603
1535.000000	0.651795
1536.000000	0.652828
1537.000000	0.654082
1538.000000	0.655329
1539.000000	0.656330
1540.000000	0.657381
1541.000000	0.658532
1542.000000	0.659666
1543.000000	0.660869
1544.000000	0.662084
1545.000000	0.663262
1546.000000	0.664419
1547.000000	0.665510
1548.000000	0.666564
1549.000000	0.667584
1550.000000	0.668496
1551.000000	0.669404
1552.000000	0.670354
1553.000000	0.671229
1554.000000	0.672111
1555.000000	0.673080
1556.000000	0.674023
1557.000000	0.674861
1558.000000	0.675784
1559.000000	0.676622
1560.000000	0.677421
1561.000000	0.678316
1562.000000	0.679099
1563.000000	0.679884
1564.000000	0.680691
1565.000000	0.681481
1566.000000	0.682092
1567.000000	0.682802
1568.000000	0.683513
1569.000000	0.684321
1570.000000	0.685044
1571.000000	0.685767
1572.000000	0.686411
1573.000000	0.686972
1574.000000	0.687555
1575.000000	0.688149
1576.000000	0.688791
1577.000000	0.689390
1578.000000	0.689955
1579.000000	0.690686
1580.000000	0.691331
1581.000000	0.692071
1582.000000	0.692709
1583.000000	0.693289
1584.000000	0.693784
1585.000000	0.694345
1586.000000	0.694921
1587.000000	0.695485
1588.000000	0.695996
1589.000000	0.696527
1590.000000	0.697016
1591.000000	0.697493
1592.000000	0.697985
1593.000000	0.698527
1594.000000	0.698978
1595.000000	0.699492
1596.000000	0.699996
1597.000000	0.700542
1598.000000	0.701010
1599.000000	0.701543
1600.000000	0.701919
1601.000000	0.702335
1602.000000	0.702730
1603.000000	0.703108
1604.000000	0.703490
1605.000000	0.703941
1606.000000	0.704328
1607.000000	0.704849
1608.000000	0.705207
1609.000000	0.705566
1610.000000	0.705854
1611.000000	0.706052
1612.000000	0.706326
1613.000000	0.706855
1614.000000	0.707202
1615.000000	0.707665
1616.000000	0.708096
1617.000000	0.708339
1618.000000	0.708568
1619.000000	0.708690
1620.000000	0.708915
1621.000000	0.709211
1622.000000	0.709625
1623.000000	0.710111
1624.000000	0.710454
1625.000000	0.710463
1626.000000	0.710497
1627.000000	0.710467
1628.000000	0.710673
1629.000000	0.710947
1630.000000	0.711235
1631.000000	0.711519
1632.000000	0.711699
1633.000000	0.711826
1634.000000	0.712056
1635.000000	0.712427
1636.000000	0.712667
1637.000000	0.712949
1638.000000	0.713123
1639.000000	0.713295
1640.000000	0.713444
1641.000000	0.713701
1642.000000	0.713923
1643.000000	0.714221
1644.000000	0.714409
1645.000000	0.714555
1646.000000	0.714606
1647.000000	0.714613
1648.000000	0.714612
1649.000000	0.714765
1650.000000	0.714937
1651.000000	0.715218
1652.000000	0.715443
1653.000000	0.715535
1654.000000	0.715757
1655.000000	0.715884
1656.000000	0.715838
1657.000000	0.715992
1658.000000	0.715987
1659.000000	0.716019
1660.000000	0.716099
1661.000000	0.715961
1662.000000	0.715963
1663.000000	0.715943
1664.000000	0.715924
1665.000000	0.715948
1666.000000	0.716151
1667.000000	0.716219
1668.000000	0.716305
1669.000000	0.716481
1670.000000	0.716419
1671.000000	0.716419
1672.000000	0.716562
1673.000000	0.716647
1674.000000	0.716766
1675.000000	0.716958
1676.000000	0.717049
1677.000000	0.716997
1678.000000	0.716848
1679.000000	0.716720
1680.000000	0.716499
1681.000000	0.716353
1682.000000	0.716292
1683.000000	0.716246
1684.000000	0.716200
1685.000000	0.716161
1686.000000	0.716004
1687.000000	0.715900
1688.000000	0.715725
1689.000000	0.715534
1690.000000	0.715399
1691.000000	0.715391
1692.000000	0.715192
1693.000000	0.715041
1694.000000	0.714899
1695.000000	0.714782
1696.000000	0.714674
1697.000000	0.714440
1698.000000	0.714255
1699.000000	0.714112
1700.000000	0.713912
1701.000000	0.713953
1702.000000	0.713783
1703.000000	0.713479
1704.000000	0.713373
1705.000000	0.713197
1706.000000	0.712953
1707.000000	0.712776
1708.000000	0.712627
1709.000000	0.712272
1710.000000	0.712055
1711.000000	0.711802
1712.000000	0.711481
1713.000000	0.711162
1714.000000	0.710958
1715.000000	0.710680
1716.000000	0.710404
1717.000000	0.710049
1718.000000	0.709526
1719.000000	0.709064
1720.000000	0.708698
1721.000000	0.708301
1722.000000	0.707933
1723.000000	0.707571
1724.000000	0.707248
1725.000000	0.706956
1726.000000	0.706528
1727.000000	0.706115
1728.000000	0.705566
1729.000000	0.704937
1730.000000	0.704519
1731.000000	0.704108
1732.000000	0.703730
1733.000000	0.703434
1734.000000	0.702921
1735.000000	0.702490
1736.000000	0.702013
1737.000000	0.701521
1738.000000	0.701115
1739.000000	0.700604
1740.000000	0.699991
1741.000000	0.699336
1742.000000	0.698630
1743.000000	0.698112
1744.000000	0.697579
1745.000000	0.696980
1746.000000	0.696446
1747.000000	0.695780
1748.000000	0.695018
1749.000000	0.694290
1750.000000	0.693456
1751.000000	0.692758
1752.000000	0.692240
1753.000000	0.691450
1754.000000	0.690742
1755.000000	0.690056
1756.000000	0.689288
1757.000000	0.688468
1758.000000	0.687735
1759.000000	0.686931
1760.000000	0.686201
1761.000000	0.685490
1762.000000	0.684760
1763.000000	0.684107
1764.000000	0.683416
1765.000000	0.682593
1766.000000	0.681912
1767.000000	0.681089
1768.000000	0.680301
1769.000000	0.679818
1770.000000	0.679317
1771.000000	0.678720
1772.000000	0.678161
1773.000000	0.677497
1774.000000	0.676971
1775.000000	0.676649
1776.000000	0.676254
1777.000000	0.675868
1778.000000	0.675386
1779.000000	0.674759
1780.000000	0.674325
1781.000000	0.673875
1782.000000	0.673404
1783.000000	0.673089
1784.000000	0.672737
1785.000000	0.672330
1786.000000	0.672082
1787.000000	0.671986
1788.000000	0.671808
1789.000000	0.671475
1790.000000	0.671271
1791.000000	0.670898
1792.000000	0.670589
1793.000000	0.670319
1794.000000	0.670036
1795.000000	0.669824
1796.000000	0.669719
1797.000000	0.669504
1798.000000	0.669154
1799.000000	0.668900
1800.000000	0.668760
1801.000000	0.669244
1802.000000	0.669071
1803.000000	0.668499
1804.000000	0.668562
1805.000000	0.669308
1806.000000	0.669658
1807.000000	0.670270
1808.000000	0.670393
1809.000000	0.670279
1810.000000	0.669886
1811.000000	0.669625
1812.000000	0.669091
1813.000000	0.668836
1814.000000	0.668952
1815.000000	0.668785
1816.000000	0.668500
1817.000000	0.667964
1818.000000	0.667391
1819.000000	0.666962
1820.000000	0.666498
1821.000000	0.665969
1822.000000	0.665455
1823.000000	0.664775
1824.000000	0.664097
1825.000000	0.663093
1826.000000	0.662687
1827.000000	0.662496
1828.000000	0.661921
1829.000000	0.661846
1830.000000	0.661620
1831.000000	0.660949
1832.000000	0.659627
1833.000000	0.659048
1834.000000	0.658596
1835.000000	0.657995
1836.000000	0.657744
1837.000000	0.657122
1838.000000	0.655937
1839.000000	0.654601
1840.000000	0.653480
1841.000000	0.652037
1842.000000	0.650814
1843.000000	0.649505
1844.000000	0.648391
1845.000000	0.647403
1846.000000	0.646330
1847.000000	0.645101
1848.000000	0.643598
1849.000000	0.642113
1850.000000	0.639943
1851.000000	0.638107
1852.000000	0.636244
1853.000000	0.634216
1854.000000	0.632063
1855.000000	0.629417
1856.000000	0.626277
1857.000000	0.622735
1858.000000	0.619442
1859.000000	0.615504
1860.000000	0.611606
1861.000000	0.607750
1862.000000	0.603356
1863.000000	0.598710
1864.000000	0.593979
1865.000000	0.589020
1866.000000	0.583716
1867.000000	0.578456
1868.000000	0.572155
1869.000000	0.565215
1870.000000	0.557957
1871.000000	0.549710
1872.000000	0.541817
1873.000000	0.533698
1874.000000	0.525430
1875.000000	0.516822
1876.000000	0.508002
1877.000000	0.498093
1878.000000	0.487990
1879.000000	0.477608
1880.000000	0.466584
1881.000000	0.455546
1882.000000	0.444164
1883.000000	0.432463
1884.000000	0.420909
1885.000000	0.409051
1886.000000	0.396972
1887.000000	0.384613
1888.000000	0.372038
1889.000000	0.359301
1890.000000	0.347182
1891.000000	0.335371
1892.000000	0.323776
1893.000000	0.312935
1894.000000	0.302385
1895.000000	0.292552
1896.000000	0.283388
1897.000000	0.275172
1898.000000	0.267339
1899.000000	0.260715
1900.000000	0.254836
1901.000000	0.249558
1902.000000	0.245256
1903.000000	0.241588
1904.000000	0.239056
1905.000000	0.237338
1906.000000	0.236135
1907.000000	0.235769
1908.000000	0.236201
1909.000000	0.236657
1910.000000	0.237466
1911.000000	0.238919
1912.000000	0.240468
1913.000000	0.242251
1914.000000	0.244384
1915.000000	0.246540
1916.000000	0.248845
1917.000000	0.251112
1918.000000	0.253703
1919.000000	0.256181
1920.000000	0.258158
1921.000000	0.260196
1922.000000	0.262306
1923.000000	0.264306
1924.000000	0.266725
1925.000000	0.269086
1926.000000	0.271038
1927.000000	0.273210
1928.000000	0.275121
1929.000000	0.276870
1930.000000	0.278475
1931.000000	0.280275
1932.000000	0.281840
1933.000000	0.283464
1934.000000	0.285093
1935.000000	0.286550
1936.000000	0.288127
1937.000000	0.289527
1938.000000	0.290619
1939.000000	0.291788
1940.000000	0.292919
1941.000000	0.293913
1942.000000	0.295121
1943.000000	0.296539
1944.000000	0.297878
1945.000000	0.299109
1946.000000	0.300061
1947.000000	0.301078
1948.000000	0.302221
1949.000000	0.303284
1950.000000	0.304633
1951.000000	0.305814
1952.000000	0.307104
1953.000000	0.307885
1954.000000	0.309035
1955.000000	0.310257
1956.000000	0.311205
1957.000000	0.312577
1958.000000	0.313830
1959.000000	0.314981
1960.000000	0.316237
1961.000000	0.317386
1962.000000	0.318580
1963.000000	0.319865
1964.000000	0.321190
1965.000000	0.322396
1966.000000	0.323607
1967.000000	0.324964
1968.000000	0.326237
1969.000000	0.327525
1970.000000	0.329067
1971.000000	0.330393
1972.000000	0.331841
1973.000000	0.333252
1974.000000	0.334759
1975.000000	0.336389
1976.000000	0.338179
1977.000000	0.340024
1978.000000	0.341736
1979.000000	0.343581
1980.000000	0.345508
1981.000000	0.347310
1982.000000	0.349073
1983.000000	0.350871
1984.000000	0.352519
1985.000000	0.353952
1986.000000	0.355496
1987.000000	0.356999
1988.000000	0.358913
1989.000000	0.360935
1990.000000	0.363026
1991.000000	0.365137
1992.000000	0.366930
1993.000000	0.368651
1994.000000	0.370566
1995.000000	0.372474
1996.000000	0.374590
1997.000000	0.376672
1998.000000	0.378876
1999.000000	0.380924
2000.000000	0.383044
2001.000000	0.384958
2002.000000	0.386676
2003.000000	0.388663
2004.000000	0.390399
2005.000000	0.392108
2006.000000	0.394189
2007.000000	0.396243
2008.000000	0.398279
2009.000000	0.400483
2010.000000	0.402525
2011.000000	0.404273
2012.000000	0.406040
2013.000000	0.407652
2014.000000	0.409205
2015.000000	0.410968
2016.000000	0.412553
2017.000000	0.414122
2018.000000	0.415776
2019.000000	0.417617
2020.000000	0.419363
2021.000000	0.421174
2022.000000	0.423198
2023.000000	0.425051
2024.000000	0.426874
2025.000000	0.428678
2026.000000	0.430268
2027.000000	0.431731
2028.000000	0.433343
2029.000000	0.434949
2030.000000	0.436633
2031.000000	0.438346
2032.000000	0.440051
2033.000000	0.441919
2034.000000	0.443585
2035.000000	0.445442
2036.000000	0.446901
2037.000000	0.448221
2038.000000	0.449713
2039.000000	0.451311
2040.000000	0.452848
2041.000000	0.454297
2042.000000	0.455713
2043.000000	0.456638
2044.000000	0.457567
2045.000000	0.458667
2046.000000	0.459632
2047.000000	0.460827
2048.000000	0.462159
2049.000000	0.463673
2050.000000	0.464791
2051.000000	0.465950
2052.000000	0.467062
2053.000000	0.468028
2054.000000	0.469126
2055.000000	0.470688
2056.000000	0.472021
2057.000000	0.473323
2058.000000	0.474633
2059.000000	0.475776
2060.000000	0.476856
2061.000000	0.477915
2062.000000	0.478827
2063.000000	0.479674
2064.000000	0.480267
2065.000000	0.481016
2066.000000	0.481628
2067.000000	0.482398
2068.000000	0.483381
2069.000000	0.484492
2070.000000	0.485652
2071.000000	0.486412
2072.000000	0.487217
2073.000000	0.487821
2074.000000	0.488144
2075.000000	0.488756
2076.000000	0.489463
2077.000000	0.490160
2078.000000	0.491030
2079.000000	0.491661
2080.000000	0.492371
2081.000000	0.492979
2082.000000	0.493470
2083.000000	0.493848
2084.000000	0.494258
2085.000000	0.494682
2086.000000	0.495212
2087.000000	0.496035
2088.000000	0.496948
2089.000000	0.497787
2090.000000	0.498745
2091.000000	0.499892
2092.000000	0.500914
2093.000000	0.502128
2094.000000	0.503105
2095.000000	0.503970
2096.000000	0.504876
2097.000000	0.505632
2098.000000	0.506168
2099.000000	0.506765
2100.000000	0.507561
2101.000000	0.508276
2102.000000	0.508908
2103.000000	0.509725
2104.000000	0.510361
2105.000000	0.511201
2106.000000	0.512272
2107.000000	0.513179
2108.000000	0.514070
2109.000000	0.514996
2110.000000	0.515394
2111.000000	0.516090
2112.000000	0.516931
2113.000000	0.517319
2114.000000	0.517836
2115.000000	0.518596
2116.000000	0.518903
2117.000000	0.519154
2118.000000	0.519766
2119.000000	0.520182
2120.000000	0.520826
2121.000000	0.521709
2122.000000	0.522578
2123.000000	0.523524
2124.000000	0.524435
2125.000000	0.525554
2126.000000	0.526337
2127.000000	0.526792
2128.000000	0.527673
2129.000000	0.528352
2130.000000	0.529437
2131.000000	0.530383
2132.000000	0.531076
2133.000000	0.532173
2134.000000	0.533161
2135.000000	0.533775
2136.000000	0.534687
2137.000000	0.535146
2138.000000	0.534854
2139.000000	0.535175
2140.000000	0.535618
2141.000000	0.536114
2142.000000	0.536908
2143.000000	0.537179
2144.000000	0.537746
2145.000000	0.538199
2146.000000	0.538491
2147.000000	0.539270
2148.000000	0.539787
2149.000000	0.540011
2150.000000	0.540266
2151.000000	0.540068
2152.000000	0.540003
2153.000000	0.540116
2154.000000	0.540194
2155.000000	0.540538
2156.000000	0.540669
2157.000000	0.540677
2158.000000	0.540842
2159.000000	0.541076
2160.000000	0.541420
2161.000000	0.542004
2162.000000	0.542475
2163.000000	0.542576
2164.000000	0.542850
2165.000000	0.543249
2166.000000	0.543441
2167.000000	0.543969
2168.000000	0.544502
2169.000000	0.544406
2170.000000	0.544137
2171.000000	0.543741
2172.000000	0.542662
2173.000000	0.542431
2174.000000	0.542519
2175.000000	0.542565
2176.000000	0.543177
2177.000000	0.543369
2178.000000	0.543537
2179.000000	0.543663
2180.000000	0.543321
2181.000000	0.543717
2182.000000	0.543541
2183.000000	0.543099
2184.000000	0.543159
2185.000000	0.542799
2186.000000	0.541596
2187.000000	0.541132
2188.000000	0.540722
2189.000000	0.539940
2190.000000	0.539982
2191.000000	0.540564
2192.000000	0.540343
2193.000000	0.540116
2194.000000	0.539168
2195.000000	0.536916
2196.000000	0.535946
2197.000000	0.535025
2198.000000	0.534250
2199.000000	0.534735
2200.000000	0.534709
2201.000000	0.534125
2202.000000	0.533914
2203.000000	0.534064
2204.000000	0.533446
2205.000000	0.531735
2206.000000	0.530552
2207.000000	0.528666
2208.000000	0.526960
2209.000000	0.526793
2210.000000	0.527427
2211.000000	0.526847
2212.000000	0.527197
2213.000000	0.526701
2214.000000	0.524664
2215.000000	0.523718
2216.000000	0.523528
2217.000000	0.522912
2218.000000	0.522857
2219.000000	0.522171
2220.000000	0.521022
2221.000000	0.519622
2222.000000	0.517009
2223.000000	0.515579
2224.000000	0.514269
2225.000000	0.514145
2226.000000	0.513096
2227.000000	0.512061
2228.000000	0.512579
2229.000000	0.511332
2230.000000	0.510690
2231.000000	0.510476
2232.000000	0.507941
2233.000000	0.506264
2234.000000	0.504366
2235.000000	0.503114
2236.000000	0.501960
2237.000000	0.500620
2238.000000	0.499832
2239.000000	0.499503
2240.000000	0.499414
2241.000000	0.499846
2242.000000	0.500271
2243.000000	0.501101
2244.000000	0.501746
2245.000000	0.502837
2246.000000	0.503203
2247.000000	0.502558
2248.000000	0.502468
2249.000000	0.502922
2250.000000	0.501933
2251.000000	0.500998
2252.000000	0.500420
2253.000000	0.499028
2254.000000	0.497557
2255.000000	0.497161
2256.000000	0.497027
2257.000000	0.496413
2258.000000	0.495831
2259.000000	0.494652
2260.000000	0.493413
2261.000000	0.491666
2262.000000	0.489789
2263.000000	0.487700
2264.000000	0.484696
2265.000000	0.482666
2266.000000	0.481081
2267.000000	0.478662
2268.000000	0.476315
2269.000000	0.474346
2270.000000	0.472640
2271.000000	0.469884
2272.000000	0.466825
2273.000000	0.463692
2274.000000	0.459240
2275.000000	0.455497
2276.000000	0.452559
2277.000000	0.449221
2278.000000	0.444842
2279.000000	0.439819
2280.000000	0.434404
2281.000000	0.429037
2282.000000	0.423938
2283.000000	0.418199
2284.000000	0.412344
2285.000000	0.407269
2286.000000	0.402177
2287.000000	0.397432
2288.000000	0.393226
2289.000000	0.388854
2290.000000	0.384580
2291.000000	0.381099
2292.000000	0.378873
2293.000000	0.375795
2294.000000	0.373527
2295.000000	0.372273
2296.000000	0.370695
2297.000000	0.369447
2298.000000	0.368020
2299.000000	0.367051
2300.000000	0.364178
2301.000000	0.360330
2302.000000	0.356009
2303.000000	0.349945
2304.000000	0.344815
2305.000000	0.339730
2306.000000	0.334697
2307.000000	0.329510
2308.000000	0.325114
2309.000000	0.320090
2310.000000	0.315817
2311.000000	0.312411
2312.000000	0.309446
2313.000000	0.307912
2314.000000	0.307498
2315.000000	0.308174
2316.000000	0.310347
2317.000000	0.314178
2318.000000	0.319153
2319.000000	0.325026
2320.000000	0.330671
2321.000000	0.336182
2322.000000	0.341386
2323.000000	0.346387
2324.000000	0.351423
2325.000000	0.355523
2326.000000	0.360327
2327.000000	0.365573
2328.000000	0.370658
2329.000000	0.376045
2330.000000	0.380382
2331.000000	0.382925
2332.000000	0.384720
2333.000000	0.386423
2334.000000	0.387044
2335.000000	0.388682
2336.000000	0.390186
2337.000000	0.391699
2338.000000	0.393955
2339.000000	0.395248
2340.000000	0.396102
2341.000000	0.396482
2342.000000	0.395905
2343.000000	0.395489
2344.000000	0.394621
2345.000000	0.394114
2346.000000	0.394130
2347.000000	0.393267
2348.000000	0.392538
2349.000000	0.390355
2350.000000	0.387488
2351.000000	0.385916
2352.000000	0.383888
2353.000000	0.383448
2354.000000	0.382820
2355.000000	0.381981
2356.000000	0.381184
2357.000000	0.379626
2358.000000	0.378727
2359.000000	0.376880
2360.000000	0.375533
2361.000000	0.375378
2362.000000	0.373698
2363.000000	0.372869
2364.000000	0.370320
2365.000000	0.367139
2366.000000	0.365483
2367.000000	0.363124
2368.000000	0.363272
2369.000000	0.362237
2370.000000	0.358850
2371.000000	0.355483
2372.000000	0.350701
2373.000000	0.348667
2374.000000	0.347504
2375.000000	0.346099
2376.000000	0.344625
2377.000000	0.340450
2378.000000	0.337075
2379.000000	0.333635
2380.000000	0.331104
2381.000000	0.329304
2382.000000	0.324859
2383.000000	0.322874
2384.000000	0.320547
2385.000000	0.316166
2386.000000	0.315997
2387.000000	0.315441
2388.000000	0.314313
2389.000000	0.314826
2390.000000	0.313578
2391.000000	0.313052
2392.000000	0.312187
2393.000000	0.311874
2394.000000	0.313955
2395.000000	0.315317
2396.000000	0.318475
2397.000000	0.323411
2398.000000	0.328208
2399.000000	0.332485
2400.000000	0.332403
2401.000000	0.330352
2402.000000	0.330007
2403.000000	0.327788
2404.000000	0.325772
2405.000000	0.327726
2406.000000	0.328308
2407.000000	0.327992
2408.000000	0.331189
2409.000000	0.331066
2410.000000	0.328736
2411.000000	0.327461
2412.000000	0.324743
2413.000000	0.324064
2414.000000	0.323731
2415.000000	0.323636
2416.000000	0.324673
2417.000000	0.324363
2418.000000	0.322570
2419.000000	0.319771
2420.000000	0.316674
2421.000000	0.312511
2422.000000	0.309103
2423.000000	0.307114
2424.000000	0.305853
2425.000000	0.303058
2426.000000	0.301723
2427.000000	0.305008
2428.000000	0.302856
2429.000000	0.303209
2430.000000	0.306300
2431.000000	0.300810
2432.000000	0.298976
2433.000000	0.298103
2434.000000	0.294590
2435.000000	0.293908
2436.000000	0.291541
2437.000000	0.290014
2438.000000	0.287743
2439.000000	0.281346
2440.000000	0.279362
2441.000000	0.278893
2442.000000	0.278321
2443.000000	0.281307
2444.000000	0.280641
2445.000000	0.279379
2446.000000	0.278965
2447.000000	0.277062
2448.000000	0.278142
2449.000000	0.279134
2450.000000	0.279066
2451.000000	0.278964
2452.000000	0.277874
2453.000000	0.273159
2454.000000	0.266746
2455.000000	0.264926
2456.000000	0.262905
2457.000000	0.265436
2458.000000	0.267667
2459.000000	0.266755
2460.000000	0.273555
2461.000000	0.273890
2462.000000	0.272627
2463.000000	0.268103
2464.000000	0.246835
2465.000000	0.233811
2466.000000	0.229087
2467.000000	0.224847
2468.000000	0.236299
2469.000000	0.241895
2470.000000	0.238409
2471.000000	0.242292
2472.000000	0.240660
2473.000000	0.232271
2474.000000	0.225377
2475.000000	0.225026
2476.000000	0.219584
2477.000000	0.214968
2478.000000	0.224530
2479.000000	0.224568
2480.000000	0.224389
2481.000000	0.235952
2482.000000	0.232954
2483.000000	0.229110
2484.000000	0.227687
2485.000000	0.217276
2486.000000	0.221434
2487.000000	0.239538
2488.000000	0.249786
2489.000000	0.260362
2490.000000	0.263519
2491.000000	0.230420
2492.000000	0.207091
2493.000000	0.179273
2494.000000	0.169788
2495.000000	0.165267
2496.000000	0.168057
2497.000000	0.188933
2498.000000	0.202170
2499.000000	0.239358
2500.000000	0.250897
