# Wavelength	SM1200H-10_HEX-20_FV7-70_00000.asd.rts.txt
350.000000	0.207648
351.000000	0.214020
352.000000	0.216270
353.000000	0.211054
354.000000	0.202009
355.000000	0.198391
356.000000	0.190561
357.000000	0.185733
358.000000	0.200328
359.000000	0.201268
360.000000	0.195084
361.000000	0.196233
362.000000	0.204212
363.000000	0.208734
364.000000	0.205351
365.000000	0.205592
366.000000	0.208935
367.000000	0.210910
368.000000	0.203124
369.000000	0.202141
370.000000	0.207221
371.000000	0.212001
372.000000	0.212378
373.000000	0.208939
374.000000	0.204166
375.000000	0.201395
376.000000	0.204788
377.000000	0.211271
378.000000	0.210966
379.000000	0.212352
380.000000	0.215360
381.000000	0.217808
382.000000	0.214330
383.000000	0.210894
384.000000	0.211470
385.000000	0.210080
386.000000	0.211599
387.000000	0.215493
388.000000	0.215025
389.000000	0.214524
390.000000	0.215310
391.000000	0.217344
392.000000	0.219501
393.000000	0.220948
394.000000	0.221178
395.000000	0.220365
396.000000	0.218864
397.000000	0.217455
398.000000	0.217839
399.000000	0.218687
400.000000	0.219024
401.000000	0.217973
402.000000	0.218078
403.000000	0.218884
404.000000	0.219708
405.000000	0.220701
406.000000	0.221824
407.000000	0.222833
408.000000	0.222928
409.000000	0.222618
410.000000	0.222458
411.000000	0.223039
412.000000	0.224199
413.000000	0.224763
414.000000	0.223918
415.000000	0.223942
416.000000	0.224449
417.000000	0.224934
418.000000	0.225049
419.000000	0.225362
420.000000	0.226084
421.000000	0.227197
422.000000	0.227153
423.000000	0.226751
424.000000	0.227446
425.000000	0.228173
426.000000	0.228345
427.000000	0.227978
428.000000	0.228839
429.000000	0.229360
430.000000	0.229178
431.000000	0.229495
432.000000	0.229449
433.000000	0.229239
434.000000	0.229589
435.000000	0.229814
436.000000	0.230321
437.000000	0.231310
438.000000	0.231193
439.000000	0.230909
440.000000	0.231061
441.000000	0.231120
442.000000	0.231216
443.000000	0.231391
444.000000	0.231800
445.000000	0.232129
446.000000	0.232434
447.000000	0.232697
448.000000	0.232976
449.000000	0.233149
450.000000	0.233247
451.000000	0.233804
452.000000	0.233926
453.000000	0.233646
454.000000	0.234322
455.000000	0.234814
456.000000	0.234972
457.000000	0.234886
458.000000	0.235266
459.000000	0.235718
460.000000	0.235855
461.000000	0.235865
462.000000	0.236095
463.000000	0.236508
464.000000	0.236902
465.000000	0.237259
466.000000	0.237455
467.000000	0.237438
468.000000	0.237471
469.000000	0.237582
470.000000	0.237851
471.000000	0.237985
472.000000	0.237993
473.000000	0.238019
474.000000	0.238414
475.000000	0.238633
476.000000	0.238746
477.000000	0.239174
478.000000	0.239449
479.000000	0.239690
480.000000	0.239903
481.000000	0.240030
482.000000	0.240295
483.000000	0.240621
484.000000	0.240635
485.000000	0.240763
486.000000	0.241236
487.000000	0.241315
488.000000	0.241577
489.000000	0.241987
490.000000	0.242102
491.000000	0.242299
492.000000	0.242609
493.000000	0.242844
494.000000	0.243047
495.000000	0.243280
496.000000	0.243561
497.000000	0.243971
498.000000	0.244248
499.000000	0.244449
500.000000	0.244852
501.000000	0.245163
502.000000	0.245376
503.000000	0.245526
504.000000	0.245768
505.000000	0.246063
506.000000	0.246330
507.000000	0.246472
508.000000	0.246643
509.000000	0.246895
510.000000	0.247219
511.000000	0.247508
512.000000	0.247789
513.000000	0.248142
514.000000	0.248577
515.000000	0.248957
516.000000	0.249083
517.000000	0.249365
518.000000	0.249737
519.000000	0.250030
520.000000	0.250368
521.000000	0.250613
522.000000	0.250762
523.000000	0.250996
524.000000	0.251238
525.000000	0.251485
526.000000	0.251807
527.000000	0.252045
528.000000	0.252236
529.000000	0.252507
530.000000	0.252844
531.000000	0.253105
532.000000	0.253200
533.000000	0.253500
534.000000	0.253883
535.000000	0.254247
536.000000	0.254526
537.000000	0.254775
538.000000	0.254984
539.000000	0.255127
540.000000	0.255393
541.000000	0.255672
542.000000	0.255879
543.000000	0.256085
544.000000	0.256346
545.000000	0.256632
546.000000	0.256990
547.000000	0.257283
548.000000	0.257545
549.000000	0.257846
550.000000	0.258138
551.000000	0.258432
552.000000	0.258707
553.000000	0.259015
554.000000	0.259291
555.000000	0.259516
556.000000	0.259808
557.000000	0.260109
558.000000	0.260490
559.000000	0.260850
560.000000	0.261082
561.000000	0.261347
562.000000	0.261789
563.000000	0.262095
564.000000	0.262354
565.000000	0.262621
566.000000	0.262950
567.000000	0.263263
568.000000	0.263526
569.000000	0.263903
570.000000	0.264276
571.000000	0.264585
572.000000	0.264833
573.000000	0.265101
574.000000	0.265402
575.000000	0.265759
576.000000	0.265986
577.000000	0.266149
578.000000	0.266377
579.000000	0.266595
580.000000	0.266869
581.000000	0.267219
582.000000	0.267620
583.000000	0.267906
584.000000	0.268121
585.000000	0.268443
586.000000	0.268694
587.000000	0.268932
588.000000	0.269235
589.000000	0.269468
590.000000	0.269718
591.000000	0.270027
592.000000	0.270302
593.000000	0.270606
594.000000	0.270904
595.000000	0.271051
596.000000	0.271306
597.000000	0.271623
598.000000	0.271758
599.000000	0.271940
600.000000	0.272175
601.000000	0.272377
602.000000	0.272663
603.000000	0.272896
604.000000	0.273039
605.000000	0.273215
606.000000	0.273283
607.000000	0.273294
608.000000	0.273416
609.000000	0.273556
610.000000	0.273694
611.000000	0.273828
612.000000	0.274008
613.000000	0.274175
614.000000	0.274321
615.000000	0.274443
616.000000	0.274616
617.000000	0.274825
618.000000	0.275061
619.000000	0.275272
620.000000	0.275422
621.000000	0.275548
622.000000	0.275685
623.000000	0.275827
624.000000	0.275958
625.000000	0.276045
626.000000	0.276218
627.000000	0.276491
628.000000	0.276681
629.000000	0.276966
630.000000	0.277217
631.000000	0.277408
632.000000	0.277515
633.000000	0.277613
634.000000	0.277751
635.000000	0.277828
636.000000	0.277863
637.000000	0.277896
638.000000	0.278084
639.000000	0.278233
640.000000	0.278342
641.000000	0.278409
642.000000	0.278572
643.000000	0.278761
644.000000	0.278861
645.000000	0.279022
646.000000	0.279222
647.000000	0.279395
648.000000	0.279504
649.000000	0.279644
650.000000	0.279832
651.000000	0.280059
652.000000	0.280190
653.000000	0.280300
654.000000	0.280475
655.000000	0.280679
656.000000	0.280865
657.000000	0.280967
658.000000	0.281124
659.000000	0.281318
660.000000	0.281493
661.000000	0.281572
662.000000	0.281695
663.000000	0.281881
664.000000	0.281982
665.000000	0.282126
666.000000	0.282306
667.000000	0.282456
668.000000	0.282589
669.000000	0.282766
670.000000	0.283001
671.000000	0.283180
672.000000	0.283328
673.000000	0.283474
674.000000	0.283681
675.000000	0.283822
676.000000	0.283940
677.000000	0.284123
678.000000	0.284278
679.000000	0.284414
680.000000	0.284547
681.000000	0.284646
682.000000	0.284758
683.000000	0.284850
684.000000	0.285019
685.000000	0.285165
686.000000	0.285299
687.000000	0.285424
688.000000	0.285609
689.000000	0.285795
690.000000	0.285962
691.000000	0.286114
692.000000	0.286284
693.000000	0.286513
694.000000	0.286682
695.000000	0.286822
696.000000	0.286971
697.000000	0.287163
698.000000	0.287320
699.000000	0.287468
700.000000	0.287642
701.000000	0.287802
702.000000	0.287937
703.000000	0.288041
704.000000	0.288165
705.000000	0.288274
706.000000	0.288359
707.000000	0.288509
708.000000	0.288636
709.000000	0.288777
710.000000	0.288980
711.000000	0.289145
712.000000	0.289258
713.000000	0.289358
714.000000	0.289515
715.000000	0.289663
716.000000	0.289798
717.000000	0.289917
718.000000	0.290020
719.000000	0.290161
720.000000	0.290385
721.000000	0.290622
722.000000	0.290767
723.000000	0.290858
724.000000	0.290946
725.000000	0.291017
726.000000	0.291145
727.000000	0.291274
728.000000	0.291396
729.000000	0.291583
730.000000	0.291804
731.000000	0.291903
732.000000	0.292011
733.000000	0.292176
734.000000	0.292223
735.000000	0.292261
736.000000	0.292387
737.000000	0.292460
738.000000	0.292554
739.000000	0.292700
740.000000	0.292764
741.000000	0.292919
742.000000	0.293014
743.000000	0.293027
744.000000	0.293156
745.000000	0.293235
746.000000	0.293311
747.000000	0.293406
748.000000	0.293603
749.000000	0.293814
750.000000	0.293927
751.000000	0.293965
752.000000	0.293951
753.000000	0.293925
754.000000	0.293919
755.000000	0.293998
756.000000	0.294155
757.000000	0.294304
758.000000	0.294413
759.000000	0.294510
760.000000	0.294552
761.000000	0.294589
762.000000	0.294691
763.000000	0.294802
764.000000	0.294857
765.000000	0.294954
766.000000	0.295019
767.000000	0.294997
768.000000	0.295096
769.000000	0.295217
770.000000	0.295301
771.000000	0.295340
772.000000	0.295372
773.000000	0.295378
774.000000	0.295445
775.000000	0.295512
776.000000	0.295556
777.000000	0.295569
778.000000	0.295634
779.000000	0.295723
780.000000	0.295802
781.000000	0.295806
782.000000	0.295789
783.000000	0.295845
784.000000	0.295895
785.000000	0.296017
786.000000	0.296111
787.000000	0.296121
788.000000	0.296104
789.000000	0.296073
790.000000	0.296045
791.000000	0.296081
792.000000	0.296187
793.000000	0.296283
794.000000	0.296313
795.000000	0.296294
796.000000	0.296301
797.000000	0.296335
798.000000	0.296335
799.000000	0.296386
800.000000	0.296447
801.000000	0.296458
802.000000	0.296491
803.000000	0.296465
804.000000	0.296397
805.000000	0.296365
806.000000	0.296361
807.000000	0.296426
808.000000	0.296467
809.000000	0.296485
810.000000	0.296474
811.000000	0.296424
812.000000	0.296385
813.000000	0.296304
814.000000	0.296215
815.000000	0.296251
816.000000	0.296290
817.000000	0.296347
818.000000	0.296368
819.000000	0.296366
820.000000	0.296333
821.000000	0.296256
822.000000	0.296256
823.000000	0.296300
824.000000	0.296310
825.000000	0.296315
826.000000	0.296363
827.000000	0.296393
828.000000	0.296411
829.000000	0.296430
830.000000	0.296431
831.000000	0.296447
832.000000	0.296383
833.000000	0.296336
834.000000	0.296346
835.000000	0.296420
836.000000	0.296363
837.000000	0.296298
838.000000	0.296265
839.000000	0.296198
840.000000	0.296131
841.000000	0.296016
842.000000	0.295805
843.000000	0.295744
844.000000	0.295634
845.000000	0.295477
846.000000	0.295571
847.000000	0.295583
848.000000	0.295512
849.000000	0.295476
850.000000	0.295467
851.000000	0.295416
852.000000	0.295335
853.000000	0.295235
854.000000	0.295181
855.000000	0.295222
856.000000	0.295212
857.000000	0.295152
858.000000	0.295156
859.000000	0.295159
860.000000	0.295036
861.000000	0.294872
862.000000	0.294752
863.000000	0.294667
864.000000	0.294557
865.000000	0.294441
866.000000	0.294345
867.000000	0.294206
868.000000	0.294169
869.000000	0.294090
870.000000	0.293862
871.000000	0.293726
872.000000	0.293712
873.000000	0.293732
874.000000	0.293730
875.000000	0.293623
876.000000	0.293498
877.000000	0.293425
878.000000	0.293262
879.000000	0.293142
880.000000	0.292998
881.000000	0.292809
882.000000	0.292557
883.000000	0.292278
884.000000	0.291987
885.000000	0.291902
886.000000	0.291845
887.000000	0.291724
888.000000	0.291596
889.000000	0.291434
890.000000	0.291206
891.000000	0.291082
892.000000	0.290907
893.000000	0.290797
894.000000	0.290882
895.000000	0.290895
896.000000	0.290836
897.000000	0.290658
898.000000	0.290348
899.000000	0.290094
900.000000	0.289846
901.000000	0.289558
902.000000	0.289332
903.000000	0.289248
904.000000	0.289183
905.000000	0.288922
906.000000	0.288811
907.000000	0.288704
908.000000	0.288549
909.000000	0.288240
910.000000	0.287854
911.000000	0.287526
912.000000	0.287360
913.000000	0.287224
914.000000	0.286923
915.000000	0.286597
916.000000	0.286468
917.000000	0.286256
918.000000	0.286043
919.000000	0.285880
920.000000	0.285650
921.000000	0.285446
922.000000	0.285272
923.000000	0.285055
924.000000	0.284799
925.000000	0.284378
926.000000	0.283869
927.000000	0.283607
928.000000	0.283349
929.000000	0.283106
930.000000	0.282961
931.000000	0.282903
932.000000	0.282784
933.000000	0.282616
934.000000	0.282486
935.000000	0.282175
936.000000	0.281828
937.000000	0.281514
938.000000	0.281252
939.000000	0.280904
940.000000	0.280546
941.000000	0.280487
942.000000	0.280199
943.000000	0.280000
944.000000	0.279916
945.000000	0.279644
946.000000	0.279520
947.000000	0.279453
948.000000	0.279206
949.000000	0.278985
950.000000	0.278787
951.000000	0.278550
952.000000	0.278294
953.000000	0.278098
954.000000	0.277905
955.000000	0.277579
956.000000	0.277086
957.000000	0.276902
958.000000	0.276881
959.000000	0.276746
960.000000	0.276463
961.000000	0.276369
962.000000	0.276385
963.000000	0.276000
964.000000	0.275666
965.000000	0.275386
966.000000	0.275032
967.000000	0.274914
968.000000	0.274530
969.000000	0.274052
970.000000	0.273992
971.000000	0.273678
972.000000	0.273426
973.000000	0.273277
974.000000	0.273025
975.000000	0.272714
976.000000	0.272453
977.000000	0.272310
978.000000	0.272250
979.000000	0.272130
980.000000	0.271849
981.000000	0.271746
982.000000	0.271489
983.000000	0.271217
984.000000	0.270997
985.000000	0.270662
986.000000	0.270539
987.000000	0.270473
988.000000	0.270231
989.000000	0.269994
990.000000	0.269903
991.000000	0.269760
992.000000	0.269426
993.000000	0.269454
994.000000	0.269349
995.000000	0.269211
996.000000	0.269194
997.000000	0.268996
998.000000	0.269085
999.000000	0.269364
1000.000000	0.268586
1001.000000	0.269704
1002.000000	0.268973
1003.000000	0.268359
1004.000000	0.268209
1005.000000	0.268528
1006.000000	0.268281
1007.000000	0.268070
1008.000000	0.268015
1009.000000	0.267952
1010.000000	0.267417
1011.000000	0.267724
1012.000000	0.268698
1013.000000	0.268704
1014.000000	0.268177
1015.000000	0.268145
1016.000000	0.268045
1017.000000	0.267098
1018.000000	0.267111
1019.000000	0.267382
1020.000000	0.267840
1021.000000	0.267708
1022.000000	0.268514
1023.000000	0.268615
1024.000000	0.267588
1025.000000	0.267081
1026.000000	0.267600
1027.000000	0.267592
1028.000000	0.267598
1029.000000	0.267970
1030.000000	0.267521
1031.000000	0.266875
1032.000000	0.266881
1033.000000	0.266860
1034.000000	0.266834
1035.000000	0.266981
1036.000000	0.267059
1037.000000	0.267092
1038.000000	0.267038
1039.000000	0.267026
1040.000000	0.267117
1041.000000	0.267192
1042.000000	0.267176
1043.000000	0.267379
1044.000000	0.268071
1045.000000	0.268305
1046.000000	0.268531
1047.000000	0.268879
1048.000000	0.269194
1049.000000	0.269224
1050.000000	0.269278
1051.000000	0.269215
1052.000000	0.268667
1053.000000	0.268492
1054.000000	0.268655
1055.000000	0.268952
1056.000000	0.269491
1057.000000	0.269921
1058.000000	0.270376
1059.000000	0.270430
1060.000000	0.270352
1061.000000	0.270348
1062.000000	0.270657
1063.000000	0.270912
1064.000000	0.270986
1065.000000	0.270986
1066.000000	0.271010
1067.000000	0.270637
1068.000000	0.270730
1069.000000	0.271326
1070.000000	0.271468
1071.000000	0.271429
1072.000000	0.271609
1073.000000	0.271838
1074.000000	0.271831
1075.000000	0.272045
1076.000000	0.272678
1077.000000	0.272856
1078.000000	0.272924
1079.000000	0.273259
1080.000000	0.273839
1081.000000	0.274145
1082.000000	0.274570
1083.000000	0.274866
1084.000000	0.274992
1085.000000	0.275219
1086.000000	0.275514
1087.000000	0.275690
1088.000000	0.275571
1089.000000	0.275684
1090.000000	0.275798
1091.000000	0.276034
1092.000000	0.276387
1093.000000	0.276561
1094.000000	0.276703
1095.000000	0.276691
1096.000000	0.276689
1097.000000	0.276541
1098.000000	0.276726
1099.000000	0.276918
1100.000000	0.277148
1101.000000	0.277533
1102.000000	0.277962
1103.000000	0.278406
1104.000000	0.278812
1105.000000	0.279571
1106.000000	0.279885
1107.000000	0.279515
1108.000000	0.279598
1109.000000	0.279899
1110.000000	0.280082
1111.000000	0.280158
1112.000000	0.280435
1113.000000	0.280584
1114.000000	0.280338
1115.000000	0.280475
1116.000000	0.281075
1117.000000	0.281171
1118.000000	0.281076
1119.000000	0.280971
1120.000000	0.280483
1121.000000	0.280384
1122.000000	0.280502
1123.000000	0.280828
1124.000000	0.281350
1125.000000	0.281676
1126.000000	0.281868
1127.000000	0.282086
1128.000000	0.282264
1129.000000	0.282361
1130.000000	0.282515
1131.000000	0.282789
1132.000000	0.282847
1133.000000	0.282740
1134.000000	0.282877
1135.000000	0.283006
1136.000000	0.283130
1137.000000	0.283469
1138.000000	0.283557
1139.000000	0.283506
1140.000000	0.283596
1141.000000	0.283605
1142.000000	0.283666
1143.000000	0.283672
1144.000000	0.283887
1145.000000	0.284189
1146.000000	0.284232
1147.000000	0.284343
1148.000000	0.284455
1149.000000	0.284487
1150.000000	0.284402
1151.000000	0.284443
1152.000000	0.284381
1153.000000	0.284521
1154.000000	0.284870
1155.000000	0.284956
1156.000000	0.285056
1157.000000	0.285100
1158.000000	0.284821
1159.000000	0.284752
1160.000000	0.284797
1161.000000	0.284825
1162.000000	0.284910
1163.000000	0.285194
1164.000000	0.285331
1165.000000	0.285315
1166.000000	0.285358
1167.000000	0.285301
1168.000000	0.285276
1169.000000	0.285231
1170.000000	0.285353
1171.000000	0.285715
1172.000000	0.285747
1173.000000	0.285630
1174.000000	0.285654
1175.000000	0.285446
1176.000000	0.285407
1177.000000	0.285803
1178.000000	0.285879
1179.000000	0.285726
1180.000000	0.285638
1181.000000	0.285556
1182.000000	0.285430
1183.000000	0.285567
1184.000000	0.285765
1185.000000	0.285816
1186.000000	0.285885
1187.000000	0.285892
1188.000000	0.285774
1189.000000	0.285696
1190.000000	0.285627
1191.000000	0.285624
1192.000000	0.285758
1193.000000	0.285843
1194.000000	0.285848
1195.000000	0.285889
1196.000000	0.285887
1197.000000	0.285831
1198.000000	0.285665
1199.000000	0.285688
1200.000000	0.285765
1201.000000	0.285831
1202.000000	0.285868
1203.000000	0.286071
1204.000000	0.286154
1205.000000	0.286073
1206.000000	0.286041
1207.000000	0.286167
1208.000000	0.286123
1209.000000	0.285980
1210.000000	0.285926
1211.000000	0.285892
1212.000000	0.285882
1213.000000	0.286012
1214.000000	0.286011
1215.000000	0.285869
1216.000000	0.285782
1217.000000	0.285575
1218.000000	0.285478
1219.000000	0.285416
1220.000000	0.285627
1221.000000	0.285741
1222.000000	0.285750
1223.000000	0.285753
1224.000000	0.285653
1225.000000	0.285593
1226.000000	0.285696
1227.000000	0.285796
1228.000000	0.285985
1229.000000	0.286006
1230.000000	0.285927
1231.000000	0.285831
1232.000000	0.285671
1233.000000	0.285721
1234.000000	0.285938
1235.000000	0.285963
1236.000000	0.285902
1237.000000	0.285890
1238.000000	0.285675
1239.000000	0.285579
1240.000000	0.285536
1241.000000	0.285639
1242.000000	0.285669
1243.000000	0.285642
1244.000000	0.285746
1245.000000	0.285905
1246.000000	0.285708
1247.000000	0.285654
1248.000000	0.285766
1249.000000	0.285687
1250.000000	0.285799
1251.000000	0.285875
1252.000000	0.285930
1253.000000	0.285935
1254.000000	0.285903
1255.000000	0.285849
1256.000000	0.285880
1257.000000	0.285832
1258.000000	0.285897
1259.000000	0.286110
1260.000000	0.286207
1261.000000	0.286248
1262.000000	0.286212
1263.000000	0.286029
1264.000000	0.286004
1265.000000	0.286086
1266.000000	0.286003
1267.000000	0.286039
1268.000000	0.286042
1269.000000	0.285769
1270.000000	0.285691
1271.000000	0.285706
1272.000000	0.285734
1273.000000	0.285850
1274.000000	0.285746
1275.000000	0.285648
1276.000000	0.285437
1277.000000	0.285415
1278.000000	0.285369
1279.000000	0.285342
1280.000000	0.285302
1281.000000	0.285198
1282.000000	0.285143
1283.000000	0.285221
1284.000000	0.285285
1285.000000	0.285348
1286.000000	0.285549
1287.000000	0.285412
1288.000000	0.285352
1289.000000	0.285268
1290.000000	0.285047
1291.000000	0.285021
1292.000000	0.285057
1293.000000	0.285084
1294.000000	0.285115
1295.000000	0.285213
1296.000000	0.285185
1297.000000	0.285139
1298.000000	0.285168
1299.000000	0.285009
1300.000000	0.285028
1301.000000	0.285095
1302.000000	0.285052
1303.000000	0.285203
1304.000000	0.285137
1305.000000	0.284868
1306.000000	0.284826
1307.000000	0.284905
1308.000000	0.284928
1309.000000	0.285007
1310.000000	0.285084
1311.000000	0.285171
1312.000000	0.285163
1313.000000	0.285149
1314.000000	0.285259
1315.000000	0.285164
1316.000000	0.285178
1317.000000	0.285279
1318.000000	0.285214
1319.000000	0.285277
1320.000000	0.285306
1321.000000	0.285137
1322.000000	0.285110
1323.000000	0.285120
1324.000000	0.285012
1325.000000	0.284987
1326.000000	0.284937
1327.000000	0.284848
1328.000000	0.284779
1329.000000	0.284627
1330.000000	0.284478
1331.000000	0.284417
1332.000000	0.284379
1333.000000	0.284365
1334.000000	0.284426
1335.000000	0.284516
1336.000000	0.284708
1337.000000	0.284701
1338.000000	0.284500
1339.000000	0.284636
1340.000000	0.284661
1341.000000	0.284401
1342.000000	0.284402
1343.000000	0.284346
1344.000000	0.284084
1345.000000	0.283874
1346.000000	0.283971
1347.000000	0.284018
1348.000000	0.283928
1349.000000	0.283985
1350.000000	0.284030
1351.000000	0.283914
1352.000000	0.283922
1353.000000	0.284019
1354.000000	0.283936
1355.000000	0.283712
1356.000000	0.283690
1357.000000	0.283659
1358.000000	0.283670
1359.000000	0.283774
1360.000000	0.283773
1361.000000	0.283731
1362.000000	0.283700
1363.000000	0.283592
1364.000000	0.283541
1365.000000	0.283548
1366.000000	0.283503
1367.000000	0.283432
1368.000000	0.283296
1369.000000	0.283284
1370.000000	0.283148
1371.000000	0.282950
1372.000000	0.282830
1373.000000	0.282669
1374.000000	0.282457
1375.000000	0.282328
1376.000000	0.282265
1377.000000	0.282080
1378.000000	0.281981
1379.000000	0.281866
1380.000000	0.281630
1381.000000	0.281500
1382.000000	0.281375
1383.000000	0.281213
1384.000000	0.280979
1385.000000	0.280669
1386.000000	0.280344
1387.000000	0.280018
1388.000000	0.279854
1389.000000	0.279805
1390.000000	0.279734
1391.000000	0.279676
1392.000000	0.279666
1393.000000	0.279560
1394.000000	0.279444
1395.000000	0.279349
1396.000000	0.279175
1397.000000	0.279014
1398.000000	0.278883
1399.000000	0.278768
1400.000000	0.278650
1401.000000	0.278483
1402.000000	0.278354
1403.000000	0.278124
1404.000000	0.278006
1405.000000	0.277805
1406.000000	0.277499
1407.000000	0.277262
1408.000000	0.276953
1409.000000	0.276734
1410.000000	0.276753
1411.000000	0.276767
1412.000000	0.276674
1413.000000	0.276558
1414.000000	0.276425
1415.000000	0.276275
1416.000000	0.276159
1417.000000	0.276100
1418.000000	0.275917
1419.000000	0.275753
1420.000000	0.275501
1421.000000	0.275293
1422.000000	0.275204
1423.000000	0.275130
1424.000000	0.275046
1425.000000	0.274975
1426.000000	0.274810
1427.000000	0.274625
1428.000000	0.274417
1429.000000	0.274301
1430.000000	0.274207
1431.000000	0.274039
1432.000000	0.273907
1433.000000	0.273799
1434.000000	0.273718
1435.000000	0.273761
1436.000000	0.273778
1437.000000	0.273855
1438.000000	0.273818
1439.000000	0.273705
1440.000000	0.273648
1441.000000	0.273600
1442.000000	0.273542
1443.000000	0.273425
1444.000000	0.273414
1445.000000	0.273363
1446.000000	0.273338
1447.000000	0.273367
1448.000000	0.273327
1449.000000	0.273182
1450.000000	0.273037
1451.000000	0.272911
1452.000000	0.272728
1453.000000	0.272666
1454.000000	0.272601
1455.000000	0.272458
1456.000000	0.272431
1457.000000	0.272333
1458.000000	0.272242
1459.000000	0.272326
1460.000000	0.272318
1461.000000	0.272291
1462.000000	0.272290
1463.000000	0.272097
1464.000000	0.271955
1465.000000	0.271906
1466.000000	0.271798
1467.000000	0.271861
1468.000000	0.272055
1469.000000	0.272164
1470.000000	0.272159
1471.000000	0.272204
1472.000000	0.272217
1473.000000	0.272239
1474.000000	0.272255
1475.000000	0.272286
1476.000000	0.272273
1477.000000	0.272294
1478.000000	0.272391
1479.000000	0.272499
1480.000000	0.272563
1481.000000	0.272601
1482.000000	0.272716
1483.000000	0.272761
1484.000000	0.272698
1485.000000	0.272721
1486.000000	0.272705
1487.000000	0.272772
1488.000000	0.272973
1489.000000	0.273089
1490.000000	0.273098
1491.000000	0.273166
1492.000000	0.273149
1493.000000	0.273224
1494.000000	0.273346
1495.000000	0.273405
1496.000000	0.273418
1497.000000	0.273522
1498.000000	0.273680
1499.000000	0.273815
1500.000000	0.273907
1501.000000	0.274016
1502.000000	0.274054
1503.000000	0.274099
1504.000000	0.274164
1505.000000	0.274217
1506.000000	0.274270
1507.000000	0.274260
1508.000000	0.274408
1509.000000	0.274580
1510.000000	0.274561
1511.000000	0.274585
1512.000000	0.274612
1513.000000	0.274617
1514.000000	0.274652
1515.000000	0.274693
1516.000000	0.274750
1517.000000	0.274711
1518.000000	0.274740
1519.000000	0.274764
1520.000000	0.274800
1521.000000	0.274868
1522.000000	0.274914
1523.000000	0.275023
1524.000000	0.275049
1525.000000	0.275006
1526.000000	0.275079
1527.000000	0.275235
1528.000000	0.275350
1529.000000	0.275406
1530.000000	0.275376
1531.000000	0.275311
1532.000000	0.275219
1533.000000	0.275200
1534.000000	0.275254
1535.000000	0.275272
1536.000000	0.275253
1537.000000	0.275263
1538.000000	0.275245
1539.000000	0.275106
1540.000000	0.274951
1541.000000	0.275032
1542.000000	0.275137
1543.000000	0.275180
1544.000000	0.275270
1545.000000	0.275245
1546.000000	0.275200
1547.000000	0.275261
1548.000000	0.275382
1549.000000	0.275478
1550.000000	0.275565
1551.000000	0.275632
1552.000000	0.275554
1553.000000	0.275502
1554.000000	0.275489
1555.000000	0.275395
1556.000000	0.275370
1557.000000	0.275347
1558.000000	0.275322
1559.000000	0.275188
1560.000000	0.275179
1561.000000	0.275342
1562.000000	0.275263
1563.000000	0.275096
1564.000000	0.275032
1565.000000	0.274873
1566.000000	0.274727
1567.000000	0.274850
1568.000000	0.274774
1569.000000	0.274543
1570.000000	0.274499
1571.000000	0.274433
1572.000000	0.274417
1573.000000	0.274610
1574.000000	0.274609
1575.000000	0.274546
1576.000000	0.274545
1577.000000	0.274409
1578.000000	0.274411
1579.000000	0.274632
1580.000000	0.274702
1581.000000	0.274817
1582.000000	0.274864
1583.000000	0.274771
1584.000000	0.274715
1585.000000	0.274743
1586.000000	0.274795
1587.000000	0.274865
1588.000000	0.274959
1589.000000	0.275122
1590.000000	0.275178
1591.000000	0.275190
1592.000000	0.275232
1593.000000	0.275305
1594.000000	0.275310
1595.000000	0.275363
1596.000000	0.275355
1597.000000	0.275263
1598.000000	0.275198
1599.000000	0.275177
1600.000000	0.275040
1601.000000	0.274891
1602.000000	0.274806
1603.000000	0.274705
1604.000000	0.274652
1605.000000	0.274687
1606.000000	0.274667
1607.000000	0.274646
1608.000000	0.274678
1609.000000	0.274841
1610.000000	0.274897
1611.000000	0.274946
1612.000000	0.274964
1613.000000	0.274995
1614.000000	0.275009
1615.000000	0.275055
1616.000000	0.275136
1617.000000	0.275217
1618.000000	0.275207
1619.000000	0.275145
1620.000000	0.275122
1621.000000	0.275022
1622.000000	0.275113
1623.000000	0.275307
1624.000000	0.275427
1625.000000	0.275542
1626.000000	0.275526
1627.000000	0.275399
1628.000000	0.275390
1629.000000	0.275371
1630.000000	0.275350
1631.000000	0.275298
1632.000000	0.275255
1633.000000	0.275186
1634.000000	0.275207
1635.000000	0.275367
1636.000000	0.275373
1637.000000	0.275391
1638.000000	0.275335
1639.000000	0.275160
1640.000000	0.275096
1641.000000	0.275112
1642.000000	0.275100
1643.000000	0.275205
1644.000000	0.275216
1645.000000	0.275152
1646.000000	0.275100
1647.000000	0.274958
1648.000000	0.274963
1649.000000	0.275254
1650.000000	0.275292
1651.000000	0.275322
1652.000000	0.275312
1653.000000	0.275032
1654.000000	0.274971
1655.000000	0.274985
1656.000000	0.274954
1657.000000	0.275022
1658.000000	0.275008
1659.000000	0.275074
1660.000000	0.275075
1661.000000	0.274901
1662.000000	0.274957
1663.000000	0.275039
1664.000000	0.275158
1665.000000	0.275460
1666.000000	0.275596
1667.000000	0.275573
1668.000000	0.275641
1669.000000	0.275670
1670.000000	0.275683
1671.000000	0.275811
1672.000000	0.275925
1673.000000	0.276003
1674.000000	0.275918
1675.000000	0.276012
1676.000000	0.275944
1677.000000	0.275778
1678.000000	0.275751
1679.000000	0.275713
1680.000000	0.275727
1681.000000	0.275838
1682.000000	0.276053
1683.000000	0.276174
1684.000000	0.276100
1685.000000	0.276144
1686.000000	0.276065
1687.000000	0.275944
1688.000000	0.276016
1689.000000	0.276076
1690.000000	0.275981
1691.000000	0.275972
1692.000000	0.276024
1693.000000	0.275953
1694.000000	0.275837
1695.000000	0.275873
1696.000000	0.275619
1697.000000	0.275530
1698.000000	0.275779
1699.000000	0.275861
1700.000000	0.275913
1701.000000	0.276015
1702.000000	0.275866
1703.000000	0.275766
1704.000000	0.275831
1705.000000	0.275808
1706.000000	0.275756
1707.000000	0.275705
1708.000000	0.275545
1709.000000	0.275472
1710.000000	0.275547
1711.000000	0.275600
1712.000000	0.275774
1713.000000	0.275813
1714.000000	0.275814
1715.000000	0.275798
1716.000000	0.275672
1717.000000	0.275653
1718.000000	0.275666
1719.000000	0.275647
1720.000000	0.275769
1721.000000	0.275731
1722.000000	0.275553
1723.000000	0.275464
1724.000000	0.275323
1725.000000	0.275319
1726.000000	0.275356
1727.000000	0.275391
1728.000000	0.275475
1729.000000	0.275415
1730.000000	0.275381
1731.000000	0.275387
1732.000000	0.275354
1733.000000	0.275414
1734.000000	0.275431
1735.000000	0.275495
1736.000000	0.275569
1737.000000	0.275612
1738.000000	0.275717
1739.000000	0.275732
1740.000000	0.275633
1741.000000	0.275640
1742.000000	0.275681
1743.000000	0.275736
1744.000000	0.275846
1745.000000	0.275815
1746.000000	0.275696
1747.000000	0.275620
1748.000000	0.275561
1749.000000	0.275597
1750.000000	0.275597
1751.000000	0.275763
1752.000000	0.275883
1753.000000	0.275892
1754.000000	0.275823
1755.000000	0.275421
1756.000000	0.275330
1757.000000	0.275403
1758.000000	0.275451
1759.000000	0.275739
1760.000000	0.275870
1761.000000	0.275823
1762.000000	0.275799
1763.000000	0.275743
1764.000000	0.275756
1765.000000	0.275706
1766.000000	0.275778
1767.000000	0.276024
1768.000000	0.275979
1769.000000	0.275820
1770.000000	0.275875
1771.000000	0.275818
1772.000000	0.275868
1773.000000	0.276163
1774.000000	0.276224
1775.000000	0.276165
1776.000000	0.276184
1777.000000	0.276171
1778.000000	0.276152
1779.000000	0.276155
1780.000000	0.276101
1781.000000	0.275957
1782.000000	0.275871
1783.000000	0.275757
1784.000000	0.275985
1785.000000	0.276114
1786.000000	0.276173
1787.000000	0.276348
1788.000000	0.276152
1789.000000	0.275782
1790.000000	0.275711
1791.000000	0.275627
1792.000000	0.275792
1793.000000	0.275884
1794.000000	0.275964
1795.000000	0.275999
1796.000000	0.275974
1797.000000	0.275965
1798.000000	0.275905
1799.000000	0.275891
1800.000000	0.275951
1801.000000	0.276181
1802.000000	0.276275
1803.000000	0.275291
1804.000000	0.275003
1805.000000	0.274489
1806.000000	0.274177
1807.000000	0.274364
1808.000000	0.274018
1809.000000	0.273000
1810.000000	0.272352
1811.000000	0.272532
1812.000000	0.273225
1813.000000	0.273545
1814.000000	0.274878
1815.000000	0.275096
1816.000000	0.274062
1817.000000	0.273709
1818.000000	0.273399
1819.000000	0.273532
1820.000000	0.273333
1821.000000	0.273138
1822.000000	0.272857
1823.000000	0.272126
1824.000000	0.271716
1825.000000	0.271074
1826.000000	0.271113
1827.000000	0.271294
1828.000000	0.271877
1829.000000	0.272946
1830.000000	0.273887
1831.000000	0.273710
1832.000000	0.272363
1833.000000	0.272058
1834.000000	0.271214
1835.000000	0.271086
1836.000000	0.272264
1837.000000	0.272607
1838.000000	0.272738
1839.000000	0.272267
1840.000000	0.271979
1841.000000	0.271345
1842.000000	0.271255
1843.000000	0.271323
1844.000000	0.271619
1845.000000	0.272497
1846.000000	0.272989
1847.000000	0.273524
1848.000000	0.273420
1849.000000	0.273557
1850.000000	0.272824
1851.000000	0.272632
1852.000000	0.272638
1853.000000	0.272536
1854.000000	0.272203
1855.000000	0.272155
1856.000000	0.272270
1857.000000	0.271761
1858.000000	0.271539
1859.000000	0.271026
1860.000000	0.270490
1861.000000	0.270682
1862.000000	0.270883
1863.000000	0.271984
1864.000000	0.272322
1865.000000	0.272512
1866.000000	0.272207
1867.000000	0.271453
1868.000000	0.270556
1869.000000	0.269372
1870.000000	0.268398
1871.000000	0.267507
1872.000000	0.267030
1873.000000	0.266722
1874.000000	0.266817
1875.000000	0.266778
1876.000000	0.266719
1877.000000	0.266336
1878.000000	0.266158
1879.000000	0.265971
1880.000000	0.265771
1881.000000	0.264954
1882.000000	0.263707
1883.000000	0.262256
1884.000000	0.261289
1885.000000	0.260553
1886.000000	0.259696
1887.000000	0.259038
1888.000000	0.258021
1889.000000	0.257233
1890.000000	0.255914
1891.000000	0.254718
1892.000000	0.253789
1893.000000	0.252569
1894.000000	0.251523
1895.000000	0.250513
1896.000000	0.249921
1897.000000	0.249146
1898.000000	0.247779
1899.000000	0.246331
1900.000000	0.245228
1901.000000	0.244682
1902.000000	0.244782
1903.000000	0.245243
1904.000000	0.245248
1905.000000	0.244219
1906.000000	0.243346
1907.000000	0.241991
1908.000000	0.241288
1909.000000	0.240609
1910.000000	0.240213
1911.000000	0.240306
1912.000000	0.239226
1913.000000	0.237655
1914.000000	0.237046
1915.000000	0.236137
1916.000000	0.235472
1917.000000	0.235215
1918.000000	0.235814
1919.000000	0.235982
1920.000000	0.235750
1921.000000	0.235438
1922.000000	0.235369
1923.000000	0.235159
1924.000000	0.234572
1925.000000	0.234473
1926.000000	0.234226
1927.000000	0.233582
1928.000000	0.233316
1929.000000	0.233536
1930.000000	0.233771
1931.000000	0.233635
1932.000000	0.233872
1933.000000	0.234284
1934.000000	0.234127
1935.000000	0.233980
1936.000000	0.234362
1937.000000	0.234256
1938.000000	0.234110
1939.000000	0.234042
1940.000000	0.234167
1941.000000	0.233680
1942.000000	0.233511
1943.000000	0.233489
1944.000000	0.233260
1945.000000	0.233313
1946.000000	0.233382
1947.000000	0.233713
1948.000000	0.234412
1949.000000	0.234361
1950.000000	0.234197
1951.000000	0.234006
1952.000000	0.233623
1953.000000	0.232801
1954.000000	0.232906
1955.000000	0.232891
1956.000000	0.232483
1957.000000	0.232170
1958.000000	0.231535
1959.000000	0.231491
1960.000000	0.231924
1961.000000	0.232542
1962.000000	0.232909
1963.000000	0.233719
1964.000000	0.233639
1965.000000	0.232937
1966.000000	0.232000
1967.000000	0.230954
1968.000000	0.230774
1969.000000	0.230997
1970.000000	0.231397
1971.000000	0.231852
1972.000000	0.232351
1973.000000	0.232634
1974.000000	0.232809
1975.000000	0.233000
1976.000000	0.233430
1977.000000	0.233278
1978.000000	0.232677
1979.000000	0.232520
1980.000000	0.232596
1981.000000	0.232754
1982.000000	0.233235
1983.000000	0.234083
1984.000000	0.234452
1985.000000	0.234493
1986.000000	0.234667
1987.000000	0.234903
1988.000000	0.234823
1989.000000	0.234807
1990.000000	0.235227
1991.000000	0.235986
1992.000000	0.236442
1993.000000	0.236550
1994.000000	0.237118
1995.000000	0.237031
1996.000000	0.237050
1997.000000	0.237320
1998.000000	0.238169
1999.000000	0.238514
2000.000000	0.238796
2001.000000	0.238771
2002.000000	0.239035
2003.000000	0.239148
2004.000000	0.239383
2005.000000	0.239667
2006.000000	0.239725
2007.000000	0.239805
2008.000000	0.239851
2009.000000	0.239709
2010.000000	0.239866
2011.000000	0.240053
2012.000000	0.240145
2013.000000	0.240277
2014.000000	0.240328
2015.000000	0.239971
2016.000000	0.240184
2017.000000	0.240838
2018.000000	0.241271
2019.000000	0.242178
2020.000000	0.242661
2021.000000	0.242725
2022.000000	0.241956
2023.000000	0.242099
2024.000000	0.242363
2025.000000	0.242574
2026.000000	0.243357
2027.000000	0.243168
2028.000000	0.242577
2029.000000	0.243028
2030.000000	0.243826
2031.000000	0.244815
2032.000000	0.245431
2033.000000	0.245525
2034.000000	0.245485
2035.000000	0.244396
2036.000000	0.244375
2037.000000	0.245230
2038.000000	0.245612
2039.000000	0.246219
2040.000000	0.246707
2041.000000	0.246758
2042.000000	0.246470
2043.000000	0.246559
2044.000000	0.246713
2045.000000	0.246610
2046.000000	0.246755
2047.000000	0.246824
2048.000000	0.246533
2049.000000	0.246691
2050.000000	0.246895
2051.000000	0.247045
2052.000000	0.247203
2053.000000	0.247275
2054.000000	0.247482
2055.000000	0.247776
2056.000000	0.248109
2057.000000	0.248663
2058.000000	0.249544
2059.000000	0.250419
2060.000000	0.250585
2061.000000	0.250350
2062.000000	0.250096
2063.000000	0.249310
2064.000000	0.248621
2065.000000	0.248078
2066.000000	0.247618
2067.000000	0.247265
2068.000000	0.246822
2069.000000	0.247166
2070.000000	0.248100
2071.000000	0.249104
2072.000000	0.250577
2073.000000	0.251316
2074.000000	0.251219
2075.000000	0.251084
2076.000000	0.249935
2077.000000	0.249818
2078.000000	0.249884
2079.000000	0.250179
2080.000000	0.251311
2081.000000	0.251822
2082.000000	0.252159
2083.000000	0.252666
2084.000000	0.252469
2085.000000	0.252638
2086.000000	0.252570
2087.000000	0.252037
2088.000000	0.251317
2089.000000	0.250743
2090.000000	0.250481
2091.000000	0.250116
2092.000000	0.250339
2093.000000	0.251298
2094.000000	0.252071
2095.000000	0.253439
2096.000000	0.254265
2097.000000	0.255118
2098.000000	0.255077
2099.000000	0.255298
2100.000000	0.255538
2101.000000	0.255093
2102.000000	0.254653
2103.000000	0.254571
2104.000000	0.254136
2105.000000	0.253851
2106.000000	0.253945
2107.000000	0.254239
2108.000000	0.254242
2109.000000	0.254721
2110.000000	0.256153
2111.000000	0.256603
2112.000000	0.256765
2113.000000	0.256353
2114.000000	0.255477
2115.000000	0.254723
2116.000000	0.254662
2117.000000	0.254650
2118.000000	0.254513
2119.000000	0.255564
2120.000000	0.255970
2121.000000	0.256065
2122.000000	0.256200
2123.000000	0.256323
2124.000000	0.256242
2125.000000	0.256025
2126.000000	0.255989
2127.000000	0.256036
2128.000000	0.256086
2129.000000	0.255888
2130.000000	0.256145
2131.000000	0.256574
2132.000000	0.256191
2133.000000	0.256153
2134.000000	0.256770
2135.000000	0.256155
2136.000000	0.256108
2137.000000	0.255947
2138.000000	0.255405
2139.000000	0.255117
2140.000000	0.255082
2141.000000	0.254929
2142.000000	0.254969
2143.000000	0.254844
2144.000000	0.255189
2145.000000	0.255102
2146.000000	0.255144
2147.000000	0.253925
2148.000000	0.253814
2149.000000	0.253340
2150.000000	0.254187
2151.000000	0.255883
2152.000000	0.256074
2153.000000	0.255768
2154.000000	0.255699
2155.000000	0.254710
2156.000000	0.254771
2157.000000	0.255943
2158.000000	0.256226
2159.000000	0.256182
2160.000000	0.256465
2161.000000	0.256439
2162.000000	0.256837
2163.000000	0.258261
2164.000000	0.258471
2165.000000	0.257763
2166.000000	0.257571
2167.000000	0.257387
2168.000000	0.256961
2169.000000	0.257659
2170.000000	0.258753
2171.000000	0.258734
2172.000000	0.258238
2173.000000	0.257727
2174.000000	0.255909
2175.000000	0.255542
2176.000000	0.256216
2177.000000	0.256218
2178.000000	0.256764
2179.000000	0.256941
2180.000000	0.256112
2181.000000	0.256149
2182.000000	0.256042
2183.000000	0.256359
2184.000000	0.256836
2185.000000	0.256748
2186.000000	0.256592
2187.000000	0.256842
2188.000000	0.257897
2189.000000	0.258913
2190.000000	0.258627
2191.000000	0.258633
2192.000000	0.258445
2193.000000	0.256782
2194.000000	0.256624
2195.000000	0.258149
2196.000000	0.258333
2197.000000	0.257932
2198.000000	0.257922
2199.000000	0.258141
2200.000000	0.257482
2201.000000	0.256457
2202.000000	0.255947
2203.000000	0.254416
2204.000000	0.253218
2205.000000	0.252879
2206.000000	0.252290
2207.000000	0.252805
2208.000000	0.253561
2209.000000	0.254807
2210.000000	0.255994
2211.000000	0.256237
2212.000000	0.255653
2213.000000	0.255597
2214.000000	0.256345
2215.000000	0.255771
2216.000000	0.253788
2217.000000	0.254035
2218.000000	0.253847
2219.000000	0.254623
2220.000000	0.258225
2221.000000	0.259883
2222.000000	0.261996
2223.000000	0.262249
2224.000000	0.261678
2225.000000	0.258733
2226.000000	0.256565
2227.000000	0.255400
2228.000000	0.256897
2229.000000	0.257192
2230.000000	0.256814
2231.000000	0.256323
2232.000000	0.252541
2233.000000	0.252203
2234.000000	0.252684
2235.000000	0.252956
2236.000000	0.254367
2237.000000	0.258143
2238.000000	0.259275
2239.000000	0.259930
2240.000000	0.260189
2241.000000	0.258392
2242.000000	0.258879
2243.000000	0.260274
2244.000000	0.260880
2245.000000	0.263882
2246.000000	0.263400
2247.000000	0.260330
2248.000000	0.258149
2249.000000	0.254579
2250.000000	0.250500
2251.000000	0.248129
2252.000000	0.247453
2253.000000	0.246386
2254.000000	0.246732
2255.000000	0.249720
2256.000000	0.250908
2257.000000	0.253184
2258.000000	0.255371
2259.000000	0.254816
2260.000000	0.254318
2261.000000	0.253823
2262.000000	0.251768
2263.000000	0.252289
2264.000000	0.254817
2265.000000	0.256377
2266.000000	0.259832
2267.000000	0.260163
2268.000000	0.257585
2269.000000	0.256704
2270.000000	0.255133
2271.000000	0.254391
2272.000000	0.254759
2273.000000	0.254978
2274.000000	0.254760
2275.000000	0.255467
2276.000000	0.257369
2277.000000	0.258877
2278.000000	0.259029
2279.000000	0.257829
2280.000000	0.255956
2281.000000	0.254228
2282.000000	0.254547
2283.000000	0.254639
2284.000000	0.254373
2285.000000	0.253502
2286.000000	0.251569
2287.000000	0.250294
2288.000000	0.250137
2289.000000	0.249144
2290.000000	0.247594
2291.000000	0.247850
2292.000000	0.247404
2293.000000	0.247501
2294.000000	0.246927
2295.000000	0.245576
2296.000000	0.245414
2297.000000	0.244382
2298.000000	0.245385
2299.000000	0.250329
2300.000000	0.251145
2301.000000	0.250914
2302.000000	0.250484
2303.000000	0.246744
2304.000000	0.245139
2305.000000	0.245443
2306.000000	0.244482
2307.000000	0.242721
2308.000000	0.242344
2309.000000	0.241877
2310.000000	0.240751
2311.000000	0.240578
2312.000000	0.239932
2313.000000	0.240136
2314.000000	0.240358
2315.000000	0.241642
2316.000000	0.245217
2317.000000	0.244819
2318.000000	0.244199
2319.000000	0.246625
2320.000000	0.244857
2321.000000	0.244012
2322.000000	0.245346
2323.000000	0.244397
2324.000000	0.244996
2325.000000	0.245452
2326.000000	0.244643
2327.000000	0.242549
2328.000000	0.239525
2329.000000	0.239226
2330.000000	0.240346
2331.000000	0.241103
2332.000000	0.240855
2333.000000	0.240647
2334.000000	0.239742
2335.000000	0.240574
2336.000000	0.243911
2337.000000	0.245117
2338.000000	0.245811
2339.000000	0.246186
2340.000000	0.245096
2341.000000	0.244085
2342.000000	0.243188
2343.000000	0.242490
2344.000000	0.240570
2345.000000	0.240895
2346.000000	0.242992
2347.000000	0.244286
2348.000000	0.247307
2349.000000	0.247599
2350.000000	0.246041
2351.000000	0.246651
2352.000000	0.245872
2353.000000	0.245220
2354.000000	0.243476
2355.000000	0.238821
2356.000000	0.236007
2357.000000	0.234238
2358.000000	0.233645
2359.000000	0.236560
2360.000000	0.239712
2361.000000	0.240288
2362.000000	0.240279
2363.000000	0.241374
2364.000000	0.240720
2365.000000	0.240575
2366.000000	0.242367
2367.000000	0.242079
2368.000000	0.241341
2369.000000	0.242003
2370.000000	0.239109
2371.000000	0.237422
2372.000000	0.236359
2373.000000	0.233653
2374.000000	0.234658
2375.000000	0.232549
2376.000000	0.232615
2377.000000	0.232374
2378.000000	0.227391
2379.000000	0.228101
2380.000000	0.224823
2381.000000	0.219455
2382.000000	0.220550
2383.000000	0.220929
2384.000000	0.224622
2385.000000	0.232826
2386.000000	0.237065
2387.000000	0.238278
2388.000000	0.237418
2389.000000	0.234446
2390.000000	0.233378
2391.000000	0.231189
2392.000000	0.226765
2393.000000	0.223561
2394.000000	0.221674
2395.000000	0.224629
2396.000000	0.230653
2397.000000	0.235606
2398.000000	0.244644
2399.000000	0.248374
2400.000000	0.250850
2401.000000	0.258059
2402.000000	0.248120
2403.000000	0.236725
2404.000000	0.229464
2405.000000	0.216162
2406.000000	0.216580
2407.000000	0.225495
2408.000000	0.232245
2409.000000	0.239954
2410.000000	0.241820
2411.000000	0.234797
2412.000000	0.220660
2413.000000	0.215116
2414.000000	0.220769
2415.000000	0.221558
2416.000000	0.236040
2417.000000	0.243903
2418.000000	0.230252
2419.000000	0.230023
2420.000000	0.224109
2421.000000	0.224090
2422.000000	0.245298
2423.000000	0.250185
2424.000000	0.249857
2425.000000	0.247230
2426.000000	0.230385
2427.000000	0.223133
2428.000000	0.217985
2429.000000	0.215382
2430.000000	0.221338
2431.000000	0.221222
2432.000000	0.220886
2433.000000	0.226449
2434.000000	0.229982
2435.000000	0.234312
2436.000000	0.243075
2437.000000	0.247750
2438.000000	0.248830
2439.000000	0.245315
2440.000000	0.240483
2441.000000	0.234336
2442.000000	0.232564
2443.000000	0.239672
2444.000000	0.246509
2445.000000	0.256565
2446.000000	0.255677
2447.000000	0.245620
2448.000000	0.233048
2449.000000	0.213619
2450.000000	0.208795
2451.000000	0.197909
2452.000000	0.182461
2453.000000	0.189891
2454.000000	0.187341
2455.000000	0.182864
2456.000000	0.190533
2457.000000	0.195652
2458.000000	0.196510
2459.000000	0.201568
2460.000000	0.237365
2461.000000	0.250221
2462.000000	0.237486
2463.000000	0.232953
2464.000000	0.208908
2465.000000	0.189924
2466.000000	0.189623
2467.000000	0.221461
2468.000000	0.238539
2469.000000	0.229589
2470.000000	0.242815
2471.000000	0.227375
2472.000000	0.215456
2473.000000	0.229629
2474.000000	0.221442
2475.000000	0.213734
2476.000000	0.203533
2477.000000	0.192815
2478.000000	0.208331
2479.000000	0.235826
2480.000000	0.251796
2481.000000	0.257366
2482.000000	0.243688
2483.000000	0.189477
2484.000000	0.158496
2485.000000	0.165035
2486.000000	0.174739
2487.000000	0.194946
2488.000000	0.192768
2489.000000	0.175798
2490.000000	0.198123
2491.000000	0.252906
2492.000000	0.264499
2493.000000	0.253907
2494.000000	0.248211
2495.000000	0.234924
2496.000000	0.219820
2497.000000	0.175091
2498.000000	0.166636
2499.000000	0.179171
2500.000000	0.186376
