# Wavelength	SM1200H-70_HEX-10_FV7-20_00002.asd.rts.txt
350.000000	0.351944
351.000000	0.346960
352.000000	0.327280
353.000000	0.328804
354.000000	0.356900
355.000000	0.346443
356.000000	0.348956
357.000000	0.364385
358.000000	0.351413
359.000000	0.347275
360.000000	0.349245
361.000000	0.346373
362.000000	0.349936
363.000000	0.352141
364.000000	0.350010
365.000000	0.359946
366.000000	0.362558
367.000000	0.356923
368.000000	0.358270
369.000000	0.360277
370.000000	0.359850
371.000000	0.356000
372.000000	0.358666
373.000000	0.363285
374.000000	0.365746
375.000000	0.363425
376.000000	0.364274
377.000000	0.368079
378.000000	0.367343
379.000000	0.364870
380.000000	0.363434
381.000000	0.366268
382.000000	0.366902
383.000000	0.367931
384.000000	0.371091
385.000000	0.371580
386.000000	0.371119
387.000000	0.371181
388.000000	0.372698
389.000000	0.373168
390.000000	0.372831
391.000000	0.372501
392.000000	0.373570
393.000000	0.374265
394.000000	0.373702
395.000000	0.375317
396.000000	0.377184
397.000000	0.378244
398.000000	0.378652
399.000000	0.378917
400.000000	0.379102
401.000000	0.378916
402.000000	0.379631
403.000000	0.380916
404.000000	0.382139
405.000000	0.381413
406.000000	0.380771
407.000000	0.381247
408.000000	0.381994
409.000000	0.382856
410.000000	0.383560
411.000000	0.383736
412.000000	0.383816
413.000000	0.384326
414.000000	0.385552
415.000000	0.386303
416.000000	0.386353
417.000000	0.386086
418.000000	0.387186
419.000000	0.387476
420.000000	0.386962
421.000000	0.387463
422.000000	0.387625
423.000000	0.387745
424.000000	0.388582
425.000000	0.389036
426.000000	0.389437
427.000000	0.390042
428.000000	0.390459
429.000000	0.390741
430.000000	0.390999
431.000000	0.391411
432.000000	0.391777
433.000000	0.392184
434.000000	0.392941
435.000000	0.392684
436.000000	0.392327
437.000000	0.392778
438.000000	0.392947
439.000000	0.393185
440.000000	0.393703
441.000000	0.393736
442.000000	0.394021
443.000000	0.394491
444.000000	0.394800
445.000000	0.395298
446.000000	0.395971
447.000000	0.396373
448.000000	0.396101
449.000000	0.395938
450.000000	0.396381
451.000000	0.396807
452.000000	0.397278
453.000000	0.397652
454.000000	0.397893
455.000000	0.398063
456.000000	0.398452
457.000000	0.399093
458.000000	0.399100
459.000000	0.399197
460.000000	0.400017
461.000000	0.400214
462.000000	0.400437
463.000000	0.400798
464.000000	0.401204
465.000000	0.401530
466.000000	0.401616
467.000000	0.401497
468.000000	0.401651
469.000000	0.401876
470.000000	0.402076
471.000000	0.402130
472.000000	0.402216
473.000000	0.402494
474.000000	0.402871
475.000000	0.403011
476.000000	0.403143
477.000000	0.403587
478.000000	0.403878
479.000000	0.404188
480.000000	0.404380
481.000000	0.404529
482.000000	0.404753
483.000000	0.404842
484.000000	0.405172
485.000000	0.405445
486.000000	0.405799
487.000000	0.406303
488.000000	0.406607
489.000000	0.406786
490.000000	0.407166
491.000000	0.407565
492.000000	0.407892
493.000000	0.407927
494.000000	0.408221
495.000000	0.408590
496.000000	0.408817
497.000000	0.409144
498.000000	0.409303
499.000000	0.409465
500.000000	0.410089
501.000000	0.410441
502.000000	0.410525
503.000000	0.410545
504.000000	0.410919
505.000000	0.411359
506.000000	0.411568
507.000000	0.411871
508.000000	0.412212
509.000000	0.412521
510.000000	0.413002
511.000000	0.413338
512.000000	0.413543
513.000000	0.413798
514.000000	0.414144
515.000000	0.414528
516.000000	0.414773
517.000000	0.415070
518.000000	0.415470
519.000000	0.415834
520.000000	0.416101
521.000000	0.416381
522.000000	0.416709
523.000000	0.416982
524.000000	0.417224
525.000000	0.417409
526.000000	0.417570
527.000000	0.417936
528.000000	0.418311
529.000000	0.418554
530.000000	0.418910
531.000000	0.419250
532.000000	0.419401
533.000000	0.419707
534.000000	0.420010
535.000000	0.420273
536.000000	0.420642
537.000000	0.420867
538.000000	0.421055
539.000000	0.421414
540.000000	0.421673
541.000000	0.421917
542.000000	0.422280
543.000000	0.422514
544.000000	0.422770
545.000000	0.423033
546.000000	0.423319
547.000000	0.423692
548.000000	0.424130
549.000000	0.424405
550.000000	0.424636
551.000000	0.424907
552.000000	0.425207
553.000000	0.425517
554.000000	0.425808
555.000000	0.426098
556.000000	0.426535
557.000000	0.426879
558.000000	0.427220
559.000000	0.427501
560.000000	0.427804
561.000000	0.428193
562.000000	0.428491
563.000000	0.428758
564.000000	0.429077
565.000000	0.429355
566.000000	0.429648
567.000000	0.430005
568.000000	0.430384
569.000000	0.430668
570.000000	0.430941
571.000000	0.431195
572.000000	0.431385
573.000000	0.431621
574.000000	0.431869
575.000000	0.432137
576.000000	0.432455
577.000000	0.432765
578.000000	0.433111
579.000000	0.433497
580.000000	0.433805
581.000000	0.434011
582.000000	0.434237
583.000000	0.434470
584.000000	0.434730
585.000000	0.435048
586.000000	0.435282
587.000000	0.435497
588.000000	0.435792
589.000000	0.436089
590.000000	0.436414
591.000000	0.436740
592.000000	0.436866
593.000000	0.437082
594.000000	0.437418
595.000000	0.437660
596.000000	0.437887
597.000000	0.438167
598.000000	0.438405
599.000000	0.438520
600.000000	0.438695
601.000000	0.438950
602.000000	0.439152
603.000000	0.439327
604.000000	0.439508
605.000000	0.439681
606.000000	0.439821
607.000000	0.439934
608.000000	0.440045
609.000000	0.440148
610.000000	0.440267
611.000000	0.440426
612.000000	0.440612
613.000000	0.440782
614.000000	0.440962
615.000000	0.441132
616.000000	0.441278
617.000000	0.441368
618.000000	0.441497
619.000000	0.441699
620.000000	0.441890
621.000000	0.442034
622.000000	0.442134
623.000000	0.442208
624.000000	0.442280
625.000000	0.442404
626.000000	0.442499
627.000000	0.442580
628.000000	0.442829
629.000000	0.443105
630.000000	0.443242
631.000000	0.443479
632.000000	0.443613
633.000000	0.443700
634.000000	0.443811
635.000000	0.443931
636.000000	0.444068
637.000000	0.444188
638.000000	0.444251
639.000000	0.444373
640.000000	0.444581
641.000000	0.444577
642.000000	0.444640
643.000000	0.444776
644.000000	0.444917
645.000000	0.445050
646.000000	0.445168
647.000000	0.445232
648.000000	0.445287
649.000000	0.445399
650.000000	0.445538
651.000000	0.445635
652.000000	0.445702
653.000000	0.445812
654.000000	0.445937
655.000000	0.446070
656.000000	0.446216
657.000000	0.446318
658.000000	0.446541
659.000000	0.446718
660.000000	0.446787
661.000000	0.446971
662.000000	0.447111
663.000000	0.447276
664.000000	0.447498
665.000000	0.447661
666.000000	0.447769
667.000000	0.447825
668.000000	0.447939
669.000000	0.448044
670.000000	0.448130
671.000000	0.448317
672.000000	0.448491
673.000000	0.448629
674.000000	0.448800
675.000000	0.449009
676.000000	0.449217
677.000000	0.449401
678.000000	0.449560
679.000000	0.449658
680.000000	0.449706
681.000000	0.449765
682.000000	0.449901
683.000000	0.450007
684.000000	0.450133
685.000000	0.450277
686.000000	0.450469
687.000000	0.450654
688.000000	0.450770
689.000000	0.450862
690.000000	0.451013
691.000000	0.451186
692.000000	0.451296
693.000000	0.451434
694.000000	0.451641
695.000000	0.451852
696.000000	0.452032
697.000000	0.452165
698.000000	0.452276
699.000000	0.452412
700.000000	0.452589
701.000000	0.452653
702.000000	0.452763
703.000000	0.452917
704.000000	0.452960
705.000000	0.453090
706.000000	0.453248
707.000000	0.453406
708.000000	0.453533
709.000000	0.453617
710.000000	0.453688
711.000000	0.453776
712.000000	0.453894
713.000000	0.454050
714.000000	0.454154
715.000000	0.454249
716.000000	0.454361
717.000000	0.454472
718.000000	0.454616
719.000000	0.454777
720.000000	0.454953
721.000000	0.455115
722.000000	0.455192
723.000000	0.455255
724.000000	0.455285
725.000000	0.455401
726.000000	0.455609
727.000000	0.455627
728.000000	0.455631
729.000000	0.455701
730.000000	0.455795
731.000000	0.455928
732.000000	0.456051
733.000000	0.456190
734.000000	0.456295
735.000000	0.456366
736.000000	0.456567
737.000000	0.456736
738.000000	0.456790
739.000000	0.456869
740.000000	0.456845
741.000000	0.456879
742.000000	0.456911
743.000000	0.456915
744.000000	0.457026
745.000000	0.457011
746.000000	0.457005
747.000000	0.457092
748.000000	0.457182
749.000000	0.457312
750.000000	0.457445
751.000000	0.457511
752.000000	0.457606
753.000000	0.457736
754.000000	0.457788
755.000000	0.457831
756.000000	0.457853
757.000000	0.457787
758.000000	0.457892
759.000000	0.458060
760.000000	0.458126
761.000000	0.458271
762.000000	0.458356
763.000000	0.458374
764.000000	0.458505
765.000000	0.458533
766.000000	0.458546
767.000000	0.458639
768.000000	0.458717
769.000000	0.458760
770.000000	0.458759
771.000000	0.458680
772.000000	0.458814
773.000000	0.458946
774.000000	0.458885
775.000000	0.458937
776.000000	0.459029
777.000000	0.459056
778.000000	0.459105
779.000000	0.459175
780.000000	0.459257
781.000000	0.459295
782.000000	0.459288
783.000000	0.459387
784.000000	0.459471
785.000000	0.459449
786.000000	0.459400
787.000000	0.459365
788.000000	0.459314
789.000000	0.459316
790.000000	0.459343
791.000000	0.459386
792.000000	0.459407
793.000000	0.459415
794.000000	0.459428
795.000000	0.459420
796.000000	0.459391
797.000000	0.459361
798.000000	0.459394
799.000000	0.459471
800.000000	0.459573
801.000000	0.459668
802.000000	0.459611
803.000000	0.459581
804.000000	0.459688
805.000000	0.459679
806.000000	0.459566
807.000000	0.459464
808.000000	0.459333
809.000000	0.459312
810.000000	0.459374
811.000000	0.459431
812.000000	0.459389
813.000000	0.459416
814.000000	0.459493
815.000000	0.459472
816.000000	0.459475
817.000000	0.459462
818.000000	0.459287
819.000000	0.459289
820.000000	0.459318
821.000000	0.459242
822.000000	0.459206
823.000000	0.459259
824.000000	0.459274
825.000000	0.459258
826.000000	0.459288
827.000000	0.459294
828.000000	0.459278
829.000000	0.459171
830.000000	0.459034
831.000000	0.458945
832.000000	0.458751
833.000000	0.458624
834.000000	0.458605
835.000000	0.458701
836.000000	0.458675
837.000000	0.458631
838.000000	0.458614
839.000000	0.458562
840.000000	0.458554
841.000000	0.458602
842.000000	0.458630
843.000000	0.458606
844.000000	0.458568
845.000000	0.458493
846.000000	0.458401
847.000000	0.458263
848.000000	0.458126
849.000000	0.458075
850.000000	0.457943
851.000000	0.457829
852.000000	0.457852
853.000000	0.457979
854.000000	0.457969
855.000000	0.457949
856.000000	0.457863
857.000000	0.457651
858.000000	0.457536
859.000000	0.457467
860.000000	0.457280
861.000000	0.457170
862.000000	0.457210
863.000000	0.457275
864.000000	0.457194
865.000000	0.457071
866.000000	0.457008
867.000000	0.456941
868.000000	0.456892
869.000000	0.456720
870.000000	0.456439
871.000000	0.456283
872.000000	0.456208
873.000000	0.456096
874.000000	0.456068
875.000000	0.456002
876.000000	0.455923
877.000000	0.455789
878.000000	0.455429
879.000000	0.455121
880.000000	0.454863
881.000000	0.454799
882.000000	0.454639
883.000000	0.454460
884.000000	0.454368
885.000000	0.454263
886.000000	0.454064
887.000000	0.453806
888.000000	0.453585
889.000000	0.453482
890.000000	0.453307
891.000000	0.453108
892.000000	0.452790
893.000000	0.452621
894.000000	0.452775
895.000000	0.452640
896.000000	0.452383
897.000000	0.452199
898.000000	0.452229
899.000000	0.452112
900.000000	0.451980
901.000000	0.451856
902.000000	0.451774
903.000000	0.451520
904.000000	0.451257
905.000000	0.451054
906.000000	0.450969
907.000000	0.450825
908.000000	0.450628
909.000000	0.450338
910.000000	0.450107
911.000000	0.449964
912.000000	0.449879
913.000000	0.449602
914.000000	0.449336
915.000000	0.449217
916.000000	0.449078
917.000000	0.448889
918.000000	0.448644
919.000000	0.448353
920.000000	0.448178
921.000000	0.447971
922.000000	0.447713
923.000000	0.447419
924.000000	0.447174
925.000000	0.446888
926.000000	0.446618
927.000000	0.446548
928.000000	0.446224
929.000000	0.445727
930.000000	0.445339
931.000000	0.445233
932.000000	0.445129
933.000000	0.444939
934.000000	0.444649
935.000000	0.444282
936.000000	0.444043
937.000000	0.443874
938.000000	0.443441
939.000000	0.443142
940.000000	0.442919
941.000000	0.442671
942.000000	0.442291
943.000000	0.441964
944.000000	0.441620
945.000000	0.441312
946.000000	0.440787
947.000000	0.440255
948.000000	0.439914
949.000000	0.439652
950.000000	0.439578
951.000000	0.439589
952.000000	0.439557
953.000000	0.439456
954.000000	0.439258
955.000000	0.438930
956.000000	0.438848
957.000000	0.438681
958.000000	0.438308
959.000000	0.437931
960.000000	0.437816
961.000000	0.437554
962.000000	0.437091
963.000000	0.436928
964.000000	0.436995
965.000000	0.436950
966.000000	0.436498
967.000000	0.436470
968.000000	0.436299
969.000000	0.435805
970.000000	0.435249
971.000000	0.434969
972.000000	0.434912
973.000000	0.434875
974.000000	0.434806
975.000000	0.434676
976.000000	0.434436
977.000000	0.434129
978.000000	0.434131
979.000000	0.433988
980.000000	0.433571
981.000000	0.433584
982.000000	0.433854
983.000000	0.433642
984.000000	0.433118
985.000000	0.433165
986.000000	0.433220
987.000000	0.432995
988.000000	0.432367
989.000000	0.432067
990.000000	0.431854
991.000000	0.431707
992.000000	0.431673
993.000000	0.431457
994.000000	0.431131
995.000000	0.430950
996.000000	0.430732
997.000000	0.430953
998.000000	0.430936
999.000000	0.430607
1000.000000	0.430591
1001.000000	0.431475
1002.000000	0.430860
1003.000000	0.429799
1004.000000	0.429361
1005.000000	0.429270
1006.000000	0.429382
1007.000000	0.429918
1008.000000	0.430538
1009.000000	0.431006
1010.000000	0.430428
1011.000000	0.430443
1012.000000	0.430943
1013.000000	0.430513
1014.000000	0.430112
1015.000000	0.429787
1016.000000	0.429127
1017.000000	0.428447
1018.000000	0.428388
1019.000000	0.428440
1020.000000	0.428817
1021.000000	0.428511
1022.000000	0.428962
1023.000000	0.428996
1024.000000	0.428236
1025.000000	0.427318
1026.000000	0.427681
1027.000000	0.427646
1028.000000	0.427995
1029.000000	0.428979
1030.000000	0.429273
1031.000000	0.428839
1032.000000	0.427936
1033.000000	0.427829
1034.000000	0.427731
1035.000000	0.427416
1036.000000	0.427487
1037.000000	0.428466
1038.000000	0.428293
1039.000000	0.427383
1040.000000	0.427671
1041.000000	0.427706
1042.000000	0.427924
1043.000000	0.428934
1044.000000	0.429390
1045.000000	0.429174
1046.000000	0.428856
1047.000000	0.429090
1048.000000	0.429624
1049.000000	0.429662
1050.000000	0.429801
1051.000000	0.429787
1052.000000	0.429242
1053.000000	0.428978
1054.000000	0.429074
1055.000000	0.429399
1056.000000	0.430094
1057.000000	0.430163
1058.000000	0.430749
1059.000000	0.430860
1060.000000	0.430388
1061.000000	0.430506
1062.000000	0.430708
1063.000000	0.431133
1064.000000	0.431472
1065.000000	0.432094
1066.000000	0.432271
1067.000000	0.431726
1068.000000	0.432010
1069.000000	0.432846
1070.000000	0.433172
1071.000000	0.433965
1072.000000	0.434196
1073.000000	0.433764
1074.000000	0.433290
1075.000000	0.433506
1076.000000	0.433895
1077.000000	0.434179
1078.000000	0.434318
1079.000000	0.434471
1080.000000	0.434243
1081.000000	0.434442
1082.000000	0.435283
1083.000000	0.435578
1084.000000	0.435888
1085.000000	0.435915
1086.000000	0.435185
1087.000000	0.435145
1088.000000	0.435302
1089.000000	0.435322
1090.000000	0.435350
1091.000000	0.435780
1092.000000	0.436340
1093.000000	0.436292
1094.000000	0.436447
1095.000000	0.436735
1096.000000	0.436983
1097.000000	0.436994
1098.000000	0.437195
1099.000000	0.437561
1100.000000	0.437831
1101.000000	0.437879
1102.000000	0.438128
1103.000000	0.438509
1104.000000	0.438811
1105.000000	0.439299
1106.000000	0.439476
1107.000000	0.439134
1108.000000	0.439155
1109.000000	0.439377
1110.000000	0.439453
1111.000000	0.439619
1112.000000	0.440125
1113.000000	0.440323
1114.000000	0.440280
1115.000000	0.440341
1116.000000	0.440410
1117.000000	0.440492
1118.000000	0.440589
1119.000000	0.440556
1120.000000	0.440312
1121.000000	0.440401
1122.000000	0.440860
1123.000000	0.441233
1124.000000	0.441507
1125.000000	0.441725
1126.000000	0.441562
1127.000000	0.441427
1128.000000	0.441288
1129.000000	0.441180
1130.000000	0.441286
1131.000000	0.441484
1132.000000	0.441561
1133.000000	0.441965
1134.000000	0.442023
1135.000000	0.441710
1136.000000	0.441544
1137.000000	0.441354
1138.000000	0.441100
1139.000000	0.440798
1140.000000	0.440811
1141.000000	0.440972
1142.000000	0.440983
1143.000000	0.440941
1144.000000	0.441134
1145.000000	0.441159
1146.000000	0.440955
1147.000000	0.440923
1148.000000	0.440914
1149.000000	0.440922
1150.000000	0.440880
1151.000000	0.440989
1152.000000	0.441212
1153.000000	0.441288
1154.000000	0.441276
1155.000000	0.441271
1156.000000	0.441136
1157.000000	0.441186
1158.000000	0.441409
1159.000000	0.441404
1160.000000	0.441168
1161.000000	0.441180
1162.000000	0.441337
1163.000000	0.441538
1164.000000	0.441712
1165.000000	0.442056
1166.000000	0.442110
1167.000000	0.441806
1168.000000	0.441690
1169.000000	0.441529
1170.000000	0.441597
1171.000000	0.441951
1172.000000	0.442079
1173.000000	0.442168
1174.000000	0.442246
1175.000000	0.442098
1176.000000	0.442050
1177.000000	0.442295
1178.000000	0.442364
1179.000000	0.442298
1180.000000	0.442223
1181.000000	0.442196
1182.000000	0.442156
1183.000000	0.442292
1184.000000	0.442396
1185.000000	0.442389
1186.000000	0.442337
1187.000000	0.442285
1188.000000	0.442131
1189.000000	0.442019
1190.000000	0.442031
1191.000000	0.441961
1192.000000	0.441967
1193.000000	0.442068
1194.000000	0.442003
1195.000000	0.441993
1196.000000	0.441918
1197.000000	0.441934
1198.000000	0.442093
1199.000000	0.442163
1200.000000	0.442219
1201.000000	0.442278
1202.000000	0.442330
1203.000000	0.442300
1204.000000	0.442237
1205.000000	0.442301
1206.000000	0.442271
1207.000000	0.442339
1208.000000	0.442210
1209.000000	0.442026
1210.000000	0.441966
1211.000000	0.441849
1212.000000	0.441759
1213.000000	0.441929
1214.000000	0.441954
1215.000000	0.441745
1216.000000	0.441686
1217.000000	0.441665
1218.000000	0.441595
1219.000000	0.441535
1220.000000	0.441626
1221.000000	0.441641
1222.000000	0.441625
1223.000000	0.441599
1224.000000	0.441592
1225.000000	0.441623
1226.000000	0.441752
1227.000000	0.441967
1228.000000	0.442219
1229.000000	0.442215
1230.000000	0.442018
1231.000000	0.441825
1232.000000	0.441589
1233.000000	0.441560
1234.000000	0.441604
1235.000000	0.441651
1236.000000	0.441664
1237.000000	0.441728
1238.000000	0.441770
1239.000000	0.441748
1240.000000	0.441709
1241.000000	0.441621
1242.000000	0.441584
1243.000000	0.441665
1244.000000	0.441797
1245.000000	0.442006
1246.000000	0.442045
1247.000000	0.442047
1248.000000	0.442094
1249.000000	0.442103
1250.000000	0.442066
1251.000000	0.442200
1252.000000	0.442224
1253.000000	0.442226
1254.000000	0.442175
1255.000000	0.442099
1256.000000	0.441999
1257.000000	0.441815
1258.000000	0.441839
1259.000000	0.441922
1260.000000	0.441958
1261.000000	0.441954
1262.000000	0.441944
1263.000000	0.441954
1264.000000	0.441861
1265.000000	0.441728
1266.000000	0.441622
1267.000000	0.441570
1268.000000	0.441520
1269.000000	0.441425
1270.000000	0.441486
1271.000000	0.441295
1272.000000	0.441083
1273.000000	0.441083
1274.000000	0.440951
1275.000000	0.440834
1276.000000	0.440749
1277.000000	0.440819
1278.000000	0.440790
1279.000000	0.440811
1280.000000	0.440943
1281.000000	0.440908
1282.000000	0.440787
1283.000000	0.440881
1284.000000	0.440952
1285.000000	0.441002
1286.000000	0.441111
1287.000000	0.441138
1288.000000	0.441099
1289.000000	0.441066
1290.000000	0.440937
1291.000000	0.440790
1292.000000	0.440726
1293.000000	0.440619
1294.000000	0.440558
1295.000000	0.440559
1296.000000	0.440457
1297.000000	0.440469
1298.000000	0.440463
1299.000000	0.440381
1300.000000	0.440427
1301.000000	0.440319
1302.000000	0.440184
1303.000000	0.440163
1304.000000	0.440090
1305.000000	0.440170
1306.000000	0.440047
1307.000000	0.439904
1308.000000	0.439822
1309.000000	0.439592
1310.000000	0.439455
1311.000000	0.439494
1312.000000	0.439286
1313.000000	0.439211
1314.000000	0.439250
1315.000000	0.439122
1316.000000	0.439047
1317.000000	0.438900
1318.000000	0.438667
1319.000000	0.438405
1320.000000	0.438182
1321.000000	0.438031
1322.000000	0.437837
1323.000000	0.437629
1324.000000	0.437523
1325.000000	0.437283
1326.000000	0.436954
1327.000000	0.436589
1328.000000	0.436411
1329.000000	0.436197
1330.000000	0.435982
1331.000000	0.435834
1332.000000	0.435918
1333.000000	0.435753
1334.000000	0.435569
1335.000000	0.435454
1336.000000	0.435237
1337.000000	0.435050
1338.000000	0.434864
1339.000000	0.434614
1340.000000	0.434452
1341.000000	0.434363
1342.000000	0.434073
1343.000000	0.433865
1344.000000	0.433715
1345.000000	0.433493
1346.000000	0.433496
1347.000000	0.433415
1348.000000	0.433273
1349.000000	0.432885
1350.000000	0.432660
1351.000000	0.432593
1352.000000	0.432294
1353.000000	0.432075
1354.000000	0.432019
1355.000000	0.431816
1356.000000	0.431651
1357.000000	0.431413
1358.000000	0.431001
1359.000000	0.430631
1360.000000	0.430318
1361.000000	0.430133
1362.000000	0.429835
1363.000000	0.429533
1364.000000	0.429198
1365.000000	0.428719
1366.000000	0.428379
1367.000000	0.428168
1368.000000	0.427689
1369.000000	0.427273
1370.000000	0.426661
1371.000000	0.425709
1372.000000	0.424752
1373.000000	0.423850
1374.000000	0.422843
1375.000000	0.421768
1376.000000	0.420612
1377.000000	0.418911
1378.000000	0.416685
1379.000000	0.414047
1380.000000	0.410951
1381.000000	0.407403
1382.000000	0.403560
1383.000000	0.399437
1384.000000	0.395020
1385.000000	0.390829
1386.000000	0.387047
1387.000000	0.383792
1388.000000	0.381160
1389.000000	0.378916
1390.000000	0.377267
1391.000000	0.376386
1392.000000	0.376170
1393.000000	0.376279
1394.000000	0.377429
1395.000000	0.378111
1396.000000	0.378901
1397.000000	0.379393
1398.000000	0.379917
1399.000000	0.379975
1400.000000	0.379745
1401.000000	0.379322
1402.000000	0.378660
1403.000000	0.377667
1404.000000	0.376741
1405.000000	0.375644
1406.000000	0.374543
1407.000000	0.373500
1408.000000	0.372449
1409.000000	0.371750
1410.000000	0.371259
1411.000000	0.370667
1412.000000	0.370063
1413.000000	0.369631
1414.000000	0.369266
1415.000000	0.369063
1416.000000	0.369141
1417.000000	0.369387
1418.000000	0.369524
1419.000000	0.369733
1420.000000	0.369986
1421.000000	0.370219
1422.000000	0.370383
1423.000000	0.370598
1424.000000	0.370810
1425.000000	0.371046
1426.000000	0.371308
1427.000000	0.371773
1428.000000	0.372191
1429.000000	0.372550
1430.000000	0.372930
1431.000000	0.373194
1432.000000	0.373543
1433.000000	0.374021
1434.000000	0.374339
1435.000000	0.374782
1436.000000	0.375086
1437.000000	0.375189
1438.000000	0.375339
1439.000000	0.375544
1440.000000	0.375680
1441.000000	0.375771
1442.000000	0.375935
1443.000000	0.376030
1444.000000	0.376142
1445.000000	0.376243
1446.000000	0.376221
1447.000000	0.376165
1448.000000	0.376176
1449.000000	0.376183
1450.000000	0.376254
1451.000000	0.376401
1452.000000	0.376335
1453.000000	0.376218
1454.000000	0.376121
1455.000000	0.375982
1456.000000	0.375970
1457.000000	0.376074
1458.000000	0.376199
1459.000000	0.376200
1460.000000	0.376200
1461.000000	0.376258
1462.000000	0.376378
1463.000000	0.376464
1464.000000	0.376492
1465.000000	0.376692
1466.000000	0.376789
1467.000000	0.377024
1468.000000	0.377528
1469.000000	0.378002
1470.000000	0.378434
1471.000000	0.378907
1472.000000	0.379419
1473.000000	0.380000
1474.000000	0.380551
1475.000000	0.381105
1476.000000	0.381625
1477.000000	0.382159
1478.000000	0.382687
1479.000000	0.383140
1480.000000	0.383556
1481.000000	0.384005
1482.000000	0.384473
1483.000000	0.384931
1484.000000	0.385458
1485.000000	0.385959
1486.000000	0.386381
1487.000000	0.386845
1488.000000	0.387339
1489.000000	0.387848
1490.000000	0.388175
1491.000000	0.388653
1492.000000	0.389260
1493.000000	0.389802
1494.000000	0.390270
1495.000000	0.390732
1496.000000	0.391120
1497.000000	0.391506
1498.000000	0.391877
1499.000000	0.392374
1500.000000	0.392890
1501.000000	0.393416
1502.000000	0.393883
1503.000000	0.394291
1504.000000	0.394791
1505.000000	0.395194
1506.000000	0.395558
1507.000000	0.396053
1508.000000	0.396361
1509.000000	0.396618
1510.000000	0.396977
1511.000000	0.397330
1512.000000	0.397705
1513.000000	0.397985
1514.000000	0.398260
1515.000000	0.398559
1516.000000	0.398847
1517.000000	0.399041
1518.000000	0.399206
1519.000000	0.399265
1520.000000	0.399330
1521.000000	0.399482
1522.000000	0.399803
1523.000000	0.400242
1524.000000	0.400464
1525.000000	0.400667
1526.000000	0.400846
1527.000000	0.400950
1528.000000	0.401212
1529.000000	0.401516
1530.000000	0.401757
1531.000000	0.402030
1532.000000	0.402292
1533.000000	0.402552
1534.000000	0.402866
1535.000000	0.403154
1536.000000	0.403311
1537.000000	0.403582
1538.000000	0.403728
1539.000000	0.403756
1540.000000	0.403955
1541.000000	0.404181
1542.000000	0.404427
1543.000000	0.404750
1544.000000	0.405039
1545.000000	0.405213
1546.000000	0.405369
1547.000000	0.405535
1548.000000	0.405604
1549.000000	0.405685
1550.000000	0.405779
1551.000000	0.405898
1552.000000	0.406112
1553.000000	0.406305
1554.000000	0.406466
1555.000000	0.406663
1556.000000	0.406843
1557.000000	0.406906
1558.000000	0.407009
1559.000000	0.407028
1560.000000	0.407075
1561.000000	0.407187
1562.000000	0.407220
1563.000000	0.407279
1564.000000	0.407350
1565.000000	0.407346
1566.000000	0.407319
1567.000000	0.407513
1568.000000	0.407493
1569.000000	0.407407
1570.000000	0.407447
1571.000000	0.407383
1572.000000	0.407416
1573.000000	0.407648
1574.000000	0.407670
1575.000000	0.407588
1576.000000	0.407682
1577.000000	0.407799
1578.000000	0.407866
1579.000000	0.408126
1580.000000	0.408225
1581.000000	0.408217
1582.000000	0.408271
1583.000000	0.408322
1584.000000	0.408347
1585.000000	0.408463
1586.000000	0.408548
1587.000000	0.408668
1588.000000	0.408696
1589.000000	0.408662
1590.000000	0.408706
1591.000000	0.408733
1592.000000	0.408792
1593.000000	0.408998
1594.000000	0.409068
1595.000000	0.409148
1596.000000	0.409202
1597.000000	0.409189
1598.000000	0.409216
1599.000000	0.409327
1600.000000	0.409313
1601.000000	0.409342
1602.000000	0.409404
1603.000000	0.409501
1604.000000	0.409455
1605.000000	0.409383
1606.000000	0.409359
1607.000000	0.409253
1608.000000	0.409302
1609.000000	0.409622
1610.000000	0.409743
1611.000000	0.409846
1612.000000	0.409923
1613.000000	0.410102
1614.000000	0.410167
1615.000000	0.410265
1616.000000	0.410336
1617.000000	0.410210
1618.000000	0.410181
1619.000000	0.410135
1620.000000	0.410172
1621.000000	0.410298
1622.000000	0.410518
1623.000000	0.410846
1624.000000	0.410986
1625.000000	0.410903
1626.000000	0.410887
1627.000000	0.410812
1628.000000	0.410826
1629.000000	0.410905
1630.000000	0.411015
1631.000000	0.411035
1632.000000	0.411058
1633.000000	0.411187
1634.000000	0.411230
1635.000000	0.411214
1636.000000	0.411287
1637.000000	0.411410
1638.000000	0.411457
1639.000000	0.411634
1640.000000	0.411681
1641.000000	0.411758
1642.000000	0.411740
1643.000000	0.411639
1644.000000	0.411554
1645.000000	0.411336
1646.000000	0.411281
1647.000000	0.411420
1648.000000	0.411376
1649.000000	0.411433
1650.000000	0.411479
1651.000000	0.411507
1652.000000	0.411548
1653.000000	0.411527
1654.000000	0.411656
1655.000000	0.411721
1656.000000	0.411690
1657.000000	0.411867
1658.000000	0.411927
1659.000000	0.411971
1660.000000	0.412086
1661.000000	0.412155
1662.000000	0.412222
1663.000000	0.412215
1664.000000	0.412263
1665.000000	0.412333
1666.000000	0.412554
1667.000000	0.412765
1668.000000	0.412852
1669.000000	0.412951
1670.000000	0.412954
1671.000000	0.412936
1672.000000	0.413025
1673.000000	0.413128
1674.000000	0.413313
1675.000000	0.413436
1676.000000	0.413368
1677.000000	0.413345
1678.000000	0.413238
1679.000000	0.413063
1680.000000	0.413018
1681.000000	0.413016
1682.000000	0.413011
1683.000000	0.413158
1684.000000	0.413280
1685.000000	0.413332
1686.000000	0.413361
1687.000000	0.413427
1688.000000	0.413491
1689.000000	0.413613
1690.000000	0.413632
1691.000000	0.413581
1692.000000	0.413564
1693.000000	0.413591
1694.000000	0.413614
1695.000000	0.413702
1696.000000	0.413602
1697.000000	0.413518
1698.000000	0.413482
1699.000000	0.413484
1700.000000	0.413575
1701.000000	0.413681
1702.000000	0.413587
1703.000000	0.413446
1704.000000	0.413264
1705.000000	0.413217
1706.000000	0.413323
1707.000000	0.413344
1708.000000	0.413409
1709.000000	0.413351
1710.000000	0.413218
1711.000000	0.413226
1712.000000	0.413358
1713.000000	0.413384
1714.000000	0.413578
1715.000000	0.413543
1716.000000	0.413248
1717.000000	0.413171
1718.000000	0.413009
1719.000000	0.412940
1720.000000	0.413176
1721.000000	0.413198
1722.000000	0.413145
1723.000000	0.413085
1724.000000	0.412992
1725.000000	0.412939
1726.000000	0.412718
1727.000000	0.412670
1728.000000	0.412659
1729.000000	0.412517
1730.000000	0.412613
1731.000000	0.412538
1732.000000	0.412282
1733.000000	0.412274
1734.000000	0.412150
1735.000000	0.412136
1736.000000	0.412237
1737.000000	0.412225
1738.000000	0.412217
1739.000000	0.412208
1740.000000	0.412100
1741.000000	0.412145
1742.000000	0.412306
1743.000000	0.412410
1744.000000	0.412547
1745.000000	0.412598
1746.000000	0.412575
1747.000000	0.412585
1748.000000	0.412452
1749.000000	0.412074
1750.000000	0.411854
1751.000000	0.411922
1752.000000	0.411949
1753.000000	0.411837
1754.000000	0.411800
1755.000000	0.411607
1756.000000	0.411497
1757.000000	0.411577
1758.000000	0.411584
1759.000000	0.411553
1760.000000	0.411473
1761.000000	0.411159
1762.000000	0.411124
1763.000000	0.411368
1764.000000	0.411340
1765.000000	0.411289
1766.000000	0.411254
1767.000000	0.410829
1768.000000	0.410644
1769.000000	0.410901
1770.000000	0.410896
1771.000000	0.410695
1772.000000	0.410587
1773.000000	0.410344
1774.000000	0.410231
1775.000000	0.410375
1776.000000	0.410252
1777.000000	0.409988
1778.000000	0.409734
1779.000000	0.409246
1780.000000	0.409120
1781.000000	0.409129
1782.000000	0.409063
1783.000000	0.409235
1784.000000	0.409062
1785.000000	0.408909
1786.000000	0.409005
1787.000000	0.409037
1788.000000	0.409092
1789.000000	0.409124
1790.000000	0.409236
1791.000000	0.409319
1792.000000	0.409754
1793.000000	0.409964
1794.000000	0.410133
1795.000000	0.410105
1796.000000	0.409681
1797.000000	0.409537
1798.000000	0.409355
1799.000000	0.409252
1800.000000	0.409392
1801.000000	0.409260
1802.000000	0.409266
1803.000000	0.409473
1804.000000	0.409275
1805.000000	0.408575
1806.000000	0.408501
1807.000000	0.408351
1808.000000	0.408385
1809.000000	0.408781
1810.000000	0.409518
1811.000000	0.409749
1812.000000	0.410112
1813.000000	0.409778
1814.000000	0.408422
1815.000000	0.408200
1816.000000	0.408074
1817.000000	0.407906
1818.000000	0.408278
1819.000000	0.409431
1820.000000	0.409064
1821.000000	0.408328
1822.000000	0.408122
1823.000000	0.407615
1824.000000	0.407449
1825.000000	0.407980
1826.000000	0.407894
1827.000000	0.407155
1828.000000	0.406693
1829.000000	0.407435
1830.000000	0.408019
1831.000000	0.407916
1832.000000	0.408330
1833.000000	0.407982
1834.000000	0.405943
1835.000000	0.405258
1836.000000	0.405076
1837.000000	0.404981
1838.000000	0.405349
1839.000000	0.405373
1840.000000	0.404948
1841.000000	0.404148
1842.000000	0.403658
1843.000000	0.402646
1844.000000	0.402055
1845.000000	0.401613
1846.000000	0.401684
1847.000000	0.401902
1848.000000	0.402084
1849.000000	0.402445
1850.000000	0.402354
1851.000000	0.402026
1852.000000	0.400928
1853.000000	0.400214
1854.000000	0.399290
1855.000000	0.398364
1856.000000	0.397048
1857.000000	0.396111
1858.000000	0.395575
1859.000000	0.394831
1860.000000	0.393939
1861.000000	0.393347
1862.000000	0.392331
1863.000000	0.391350
1864.000000	0.389933
1865.000000	0.388011
1866.000000	0.386137
1867.000000	0.383809
1868.000000	0.381576
1869.000000	0.379892
1870.000000	0.378445
1871.000000	0.376464
1872.000000	0.374389
1873.000000	0.371682
1874.000000	0.367872
1875.000000	0.364539
1876.000000	0.361057
1877.000000	0.356714
1878.000000	0.352638
1879.000000	0.349640
1880.000000	0.346133
1881.000000	0.342530
1882.000000	0.338754
1883.000000	0.334450
1884.000000	0.329667
1885.000000	0.324143
1886.000000	0.318221
1887.000000	0.311921
1888.000000	0.304584
1889.000000	0.297115
1890.000000	0.290490
1891.000000	0.284053
1892.000000	0.278458
1893.000000	0.272897
1894.000000	0.267432
1895.000000	0.262228
1896.000000	0.257610
1897.000000	0.252301
1898.000000	0.247215
1899.000000	0.243290
1900.000000	0.239702
1901.000000	0.236946
1902.000000	0.234700
1903.000000	0.232760
1904.000000	0.231460
1905.000000	0.230019
1906.000000	0.228851
1907.000000	0.228226
1908.000000	0.227724
1909.000000	0.227181
1910.000000	0.227498
1911.000000	0.228030
1912.000000	0.229077
1913.000000	0.230196
1914.000000	0.230443
1915.000000	0.230938
1916.000000	0.231864
1917.000000	0.232592
1918.000000	0.233244
1919.000000	0.234418
1920.000000	0.235543
1921.000000	0.236776
1922.000000	0.238101
1923.000000	0.239247
1924.000000	0.240742
1925.000000	0.241591
1926.000000	0.242408
1927.000000	0.244006
1928.000000	0.245195
1929.000000	0.246381
1930.000000	0.247424
1931.000000	0.248387
1932.000000	0.248759
1933.000000	0.248939
1934.000000	0.249754
1935.000000	0.250698
1936.000000	0.251504
1937.000000	0.252278
1938.000000	0.252759
1939.000000	0.253201
1940.000000	0.253288
1941.000000	0.253583
1942.000000	0.254313
1943.000000	0.254862
1944.000000	0.255425
1945.000000	0.256493
1946.000000	0.257142
1947.000000	0.257425
1948.000000	0.258151
1949.000000	0.257972
1950.000000	0.257582
1951.000000	0.257544
1952.000000	0.257887
1953.000000	0.257505
1954.000000	0.257876
1955.000000	0.258459
1956.000000	0.258447
1957.000000	0.258622
1958.000000	0.258440
1959.000000	0.258601
1960.000000	0.258947
1961.000000	0.259336
1962.000000	0.260105
1963.000000	0.261317
1964.000000	0.262538
1965.000000	0.264117
1966.000000	0.265293
1967.000000	0.265626
1968.000000	0.265947
1969.000000	0.265775
1970.000000	0.265559
1971.000000	0.266513
1972.000000	0.267383
1973.000000	0.267874
1974.000000	0.268556
1975.000000	0.269216
1976.000000	0.269435
1977.000000	0.270164
1978.000000	0.271054
1979.000000	0.271499
1980.000000	0.272456
1981.000000	0.272938
1982.000000	0.273295
1983.000000	0.273846
1984.000000	0.274301
1985.000000	0.274660
1986.000000	0.274856
1987.000000	0.274726
1988.000000	0.275580
1989.000000	0.276328
1990.000000	0.277696
1991.000000	0.279373
1992.000000	0.280368
1993.000000	0.281500
1994.000000	0.282243
1995.000000	0.283167
1996.000000	0.284347
1997.000000	0.285390
1998.000000	0.286439
1999.000000	0.287649
2000.000000	0.288963
2001.000000	0.290218
2002.000000	0.291090
2003.000000	0.291509
2004.000000	0.292103
2005.000000	0.292641
2006.000000	0.293999
2007.000000	0.295459
2008.000000	0.296635
2009.000000	0.297785
2010.000000	0.298844
2011.000000	0.299537
2012.000000	0.300482
2013.000000	0.301375
2014.000000	0.302113
2015.000000	0.303598
2016.000000	0.304221
2017.000000	0.305002
2018.000000	0.306027
2019.000000	0.306740
2020.000000	0.307711
2021.000000	0.308469
2022.000000	0.309062
2023.000000	0.310081
2024.000000	0.311156
2025.000000	0.312275
2026.000000	0.313902
2027.000000	0.314872
2028.000000	0.315244
2029.000000	0.315231
2030.000000	0.315188
2031.000000	0.315471
2032.000000	0.315952
2033.000000	0.316996
2034.000000	0.317754
2035.000000	0.318753
2036.000000	0.319383
2037.000000	0.320011
2038.000000	0.320630
2039.000000	0.321429
2040.000000	0.321551
2041.000000	0.322149
2042.000000	0.322878
2043.000000	0.323266
2044.000000	0.324799
2045.000000	0.325976
2046.000000	0.326513
2047.000000	0.327283
2048.000000	0.327823
2049.000000	0.328537
2050.000000	0.329044
2051.000000	0.329586
2052.000000	0.329955
2053.000000	0.330524
2054.000000	0.331616
2055.000000	0.332254
2056.000000	0.332756
2057.000000	0.333823
2058.000000	0.334077
2059.000000	0.333758
2060.000000	0.334239
2061.000000	0.334960
2062.000000	0.335420
2063.000000	0.336803
2064.000000	0.337048
2065.000000	0.336560
2066.000000	0.336402
2067.000000	0.336140
2068.000000	0.336036
2069.000000	0.336753
2070.000000	0.337064
2071.000000	0.337526
2072.000000	0.338237
2073.000000	0.337905
2074.000000	0.338066
2075.000000	0.338395
2076.000000	0.338461
2077.000000	0.338981
2078.000000	0.340564
2079.000000	0.340982
2080.000000	0.340711
2081.000000	0.341056
2082.000000	0.341238
2083.000000	0.341366
2084.000000	0.342041
2085.000000	0.343309
2086.000000	0.343922
2087.000000	0.344464
2088.000000	0.346011
2089.000000	0.347244
2090.000000	0.347895
2091.000000	0.348373
2092.000000	0.348896
2093.000000	0.348650
2094.000000	0.348813
2095.000000	0.349937
2096.000000	0.350205
2097.000000	0.349560
2098.000000	0.349360
2099.000000	0.349511
2100.000000	0.349322
2101.000000	0.350159
2102.000000	0.350848
2103.000000	0.351526
2104.000000	0.351657
2105.000000	0.352051
2106.000000	0.352683
2107.000000	0.353086
2108.000000	0.353250
2109.000000	0.353764
2110.000000	0.353865
2111.000000	0.354149
2112.000000	0.354912
2113.000000	0.354918
2114.000000	0.354985
2115.000000	0.355203
2116.000000	0.354794
2117.000000	0.354655
2118.000000	0.354400
2119.000000	0.354607
2120.000000	0.355179
2121.000000	0.356409
2122.000000	0.357233
2123.000000	0.358549
2124.000000	0.359063
2125.000000	0.358888
2126.000000	0.358903
2127.000000	0.358651
2128.000000	0.358547
2129.000000	0.358347
2130.000000	0.358644
2131.000000	0.357648
2132.000000	0.356438
2133.000000	0.356282
2134.000000	0.355860
2135.000000	0.356541
2136.000000	0.358063
2137.000000	0.359036
2138.000000	0.360053
2139.000000	0.360789
2140.000000	0.361595
2141.000000	0.362102
2142.000000	0.361961
2143.000000	0.361924
2144.000000	0.362293
2145.000000	0.362044
2146.000000	0.361165
2147.000000	0.361301
2148.000000	0.361391
2149.000000	0.361422
2150.000000	0.362566
2151.000000	0.363844
2152.000000	0.363785
2153.000000	0.363925
2154.000000	0.363951
2155.000000	0.363454
2156.000000	0.363088
2157.000000	0.363182
2158.000000	0.362832
2159.000000	0.361662
2160.000000	0.361536
2161.000000	0.361531
2162.000000	0.362017
2163.000000	0.364051
2164.000000	0.364592
2165.000000	0.364855
2166.000000	0.364524
2167.000000	0.363331
2168.000000	0.361953
2169.000000	0.360527
2170.000000	0.359792
2171.000000	0.359446
2172.000000	0.359356
2173.000000	0.359436
2174.000000	0.360169
2175.000000	0.360537
2176.000000	0.361069
2177.000000	0.361461
2178.000000	0.362301
2179.000000	0.362520
2180.000000	0.361474
2181.000000	0.361667
2182.000000	0.361621
2183.000000	0.361314
2184.000000	0.362103
2185.000000	0.362980
2186.000000	0.362600
2187.000000	0.362233
2188.000000	0.361660
2189.000000	0.360883
2190.000000	0.360817
2191.000000	0.362333
2192.000000	0.362305
2193.000000	0.361895
2194.000000	0.361450
2195.000000	0.360043
2196.000000	0.358809
2197.000000	0.357922
2198.000000	0.356897
2199.000000	0.355016
2200.000000	0.354481
2201.000000	0.354947
2202.000000	0.355438
2203.000000	0.357261
2204.000000	0.356793
2205.000000	0.358771
2206.000000	0.359874
2207.000000	0.357196
2208.000000	0.356942
2209.000000	0.354580
2210.000000	0.353098
2211.000000	0.354336
2212.000000	0.354827
2213.000000	0.355579
2214.000000	0.355761
2215.000000	0.356645
2216.000000	0.358486
2217.000000	0.359465
2218.000000	0.361046
2219.000000	0.360714
2220.000000	0.358645
2221.000000	0.358330
2222.000000	0.357670
2223.000000	0.357448
2224.000000	0.358714
2225.000000	0.358454
2226.000000	0.358991
2227.000000	0.356381
2228.000000	0.355466
2229.000000	0.353902
2230.000000	0.349744
2231.000000	0.347942
2232.000000	0.345134
2233.000000	0.344327
2234.000000	0.344391
2235.000000	0.344139
2236.000000	0.344596
2237.000000	0.345069
2238.000000	0.345315
2239.000000	0.347083
2240.000000	0.347422
2241.000000	0.345976
2242.000000	0.346591
2243.000000	0.347492
2244.000000	0.348099
2245.000000	0.350682
2246.000000	0.351713
2247.000000	0.351113
2248.000000	0.350938
2249.000000	0.350807
2250.000000	0.350123
2251.000000	0.348852
2252.000000	0.346683
2253.000000	0.344617
2254.000000	0.342390
2255.000000	0.341564
2256.000000	0.343999
2257.000000	0.346532
2258.000000	0.347573
2259.000000	0.347219
2260.000000	0.346228
2261.000000	0.345494
2262.000000	0.344361
2263.000000	0.343603
2264.000000	0.342093
2265.000000	0.342440
2266.000000	0.344762
2267.000000	0.344535
2268.000000	0.344521
2269.000000	0.344263
2270.000000	0.341727
2271.000000	0.340141
2272.000000	0.340636
2273.000000	0.339388
2274.000000	0.335341
2275.000000	0.333468
2276.000000	0.332732
2277.000000	0.330552
2278.000000	0.329392
2279.000000	0.329815
2280.000000	0.328066
2281.000000	0.325251
2282.000000	0.321467
2283.000000	0.319467
2284.000000	0.318788
2285.000000	0.316593
2286.000000	0.316092
2287.000000	0.314122
2288.000000	0.310095
2289.000000	0.307776
2290.000000	0.305317
2291.000000	0.303347
2292.000000	0.302658
2293.000000	0.300870
2294.000000	0.299566
2295.000000	0.298417
2296.000000	0.297306
2297.000000	0.296166
2298.000000	0.295974
2299.000000	0.296365
2300.000000	0.295875
2301.000000	0.296090
2302.000000	0.294420
2303.000000	0.291501
2304.000000	0.289020
2305.000000	0.285410
2306.000000	0.282916
2307.000000	0.281195
2308.000000	0.278012
2309.000000	0.276804
2310.000000	0.274362
2311.000000	0.271485
2312.000000	0.269135
2313.000000	0.266058
2314.000000	0.265396
2315.000000	0.267296
2316.000000	0.270199
2317.000000	0.273706
2318.000000	0.277401
2319.000000	0.280493
2320.000000	0.282634
2321.000000	0.284538
2322.000000	0.286347
2323.000000	0.287821
2324.000000	0.291327
2325.000000	0.295218
2326.000000	0.298068
2327.000000	0.301478
2328.000000	0.301954
2329.000000	0.303543
2330.000000	0.303163
2331.000000	0.300234
2332.000000	0.301869
2333.000000	0.301847
2334.000000	0.304254
2335.000000	0.306965
2336.000000	0.311310
2337.000000	0.311419
2338.000000	0.310672
2339.000000	0.308573
2340.000000	0.302104
2341.000000	0.300374
2342.000000	0.300442
2343.000000	0.299299
2344.000000	0.300469
2345.000000	0.300194
2346.000000	0.297822
2347.000000	0.296161
2348.000000	0.294632
2349.000000	0.293579
2350.000000	0.292303
2351.000000	0.291449
2352.000000	0.292512
2353.000000	0.291316
2354.000000	0.289466
2355.000000	0.291554
2356.000000	0.292597
2357.000000	0.295487
2358.000000	0.297917
2359.000000	0.296920
2360.000000	0.296334
2361.000000	0.294095
2362.000000	0.294862
2363.000000	0.295946
2364.000000	0.293624
2365.000000	0.292646
2366.000000	0.289331
2367.000000	0.288214
2368.000000	0.286965
2369.000000	0.283188
2370.000000	0.281135
2371.000000	0.274969
2372.000000	0.271975
2373.000000	0.273214
2374.000000	0.270401
2375.000000	0.271933
2376.000000	0.274652
2377.000000	0.274419
2378.000000	0.278967
2379.000000	0.278173
2380.000000	0.269317
2381.000000	0.261594
2382.000000	0.253448
2383.000000	0.249227
2384.000000	0.253341
2385.000000	0.258290
2386.000000	0.261349
2387.000000	0.264254
2388.000000	0.261339
2389.000000	0.254429
2390.000000	0.250951
2391.000000	0.246879
2392.000000	0.246290
2393.000000	0.254255
2394.000000	0.255743
2395.000000	0.256396
2396.000000	0.259512
2397.000000	0.257999
2398.000000	0.261914
2399.000000	0.264648
2400.000000	0.259373
2401.000000	0.254335
2402.000000	0.254048
2403.000000	0.253405
2404.000000	0.258052
2405.000000	0.262397
2406.000000	0.263022
2407.000000	0.269915
2408.000000	0.266969
2409.000000	0.263434
2410.000000	0.263979
2411.000000	0.258608
2412.000000	0.255530
2413.000000	0.253941
2414.000000	0.251649
2415.000000	0.246995
2416.000000	0.245609
2417.000000	0.242646
2418.000000	0.236428
2419.000000	0.233844
2420.000000	0.231424
2421.000000	0.233556
2422.000000	0.239358
2423.000000	0.245694
2424.000000	0.254004
2425.000000	0.257690
2426.000000	0.257330
2427.000000	0.256417
2428.000000	0.253668
2429.000000	0.254723
2430.000000	0.252525
2431.000000	0.245959
2432.000000	0.244978
2433.000000	0.248325
2434.000000	0.258393
2435.000000	0.267250
2436.000000	0.265456
2437.000000	0.255187
2438.000000	0.241137
2439.000000	0.234594
2440.000000	0.243194
2441.000000	0.260777
2442.000000	0.281895
2443.000000	0.302750
2444.000000	0.307097
2445.000000	0.303967
2446.000000	0.295107
2447.000000	0.280197
2448.000000	0.270198
2449.000000	0.260615
2450.000000	0.251091
2451.000000	0.235712
2452.000000	0.229764
2453.000000	0.233086
2454.000000	0.235894
2455.000000	0.251468
2456.000000	0.262742
2457.000000	0.268422
2458.000000	0.277058
2459.000000	0.275600
2460.000000	0.272282
2461.000000	0.261139
2462.000000	0.237910
2463.000000	0.215190
2464.000000	0.204061
2465.000000	0.194867
2466.000000	0.176036
2467.000000	0.176498
2468.000000	0.181887
2469.000000	0.183319
2470.000000	0.200527
2471.000000	0.200256
2472.000000	0.190483
2473.000000	0.194382
2474.000000	0.186979
2475.000000	0.210926
2476.000000	0.253233
2477.000000	0.248504
2478.000000	0.272368
2479.000000	0.279739
2480.000000	0.259559
2481.000000	0.275829
2482.000000	0.268305
2483.000000	0.270596
2484.000000	0.259545
2485.000000	0.239458
2486.000000	0.243391
2487.000000	0.210495
2488.000000	0.185222
2489.000000	0.177671
2490.000000	0.168093
2491.000000	0.187190
2492.000000	0.196170
2493.000000	0.199256
2494.000000	0.217007
2495.000000	0.267967
2496.000000	0.271984
2497.000000	0.240593
2498.000000	0.230301
2499.000000	0.197633
2500.000000	0.192289
