# Wavelength	SM1200H-050_00002.asd.rts.txt
350.000000	0.613070
351.000000	0.609627
352.000000	0.595505
353.000000	0.590336
354.000000	0.602520
355.000000	0.601212
356.000000	0.603993
357.000000	0.613137
358.000000	0.610521
359.000000	0.610727
360.000000	0.612783
361.000000	0.611809
362.000000	0.610652
363.000000	0.612864
364.000000	0.617477
365.000000	0.618583
366.000000	0.618462
367.000000	0.618321
368.000000	0.620407
369.000000	0.623297
370.000000	0.626327
371.000000	0.629176
372.000000	0.633034
373.000000	0.636088
374.000000	0.638386
375.000000	0.640386
376.000000	0.639828
377.000000	0.637915
378.000000	0.640097
379.000000	0.643541
380.000000	0.645856
381.000000	0.647290
382.000000	0.648845
383.000000	0.650317
384.000000	0.651951
385.000000	0.652956
386.000000	0.654609
387.000000	0.657246
388.000000	0.659331
389.000000	0.659616
390.000000	0.659973
391.000000	0.662279
392.000000	0.663798
393.000000	0.664599
394.000000	0.665269
395.000000	0.666727
396.000000	0.668158
397.000000	0.669112
398.000000	0.669915
399.000000	0.670508
400.000000	0.671398
401.000000	0.672847
402.000000	0.673352
403.000000	0.673827
404.000000	0.675394
405.000000	0.676201
406.000000	0.676835
407.000000	0.677730
408.000000	0.678551
409.000000	0.679401
410.000000	0.680187
411.000000	0.680610
412.000000	0.681116
413.000000	0.681839
414.000000	0.682848
415.000000	0.683970
416.000000	0.684764
417.000000	0.685208
418.000000	0.686203
419.000000	0.686830
420.000000	0.687356
421.000000	0.689068
422.000000	0.690192
423.000000	0.690834
424.000000	0.691868
425.000000	0.692958
426.000000	0.694034
427.000000	0.695028
428.000000	0.695985
429.000000	0.697022
430.000000	0.698144
431.000000	0.699130
432.000000	0.700250
433.000000	0.701321
434.000000	0.702280
435.000000	0.703327
436.000000	0.704470
437.000000	0.705596
438.000000	0.706601
439.000000	0.707452
440.000000	0.708435
441.000000	0.709491
442.000000	0.710628
443.000000	0.711663
444.000000	0.712742
445.000000	0.713635
446.000000	0.714523
447.000000	0.715201
448.000000	0.716111
449.000000	0.717191
450.000000	0.718312
451.000000	0.719152
452.000000	0.720079
453.000000	0.720994
454.000000	0.721929
455.000000	0.722737
456.000000	0.723629
457.000000	0.724434
458.000000	0.725162
459.000000	0.725917
460.000000	0.726827
461.000000	0.727219
462.000000	0.727848
463.000000	0.728564
464.000000	0.729054
465.000000	0.729500
466.000000	0.729911
467.000000	0.730609
468.000000	0.731172
469.000000	0.731560
470.000000	0.732267
471.000000	0.732794
472.000000	0.733170
473.000000	0.733582
474.000000	0.734171
475.000000	0.734539
476.000000	0.735008
477.000000	0.735689
478.000000	0.735989
479.000000	0.736518
480.000000	0.737300
481.000000	0.737805
482.000000	0.738485
483.000000	0.739170
484.000000	0.740026
485.000000	0.740538
486.000000	0.741010
487.000000	0.741519
488.000000	0.742129
489.000000	0.742896
490.000000	0.743787
491.000000	0.744475
492.000000	0.745114
493.000000	0.745611
494.000000	0.746378
495.000000	0.747248
496.000000	0.747950
497.000000	0.748627
498.000000	0.749347
499.000000	0.750263
500.000000	0.751070
501.000000	0.751736
502.000000	0.752427
503.000000	0.753155
504.000000	0.753973
505.000000	0.754791
506.000000	0.755537
507.000000	0.756247
508.000000	0.757105
509.000000	0.758031
510.000000	0.758812
511.000000	0.759540
512.000000	0.760320
513.000000	0.761109
514.000000	0.761882
515.000000	0.762651
516.000000	0.763269
517.000000	0.763948
518.000000	0.764761
519.000000	0.765473
520.000000	0.766101
521.000000	0.766711
522.000000	0.767378
523.000000	0.768157
524.000000	0.768938
525.000000	0.769638
526.000000	0.770318
527.000000	0.770997
528.000000	0.771578
529.000000	0.772128
530.000000	0.772747
531.000000	0.773488
532.000000	0.774129
533.000000	0.774796
534.000000	0.775535
535.000000	0.776266
536.000000	0.776890
537.000000	0.777442
538.000000	0.777999
539.000000	0.778614
540.000000	0.779243
541.000000	0.779792
542.000000	0.780320
543.000000	0.780994
544.000000	0.781771
545.000000	0.782433
546.000000	0.783136
547.000000	0.783808
548.000000	0.784500
549.000000	0.785079
550.000000	0.785739
551.000000	0.786469
552.000000	0.787058
553.000000	0.787641
554.000000	0.788244
555.000000	0.788912
556.000000	0.789758
557.000000	0.790377
558.000000	0.790987
559.000000	0.791554
560.000000	0.791979
561.000000	0.792524
562.000000	0.793176
563.000000	0.793622
564.000000	0.794099
565.000000	0.794594
566.000000	0.795177
567.000000	0.795804
568.000000	0.796381
569.000000	0.796933
570.000000	0.797508
571.000000	0.798035
572.000000	0.798395
573.000000	0.798896
574.000000	0.799347
575.000000	0.799602
576.000000	0.800021
577.000000	0.800439
578.000000	0.800859
579.000000	0.801281
580.000000	0.801720
581.000000	0.802166
582.000000	0.802587
583.000000	0.802986
584.000000	0.803379
585.000000	0.803808
586.000000	0.804296
587.000000	0.804747
588.000000	0.805077
589.000000	0.805424
590.000000	0.805757
591.000000	0.806061
592.000000	0.806380
593.000000	0.806679
594.000000	0.806962
595.000000	0.807295
596.000000	0.807622
597.000000	0.808002
598.000000	0.808255
599.000000	0.808427
600.000000	0.808695
601.000000	0.808965
602.000000	0.809196
603.000000	0.809404
604.000000	0.809631
605.000000	0.809869
606.000000	0.810048
607.000000	0.810185
608.000000	0.810351
609.000000	0.810523
610.000000	0.810750
611.000000	0.811068
612.000000	0.811329
613.000000	0.811571
614.000000	0.811895
615.000000	0.812093
616.000000	0.812313
617.000000	0.812534
618.000000	0.812861
619.000000	0.813179
620.000000	0.813390
621.000000	0.813587
622.000000	0.813866
623.000000	0.814192
624.000000	0.814497
625.000000	0.814744
626.000000	0.814900
627.000000	0.815012
628.000000	0.815233
629.000000	0.815582
630.000000	0.815739
631.000000	0.815977
632.000000	0.816247
633.000000	0.816519
634.000000	0.816719
635.000000	0.816864
636.000000	0.817036
637.000000	0.817206
638.000000	0.817286
639.000000	0.817388
640.000000	0.817603
641.000000	0.817556
642.000000	0.817597
643.000000	0.817755
644.000000	0.817961
645.000000	0.818080
646.000000	0.818185
647.000000	0.818266
648.000000	0.818305
649.000000	0.818452
650.000000	0.818667
651.000000	0.818826
652.000000	0.818888
653.000000	0.819008
654.000000	0.819189
655.000000	0.819376
656.000000	0.819584
657.000000	0.819688
658.000000	0.819793
659.000000	0.819953
660.000000	0.820111
661.000000	0.820159
662.000000	0.820199
663.000000	0.820345
664.000000	0.820433
665.000000	0.820565
666.000000	0.820730
667.000000	0.820823
668.000000	0.820943
669.000000	0.821046
670.000000	0.821121
671.000000	0.821174
672.000000	0.821270
673.000000	0.821404
674.000000	0.821572
675.000000	0.821705
676.000000	0.821831
677.000000	0.822035
678.000000	0.822167
679.000000	0.822258
680.000000	0.822353
681.000000	0.822362
682.000000	0.822499
683.000000	0.822604
684.000000	0.822746
685.000000	0.822864
686.000000	0.823021
687.000000	0.823159
688.000000	0.823225
689.000000	0.823286
690.000000	0.823473
691.000000	0.823642
692.000000	0.823771
693.000000	0.824027
694.000000	0.824311
695.000000	0.824634
696.000000	0.824876
697.000000	0.824908
698.000000	0.825014
699.000000	0.825173
700.000000	0.825315
701.000000	0.825283
702.000000	0.825347
703.000000	0.825502
704.000000	0.825507
705.000000	0.825614
706.000000	0.825719
707.000000	0.825828
708.000000	0.825928
709.000000	0.825994
710.000000	0.826066
711.000000	0.826132
712.000000	0.826215
713.000000	0.826362
714.000000	0.826500
715.000000	0.826617
716.000000	0.826738
717.000000	0.826837
718.000000	0.826956
719.000000	0.827023
720.000000	0.827035
721.000000	0.827118
722.000000	0.827108
723.000000	0.827110
724.000000	0.827104
725.000000	0.826985
726.000000	0.826975
727.000000	0.826985
728.000000	0.827110
729.000000	0.827326
730.000000	0.827454
731.000000	0.827617
732.000000	0.827652
733.000000	0.827643
734.000000	0.827672
735.000000	0.827595
736.000000	0.827768
737.000000	0.828003
738.000000	0.827942
739.000000	0.827955
740.000000	0.827924
741.000000	0.828049
742.000000	0.828252
743.000000	0.828401
744.000000	0.828525
745.000000	0.828622
746.000000	0.828801
747.000000	0.828924
748.000000	0.829074
749.000000	0.829199
750.000000	0.829195
751.000000	0.829221
752.000000	0.829297
753.000000	0.829462
754.000000	0.829692
755.000000	0.829849
756.000000	0.829922
757.000000	0.829836
758.000000	0.829806
759.000000	0.829883
760.000000	0.829917
761.000000	0.830148
762.000000	0.830356
763.000000	0.830461
764.000000	0.830678
765.000000	0.830922
766.000000	0.831147
767.000000	0.831280
768.000000	0.831227
769.000000	0.831086
770.000000	0.830972
771.000000	0.830990
772.000000	0.831149
773.000000	0.831270
774.000000	0.831460
775.000000	0.831627
776.000000	0.831750
777.000000	0.831782
778.000000	0.831750
779.000000	0.831824
780.000000	0.832025
781.000000	0.832174
782.000000	0.832327
783.000000	0.832569
784.000000	0.832544
785.000000	0.832661
786.000000	0.832754
787.000000	0.832732
788.000000	0.832756
789.000000	0.832815
790.000000	0.832835
791.000000	0.832827
792.000000	0.832796
793.000000	0.832777
794.000000	0.832814
795.000000	0.832899
796.000000	0.832994
797.000000	0.833038
798.000000	0.832975
799.000000	0.832923
800.000000	0.832903
801.000000	0.832925
802.000000	0.833035
803.000000	0.833132
804.000000	0.833247
805.000000	0.833299
806.000000	0.833434
807.000000	0.833769
808.000000	0.833976
809.000000	0.834112
810.000000	0.834168
811.000000	0.834127
812.000000	0.834098
813.000000	0.834137
814.000000	0.834202
815.000000	0.834218
816.000000	0.834083
817.000000	0.833941
818.000000	0.833762
819.000000	0.833814
820.000000	0.833940
821.000000	0.833938
822.000000	0.833971
823.000000	0.834031
824.000000	0.833970
825.000000	0.833946
826.000000	0.834014
827.000000	0.834020
828.000000	0.834024
829.000000	0.834176
830.000000	0.834222
831.000000	0.834253
832.000000	0.834094
833.000000	0.833993
834.000000	0.833936
835.000000	0.833927
836.000000	0.833760
837.000000	0.833594
838.000000	0.833502
839.000000	0.833372
840.000000	0.833373
841.000000	0.833565
842.000000	0.833788
843.000000	0.833757
844.000000	0.833746
845.000000	0.833783
846.000000	0.833840
847.000000	0.833993
848.000000	0.834109
849.000000	0.834140
850.000000	0.834185
851.000000	0.834206
852.000000	0.834286
853.000000	0.834379
854.000000	0.834363
855.000000	0.834491
856.000000	0.834567
857.000000	0.834452
858.000000	0.834546
859.000000	0.834783
860.000000	0.834957
861.000000	0.835132
862.000000	0.835305
863.000000	0.835263
864.000000	0.835215
865.000000	0.835331
866.000000	0.835636
867.000000	0.835697
868.000000	0.835632
869.000000	0.835400
870.000000	0.835237
871.000000	0.835120
872.000000	0.834975
873.000000	0.834707
874.000000	0.834816
875.000000	0.834764
876.000000	0.834706
877.000000	0.834837
878.000000	0.834797
879.000000	0.834814
880.000000	0.834701
881.000000	0.834737
882.000000	0.834846
883.000000	0.835066
884.000000	0.835238
885.000000	0.835090
886.000000	0.834915
887.000000	0.834944
888.000000	0.834956
889.000000	0.834948
890.000000	0.834693
891.000000	0.834545
892.000000	0.834496
893.000000	0.834494
894.000000	0.834706
895.000000	0.834551
896.000000	0.834531
897.000000	0.834764
898.000000	0.835159
899.000000	0.835246
900.000000	0.835234
901.000000	0.835184
902.000000	0.835260
903.000000	0.835297
904.000000	0.835408
905.000000	0.835451
906.000000	0.835551
907.000000	0.835537
908.000000	0.835560
909.000000	0.835630
910.000000	0.835595
911.000000	0.835559
912.000000	0.835626
913.000000	0.835418
914.000000	0.835237
915.000000	0.835344
916.000000	0.835471
917.000000	0.835377
918.000000	0.835362
919.000000	0.835564
920.000000	0.835720
921.000000	0.835678
922.000000	0.835488
923.000000	0.835243
924.000000	0.835036
925.000000	0.834927
926.000000	0.834970
927.000000	0.834886
928.000000	0.834924
929.000000	0.834984
930.000000	0.834903
931.000000	0.834768
932.000000	0.834661
933.000000	0.834634
934.000000	0.834419
935.000000	0.834138
936.000000	0.833962
937.000000	0.833662
938.000000	0.832976
939.000000	0.832558
940.000000	0.832084
941.000000	0.831098
942.000000	0.829539
943.000000	0.827807
944.000000	0.825857
945.000000	0.823893
946.000000	0.822203
947.000000	0.821264
948.000000	0.821233
949.000000	0.821729
950.000000	0.822696
951.000000	0.823881
952.000000	0.825164
953.000000	0.826081
954.000000	0.826647
955.000000	0.826790
956.000000	0.826703
957.000000	0.826361
958.000000	0.825944
959.000000	0.825995
960.000000	0.826149
961.000000	0.826409
962.000000	0.826706
963.000000	0.827037
964.000000	0.827408
965.000000	0.827763
966.000000	0.827795
967.000000	0.827970
968.000000	0.828159
969.000000	0.828280
970.000000	0.828590
971.000000	0.828747
972.000000	0.829067
973.000000	0.829438
974.000000	0.829706
975.000000	0.829826
976.000000	0.829965
977.000000	0.830235
978.000000	0.830502
979.000000	0.831104
980.000000	0.831284
981.000000	0.831299
982.000000	0.831362
983.000000	0.831375
984.000000	0.831524
985.000000	0.831863
986.000000	0.832322
987.000000	0.832719
988.000000	0.832709
989.000000	0.832813
990.000000	0.832967
991.000000	0.833168
992.000000	0.833532
993.000000	0.834031
994.000000	0.834165
995.000000	0.834327
996.000000	0.834465
997.000000	0.835044
998.000000	0.835496
999.000000	0.835846
1000.000000	0.836440
1001.000000	0.835590
1002.000000	0.836105
1003.000000	0.836087
1004.000000	0.836249
1005.000000	0.836426
1006.000000	0.836116
1007.000000	0.835503
1008.000000	0.835651
1009.000000	0.835635
1010.000000	0.835061
1011.000000	0.835569
1012.000000	0.836159
1013.000000	0.835850
1014.000000	0.836007
1015.000000	0.836079
1016.000000	0.836538
1017.000000	0.837226
1018.000000	0.837815
1019.000000	0.838373
1020.000000	0.839353
1021.000000	0.838879
1022.000000	0.838116
1023.000000	0.838440
1024.000000	0.838149
1025.000000	0.838703
1026.000000	0.839352
1027.000000	0.839256
1028.000000	0.839070
1029.000000	0.838899
1030.000000	0.839129
1031.000000	0.839619
1032.000000	0.839747
1033.000000	0.839846
1034.000000	0.840044
1035.000000	0.840199
1036.000000	0.840393
1037.000000	0.840912
1038.000000	0.840843
1039.000000	0.840691
1040.000000	0.840818
1041.000000	0.840575
1042.000000	0.840291
1043.000000	0.840743
1044.000000	0.841204
1045.000000	0.841219
1046.000000	0.841335
1047.000000	0.841611
1048.000000	0.841665
1049.000000	0.841489
1050.000000	0.841389
1051.000000	0.841344
1052.000000	0.840764
1053.000000	0.840474
1054.000000	0.841169
1055.000000	0.841631
1056.000000	0.842213
1057.000000	0.842430
1058.000000	0.842449
1059.000000	0.841987
1060.000000	0.841700
1061.000000	0.841735
1062.000000	0.841966
1063.000000	0.842523
1064.000000	0.842909
1065.000000	0.843163
1066.000000	0.843388
1067.000000	0.843532
1068.000000	0.843541
1069.000000	0.843318
1070.000000	0.843100
1071.000000	0.842937
1072.000000	0.842812
1073.000000	0.842514
1074.000000	0.842893
1075.000000	0.843255
1076.000000	0.843049
1077.000000	0.843076
1078.000000	0.842830
1079.000000	0.842752
1080.000000	0.842806
1081.000000	0.842811
1082.000000	0.843151
1083.000000	0.843163
1084.000000	0.842995
1085.000000	0.843062
1086.000000	0.843039
1087.000000	0.843150
1088.000000	0.843191
1089.000000	0.843249
1090.000000	0.843398
1091.000000	0.843273
1092.000000	0.842986
1093.000000	0.843194
1094.000000	0.842901
1095.000000	0.841813
1096.000000	0.841946
1097.000000	0.842695
1098.000000	0.842860
1099.000000	0.843219
1100.000000	0.843583
1101.000000	0.843465
1102.000000	0.843361
1103.000000	0.843458
1104.000000	0.843526
1105.000000	0.843110
1106.000000	0.843023
1107.000000	0.843335
1108.000000	0.843284
1109.000000	0.843280
1110.000000	0.843158
1111.000000	0.842872
1112.000000	0.842297
1113.000000	0.842102
1114.000000	0.841954
1115.000000	0.841840
1116.000000	0.841993
1117.000000	0.841925
1118.000000	0.841692
1119.000000	0.841401
1120.000000	0.841049
1121.000000	0.840750
1122.000000	0.840626
1123.000000	0.840925
1124.000000	0.840980
1125.000000	0.840927
1126.000000	0.840692
1127.000000	0.840337
1128.000000	0.839855
1129.000000	0.839274
1130.000000	0.838760
1131.000000	0.838340
1132.000000	0.837595
1133.000000	0.836793
1134.000000	0.836105
1135.000000	0.835152
1136.000000	0.834290
1137.000000	0.833722
1138.000000	0.832655
1139.000000	0.831448
1140.000000	0.830531
1141.000000	0.829354
1142.000000	0.828306
1143.000000	0.827242
1144.000000	0.826505
1145.000000	0.825438
1146.000000	0.824285
1147.000000	0.823295
1148.000000	0.822106
1149.000000	0.821291
1150.000000	0.820648
1151.000000	0.820129
1152.000000	0.819593
1153.000000	0.819388
1154.000000	0.819230
1155.000000	0.819203
1156.000000	0.819578
1157.000000	0.819769
1158.000000	0.819684
1159.000000	0.819881
1160.000000	0.820144
1161.000000	0.820439
1162.000000	0.821065
1163.000000	0.821989
1164.000000	0.822371
1165.000000	0.822637
1166.000000	0.823098
1167.000000	0.823361
1168.000000	0.823653
1169.000000	0.824184
1170.000000	0.824608
1171.000000	0.825022
1172.000000	0.825474
1173.000000	0.825907
1174.000000	0.826258
1175.000000	0.826468
1176.000000	0.826600
1177.000000	0.826916
1178.000000	0.827114
1179.000000	0.827201
1180.000000	0.827131
1181.000000	0.827086
1182.000000	0.827078
1183.000000	0.827355
1184.000000	0.827642
1185.000000	0.827783
1186.000000	0.828026
1187.000000	0.828067
1188.000000	0.827856
1189.000000	0.827720
1190.000000	0.827701
1191.000000	0.827658
1192.000000	0.827808
1193.000000	0.828115
1194.000000	0.828215
1195.000000	0.828367
1196.000000	0.828372
1197.000000	0.828467
1198.000000	0.828718
1199.000000	0.828886
1200.000000	0.828980
1201.000000	0.829176
1202.000000	0.829267
1203.000000	0.829402
1204.000000	0.829589
1205.000000	0.829802
1206.000000	0.829832
1207.000000	0.830004
1208.000000	0.830012
1209.000000	0.830033
1210.000000	0.830096
1211.000000	0.830193
1212.000000	0.830214
1213.000000	0.830259
1214.000000	0.830389
1215.000000	0.830478
1216.000000	0.830554
1217.000000	0.830642
1218.000000	0.830661
1219.000000	0.830621
1220.000000	0.830755
1221.000000	0.830950
1222.000000	0.831103
1223.000000	0.831339
1224.000000	0.831544
1225.000000	0.831582
1226.000000	0.831638
1227.000000	0.831639
1228.000000	0.831689
1229.000000	0.831616
1230.000000	0.831451
1231.000000	0.831274
1232.000000	0.831305
1233.000000	0.831504
1234.000000	0.831807
1235.000000	0.831882
1236.000000	0.831605
1237.000000	0.831681
1238.000000	0.831718
1239.000000	0.831702
1240.000000	0.831829
1241.000000	0.831913
1242.000000	0.831740
1243.000000	0.831628
1244.000000	0.831702
1245.000000	0.831963
1246.000000	0.832166
1247.000000	0.832459
1248.000000	0.832711
1249.000000	0.832860
1250.000000	0.832936
1251.000000	0.832999
1252.000000	0.833046
1253.000000	0.833144
1254.000000	0.833129
1255.000000	0.833063
1256.000000	0.833014
1257.000000	0.832971
1258.000000	0.832967
1259.000000	0.832809
1260.000000	0.832783
1261.000000	0.832629
1262.000000	0.832461
1263.000000	0.832395
1264.000000	0.832270
1265.000000	0.832071
1266.000000	0.831800
1267.000000	0.831393
1268.000000	0.830816
1269.000000	0.830164
1270.000000	0.829808
1271.000000	0.829408
1272.000000	0.829166
1273.000000	0.829055
1274.000000	0.828742
1275.000000	0.828520
1276.000000	0.828414
1277.000000	0.828470
1278.000000	0.828371
1279.000000	0.828314
1280.000000	0.828155
1281.000000	0.828039
1282.000000	0.828101
1283.000000	0.828285
1284.000000	0.828497
1285.000000	0.828544
1286.000000	0.828500
1287.000000	0.828324
1288.000000	0.828146
1289.000000	0.827834
1290.000000	0.827312
1291.000000	0.826843
1292.000000	0.826490
1293.000000	0.826083
1294.000000	0.825737
1295.000000	0.825492
1296.000000	0.825100
1297.000000	0.824772
1298.000000	0.824664
1299.000000	0.824552
1300.000000	0.824463
1301.000000	0.824205
1302.000000	0.823874
1303.000000	0.823748
1304.000000	0.823421
1305.000000	0.823343
1306.000000	0.822979
1307.000000	0.822473
1308.000000	0.822095
1309.000000	0.821622
1310.000000	0.821135
1311.000000	0.820789
1312.000000	0.820237
1313.000000	0.819645
1314.000000	0.819092
1315.000000	0.818520
1316.000000	0.818145
1317.000000	0.817644
1318.000000	0.817075
1319.000000	0.816329
1320.000000	0.815509
1321.000000	0.814708
1322.000000	0.813864
1323.000000	0.813159
1324.000000	0.812502
1325.000000	0.811584
1326.000000	0.810547
1327.000000	0.809486
1328.000000	0.808484
1329.000000	0.807356
1330.000000	0.806304
1331.000000	0.805263
1332.000000	0.804289
1333.000000	0.803200
1334.000000	0.802221
1335.000000	0.801313
1336.000000	0.800346
1337.000000	0.799359
1338.000000	0.798339
1339.000000	0.797245
1340.000000	0.796096
1341.000000	0.795042
1342.000000	0.794092
1343.000000	0.793265
1344.000000	0.792442
1345.000000	0.791485
1346.000000	0.790693
1347.000000	0.789600
1348.000000	0.788541
1349.000000	0.787571
1350.000000	0.786708
1351.000000	0.785818
1352.000000	0.784823
1353.000000	0.783820
1354.000000	0.782892
1355.000000	0.781805
1356.000000	0.780850
1357.000000	0.779720
1358.000000	0.778364
1359.000000	0.777087
1360.000000	0.775787
1361.000000	0.774594
1362.000000	0.773205
1363.000000	0.771806
1364.000000	0.770210
1365.000000	0.768392
1366.000000	0.766463
1367.000000	0.764447
1368.000000	0.762078
1369.000000	0.759626
1370.000000	0.756635
1371.000000	0.753148
1372.000000	0.749166
1373.000000	0.744667
1374.000000	0.739715
1375.000000	0.733926
1376.000000	0.727326
1377.000000	0.719589
1378.000000	0.710153
1379.000000	0.699487
1380.000000	0.687483
1381.000000	0.673757
1382.000000	0.659465
1383.000000	0.644586
1384.000000	0.629032
1385.000000	0.614110
1386.000000	0.600246
1387.000000	0.587998
1388.000000	0.577864
1389.000000	0.570053
1390.000000	0.564718
1391.000000	0.561431
1392.000000	0.560169
1393.000000	0.560227
1394.000000	0.562892
1395.000000	0.565004
1396.000000	0.568640
1397.000000	0.570850
1398.000000	0.572980
1399.000000	0.574075
1400.000000	0.574456
1401.000000	0.574039
1402.000000	0.572943
1403.000000	0.571241
1404.000000	0.569077
1405.000000	0.566620
1406.000000	0.564181
1407.000000	0.561906
1408.000000	0.559767
1409.000000	0.558046
1410.000000	0.556769
1411.000000	0.555724
1412.000000	0.554974
1413.000000	0.554694
1414.000000	0.554733
1415.000000	0.554981
1416.000000	0.555557
1417.000000	0.556452
1418.000000	0.557478
1419.000000	0.558881
1420.000000	0.560297
1421.000000	0.561950
1422.000000	0.563794
1423.000000	0.565692
1424.000000	0.567589
1425.000000	0.569568
1426.000000	0.571386
1427.000000	0.573327
1428.000000	0.575398
1429.000000	0.577351
1430.000000	0.579359
1431.000000	0.581332
1432.000000	0.583189
1433.000000	0.585039
1434.000000	0.586815
1435.000000	0.588677
1436.000000	0.590414
1437.000000	0.592054
1438.000000	0.593585
1439.000000	0.595090
1440.000000	0.596541
1441.000000	0.598007
1442.000000	0.599393
1443.000000	0.600602
1444.000000	0.601759
1445.000000	0.602812
1446.000000	0.603677
1447.000000	0.604426
1448.000000	0.605107
1449.000000	0.605713
1450.000000	0.606144
1451.000000	0.606541
1452.000000	0.606769
1453.000000	0.606808
1454.000000	0.606806
1455.000000	0.606836
1456.000000	0.606963
1457.000000	0.607147
1458.000000	0.607391
1459.000000	0.607600
1460.000000	0.607840
1461.000000	0.608177
1462.000000	0.608644
1463.000000	0.609205
1464.000000	0.609975
1465.000000	0.611089
1466.000000	0.612230
1467.000000	0.613543
1468.000000	0.615118
1469.000000	0.616699
1470.000000	0.618263
1471.000000	0.620066
1472.000000	0.621830
1473.000000	0.623662
1474.000000	0.625467
1475.000000	0.627308
1476.000000	0.629147
1477.000000	0.630951
1478.000000	0.632786
1479.000000	0.634508
1480.000000	0.636181
1481.000000	0.637878
1482.000000	0.639698
1483.000000	0.641525
1484.000000	0.643399
1485.000000	0.645167
1486.000000	0.646846
1487.000000	0.648573
1488.000000	0.650309
1489.000000	0.652094
1490.000000	0.653728
1491.000000	0.655396
1492.000000	0.656947
1493.000000	0.658546
1494.000000	0.660059
1495.000000	0.661550
1496.000000	0.663075
1497.000000	0.664527
1498.000000	0.665968
1499.000000	0.667352
1500.000000	0.668698
1501.000000	0.669983
1502.000000	0.671238
1503.000000	0.672582
1504.000000	0.673945
1505.000000	0.675248
1506.000000	0.676578
1507.000000	0.677826
1508.000000	0.679144
1509.000000	0.680468
1510.000000	0.681609
1511.000000	0.682869
1512.000000	0.684047
1513.000000	0.685111
1514.000000	0.686333
1515.000000	0.687456
1516.000000	0.688669
1517.000000	0.689795
1518.000000	0.690790
1519.000000	0.691736
1520.000000	0.692617
1521.000000	0.693436
1522.000000	0.694518
1523.000000	0.695665
1524.000000	0.696605
1525.000000	0.697666
1526.000000	0.698603
1527.000000	0.699492
1528.000000	0.700529
1529.000000	0.701443
1530.000000	0.702133
1531.000000	0.703006
1532.000000	0.703968
1533.000000	0.704855
1534.000000	0.705852
1535.000000	0.706767
1536.000000	0.707465
1537.000000	0.708341
1538.000000	0.709233
1539.000000	0.710063
1540.000000	0.711013
1541.000000	0.711992
1542.000000	0.712907
1543.000000	0.713794
1544.000000	0.714605
1545.000000	0.715498
1546.000000	0.716411
1547.000000	0.717307
1548.000000	0.718307
1549.000000	0.719153
1550.000000	0.719864
1551.000000	0.720697
1552.000000	0.721507
1553.000000	0.722233
1554.000000	0.723040
1555.000000	0.723842
1556.000000	0.724562
1557.000000	0.725237
1558.000000	0.725876
1559.000000	0.726307
1560.000000	0.726761
1561.000000	0.727239
1562.000000	0.727690
1563.000000	0.728223
1564.000000	0.728745
1565.000000	0.729228
1566.000000	0.729633
1567.000000	0.730248
1568.000000	0.730777
1569.000000	0.731422
1570.000000	0.732004
1571.000000	0.732522
1572.000000	0.732989
1573.000000	0.733465
1574.000000	0.733877
1575.000000	0.734244
1576.000000	0.734682
1577.000000	0.735082
1578.000000	0.735437
1579.000000	0.735923
1580.000000	0.736323
1581.000000	0.736819
1582.000000	0.737259
1583.000000	0.737639
1584.000000	0.738002
1585.000000	0.738551
1586.000000	0.739033
1587.000000	0.739515
1588.000000	0.739898
1589.000000	0.740205
1590.000000	0.740540
1591.000000	0.740887
1592.000000	0.741286
1593.000000	0.741806
1594.000000	0.742190
1595.000000	0.742657
1596.000000	0.743044
1597.000000	0.743414
1598.000000	0.743778
1599.000000	0.744189
1600.000000	0.744467
1601.000000	0.744850
1602.000000	0.745154
1603.000000	0.745447
1604.000000	0.745743
1605.000000	0.746087
1606.000000	0.746363
1607.000000	0.746752
1608.000000	0.746988
1609.000000	0.747236
1610.000000	0.747431
1611.000000	0.747576
1612.000000	0.747728
1613.000000	0.748130
1614.000000	0.748331
1615.000000	0.748601
1616.000000	0.748862
1617.000000	0.748925
1618.000000	0.749008
1619.000000	0.748997
1620.000000	0.749089
1621.000000	0.749265
1622.000000	0.749571
1623.000000	0.749970
1624.000000	0.750198
1625.000000	0.750084
1626.000000	0.749987
1627.000000	0.749767
1628.000000	0.749861
1629.000000	0.750091
1630.000000	0.750291
1631.000000	0.750495
1632.000000	0.750580
1633.000000	0.750550
1634.000000	0.750677
1635.000000	0.750985
1636.000000	0.751166
1637.000000	0.751440
1638.000000	0.751547
1639.000000	0.751673
1640.000000	0.751719
1641.000000	0.751794
1642.000000	0.751893
1643.000000	0.752032
1644.000000	0.752128
1645.000000	0.752229
1646.000000	0.752254
1647.000000	0.752331
1648.000000	0.752299
1649.000000	0.752404
1650.000000	0.752528
1651.000000	0.752656
1652.000000	0.752898
1653.000000	0.753147
1654.000000	0.753386
1655.000000	0.753537
1656.000000	0.753474
1657.000000	0.753447
1658.000000	0.753473
1659.000000	0.753697
1660.000000	0.753918
1661.000000	0.754008
1662.000000	0.754117
1663.000000	0.754110
1664.000000	0.754172
1665.000000	0.754286
1666.000000	0.754528
1667.000000	0.754633
1668.000000	0.754746
1669.000000	0.754858
1670.000000	0.754843
1671.000000	0.755014
1672.000000	0.755153
1673.000000	0.755152
1674.000000	0.755292
1675.000000	0.755511
1676.000000	0.755633
1677.000000	0.755658
1678.000000	0.755553
1679.000000	0.755441
1680.000000	0.755371
1681.000000	0.755362
1682.000000	0.755382
1683.000000	0.755467
1684.000000	0.755427
1685.000000	0.755373
1686.000000	0.755203
1687.000000	0.754983
1688.000000	0.754777
1689.000000	0.754575
1690.000000	0.754332
1691.000000	0.754266
1692.000000	0.753985
1693.000000	0.753715
1694.000000	0.753482
1695.000000	0.753251
1696.000000	0.753086
1697.000000	0.752825
1698.000000	0.752691
1699.000000	0.752581
1700.000000	0.752417
1701.000000	0.752506
1702.000000	0.752357
1703.000000	0.752115
1704.000000	0.752108
1705.000000	0.752031
1706.000000	0.751924
1707.000000	0.751867
1708.000000	0.751782
1709.000000	0.751584
1710.000000	0.751644
1711.000000	0.751558
1712.000000	0.751435
1713.000000	0.751243
1714.000000	0.750993
1715.000000	0.750811
1716.000000	0.750689
1717.000000	0.750497
1718.000000	0.750223
1719.000000	0.749939
1720.000000	0.749748
1721.000000	0.749484
1722.000000	0.749177
1723.000000	0.748943
1724.000000	0.748769
1725.000000	0.748592
1726.000000	0.748301
1727.000000	0.747974
1728.000000	0.747437
1729.000000	0.746845
1730.000000	0.746509
1731.000000	0.746096
1732.000000	0.745643
1733.000000	0.745369
1734.000000	0.744844
1735.000000	0.744446
1736.000000	0.744070
1737.000000	0.743665
1738.000000	0.743337
1739.000000	0.742917
1740.000000	0.742428
1741.000000	0.741872
1742.000000	0.741239
1743.000000	0.740834
1744.000000	0.740441
1745.000000	0.739953
1746.000000	0.739510
1747.000000	0.739008
1748.000000	0.738414
1749.000000	0.737897
1750.000000	0.737301
1751.000000	0.736957
1752.000000	0.736670
1753.000000	0.736073
1754.000000	0.735508
1755.000000	0.734808
1756.000000	0.734057
1757.000000	0.733275
1758.000000	0.732538
1759.000000	0.731669
1760.000000	0.730909
1761.000000	0.730075
1762.000000	0.729393
1763.000000	0.728952
1764.000000	0.728381
1765.000000	0.727748
1766.000000	0.727216
1767.000000	0.726390
1768.000000	0.725768
1769.000000	0.725587
1770.000000	0.725338
1771.000000	0.725081
1772.000000	0.724738
1773.000000	0.724173
1774.000000	0.723857
1775.000000	0.723762
1776.000000	0.723565
1777.000000	0.723436
1778.000000	0.723122
1779.000000	0.722576
1780.000000	0.722238
1781.000000	0.721867
1782.000000	0.721492
1783.000000	0.721280
1784.000000	0.720979
1785.000000	0.720580
1786.000000	0.720361
1787.000000	0.720262
1788.000000	0.720149
1789.000000	0.719870
1790.000000	0.719597
1791.000000	0.719236
1792.000000	0.719043
1793.000000	0.718812
1794.000000	0.718544
1795.000000	0.718375
1796.000000	0.718256
1797.000000	0.718057
1798.000000	0.717824
1799.000000	0.717598
1800.000000	0.717377
1801.000000	0.717870
1802.000000	0.717804
1803.000000	0.717126
1804.000000	0.717124
1805.000000	0.717812
1806.000000	0.718038
1807.000000	0.718508
1808.000000	0.718415
1809.000000	0.717671
1810.000000	0.717142
1811.000000	0.717141
1812.000000	0.717141
1813.000000	0.717252
1814.000000	0.718496
1815.000000	0.718634
1816.000000	0.718126
1817.000000	0.717357
1818.000000	0.716235
1819.000000	0.715487
1820.000000	0.714033
1821.000000	0.712720
1822.000000	0.712255
1823.000000	0.712287
1824.000000	0.711607
1825.000000	0.711204
1826.000000	0.710900
1827.000000	0.709807
1828.000000	0.708928
1829.000000	0.708995
1830.000000	0.709167
1831.000000	0.708688
1832.000000	0.707841
1833.000000	0.707012
1834.000000	0.705539
1835.000000	0.704724
1836.000000	0.704092
1837.000000	0.703604
1838.000000	0.703465
1839.000000	0.702850
1840.000000	0.701878
1841.000000	0.700814
1842.000000	0.699647
1843.000000	0.697759
1844.000000	0.696776
1845.000000	0.695891
1846.000000	0.695186
1847.000000	0.694787
1848.000000	0.694154
1849.000000	0.693163
1850.000000	0.691791
1851.000000	0.690159
1852.000000	0.687743
1853.000000	0.685899
1854.000000	0.683656
1855.000000	0.681363
1856.000000	0.678916
1857.000000	0.676809
1858.000000	0.673804
1859.000000	0.670844
1860.000000	0.667877
1861.000000	0.663687
1862.000000	0.659672
1863.000000	0.655667
1864.000000	0.651436
1865.000000	0.647268
1866.000000	0.642533
1867.000000	0.637668
1868.000000	0.631597
1869.000000	0.625170
1870.000000	0.618855
1871.000000	0.611993
1872.000000	0.605007
1873.000000	0.597684
1874.000000	0.590039
1875.000000	0.581883
1876.000000	0.573108
1877.000000	0.563467
1878.000000	0.553376
1879.000000	0.543065
1880.000000	0.531969
1881.000000	0.520758
1882.000000	0.509569
1883.000000	0.497747
1884.000000	0.485994
1885.000000	0.473759
1886.000000	0.461479
1887.000000	0.448999
1888.000000	0.436146
1889.000000	0.422925
1890.000000	0.410579
1891.000000	0.398899
1892.000000	0.387298
1893.000000	0.376239
1894.000000	0.365450
1895.000000	0.355014
1896.000000	0.344797
1897.000000	0.335290
1898.000000	0.326438
1899.000000	0.318950
1900.000000	0.312591
1901.000000	0.307185
1902.000000	0.303132
1903.000000	0.300012
1904.000000	0.297781
1905.000000	0.296456
1906.000000	0.295658
1907.000000	0.295732
1908.000000	0.296355
1909.000000	0.297396
1910.000000	0.298897
1911.000000	0.300438
1912.000000	0.302298
1913.000000	0.304705
1914.000000	0.307253
1915.000000	0.310062
1916.000000	0.313682
1917.000000	0.317059
1918.000000	0.320701
1919.000000	0.324200
1920.000000	0.327939
1921.000000	0.331214
1922.000000	0.334358
1923.000000	0.337526
1924.000000	0.340196
1925.000000	0.342797
1926.000000	0.345311
1927.000000	0.347768
1928.000000	0.350296
1929.000000	0.352973
1930.000000	0.355747
1931.000000	0.358250
1932.000000	0.360546
1933.000000	0.362783
1934.000000	0.364565
1935.000000	0.366101
1936.000000	0.367567
1937.000000	0.368939
1938.000000	0.370327
1939.000000	0.371807
1940.000000	0.373407
1941.000000	0.375186
1942.000000	0.376816
1943.000000	0.377922
1944.000000	0.378899
1945.000000	0.379821
1946.000000	0.380949
1947.000000	0.382764
1948.000000	0.384479
1949.000000	0.386036
1950.000000	0.387540
1951.000000	0.388670
1952.000000	0.389299
1953.000000	0.390127
1954.000000	0.391498
1955.000000	0.392611
1956.000000	0.393847
1957.000000	0.394820
1958.000000	0.395234
1959.000000	0.396036
1960.000000	0.396999
1961.000000	0.398146
1962.000000	0.399449
1963.000000	0.401231
1964.000000	0.402816
1965.000000	0.404229
1966.000000	0.405761
1967.000000	0.407097
1968.000000	0.408713
1969.000000	0.410372
1970.000000	0.411927
1971.000000	0.413574
1972.000000	0.414746
1973.000000	0.415946
1974.000000	0.417145
1975.000000	0.418719
1976.000000	0.420429
1977.000000	0.422298
1978.000000	0.424372
1979.000000	0.426451
1980.000000	0.428220
1981.000000	0.430000
1982.000000	0.431794
1983.000000	0.433363
1984.000000	0.435021
1985.000000	0.436834
1986.000000	0.438614
1987.000000	0.440553
1988.000000	0.442350
1989.000000	0.444170
1990.000000	0.445796
1991.000000	0.447195
1992.000000	0.448977
1993.000000	0.450940
1994.000000	0.452921
1995.000000	0.454874
1996.000000	0.456966
1997.000000	0.459134
1998.000000	0.461440
1999.000000	0.463754
2000.000000	0.466450
2001.000000	0.468591
2002.000000	0.470368
2003.000000	0.472243
2004.000000	0.473939
2005.000000	0.475495
2006.000000	0.477403
2007.000000	0.479411
2008.000000	0.481556
2009.000000	0.484012
2010.000000	0.486262
2011.000000	0.488346
2012.000000	0.490254
2013.000000	0.491848
2014.000000	0.493206
2015.000000	0.494998
2016.000000	0.496836
2017.000000	0.498608
2018.000000	0.500078
2019.000000	0.501445
2020.000000	0.502737
2021.000000	0.504359
2022.000000	0.506240
2023.000000	0.508085
2024.000000	0.510245
2025.000000	0.512197
2026.000000	0.513917
2027.000000	0.515462
2028.000000	0.516712
2029.000000	0.518183
2030.000000	0.519754
2031.000000	0.521354
2032.000000	0.523250
2033.000000	0.525073
2034.000000	0.526704
2035.000000	0.528463
2036.000000	0.529715
2037.000000	0.530888
2038.000000	0.532195
2039.000000	0.533397
2040.000000	0.534707
2041.000000	0.536438
2042.000000	0.538006
2043.000000	0.539472
2044.000000	0.541160
2045.000000	0.542529
2046.000000	0.543395
2047.000000	0.544278
2048.000000	0.544728
2049.000000	0.545738
2050.000000	0.546083
2051.000000	0.546837
2052.000000	0.547835
2053.000000	0.548659
2054.000000	0.549970
2055.000000	0.551246
2056.000000	0.552321
2057.000000	0.553575
2058.000000	0.554465
2059.000000	0.555469
2060.000000	0.556470
2061.000000	0.557607
2062.000000	0.558359
2063.000000	0.559060
2064.000000	0.559471
2065.000000	0.559983
2066.000000	0.560452
2067.000000	0.561253
2068.000000	0.562202
2069.000000	0.563042
2070.000000	0.563783
2071.000000	0.564285
2072.000000	0.564745
2073.000000	0.565366
2074.000000	0.565682
2075.000000	0.566086
2076.000000	0.566448
2077.000000	0.566793
2078.000000	0.567154
2079.000000	0.567466
2080.000000	0.567715
2081.000000	0.568183
2082.000000	0.568948
2083.000000	0.569294
2084.000000	0.569456
2085.000000	0.569947
2086.000000	0.570180
2087.000000	0.570896
2088.000000	0.572169
2089.000000	0.573056
2090.000000	0.573969
2091.000000	0.575100
2092.000000	0.575832
2093.000000	0.576393
2094.000000	0.576930
2095.000000	0.577273
2096.000000	0.577709
2097.000000	0.578008
2098.000000	0.578127
2099.000000	0.578421
2100.000000	0.578983
2101.000000	0.579501
2102.000000	0.580414
2103.000000	0.581406
2104.000000	0.582349
2105.000000	0.583571
2106.000000	0.585238
2107.000000	0.586427
2108.000000	0.587715
2109.000000	0.588660
2110.000000	0.588768
2111.000000	0.589093
2112.000000	0.589242
2113.000000	0.588884
2114.000000	0.588843
2115.000000	0.588944
2116.000000	0.589350
2117.000000	0.589879
2118.000000	0.590182
2119.000000	0.590516
2120.000000	0.591008
2121.000000	0.591251
2122.000000	0.591851
2123.000000	0.592982
2124.000000	0.593823
2125.000000	0.594551
2126.000000	0.595490
2127.000000	0.596456
2128.000000	0.597566
2129.000000	0.598720
2130.000000	0.600225
2131.000000	0.600630
2132.000000	0.601031
2133.000000	0.601598
2134.000000	0.601864
2135.000000	0.602464
2136.000000	0.603780
2137.000000	0.604340
2138.000000	0.604772
2139.000000	0.604826
2140.000000	0.604103
2141.000000	0.603944
2142.000000	0.603438
2143.000000	0.603155
2144.000000	0.603794
2145.000000	0.604350
2146.000000	0.605198
2147.000000	0.606538
2148.000000	0.607401
2149.000000	0.608648
2150.000000	0.609175
2151.000000	0.609359
2152.000000	0.609305
2153.000000	0.608509
2154.000000	0.608195
2155.000000	0.607839
2156.000000	0.607782
2157.000000	0.608145
2158.000000	0.608358
2159.000000	0.608859
2160.000000	0.609261
2161.000000	0.609379
2162.000000	0.609912
2163.000000	0.610686
2164.000000	0.610825
2165.000000	0.610742
2166.000000	0.610795
2167.000000	0.610745
2168.000000	0.610529
2169.000000	0.610627
2170.000000	0.610630
2171.000000	0.610038
2172.000000	0.608736
2173.000000	0.607899
2174.000000	0.606563
2175.000000	0.606059
2176.000000	0.606215
2177.000000	0.606134
2178.000000	0.606535
2179.000000	0.606969
2180.000000	0.607429
2181.000000	0.607948
2182.000000	0.607592
2183.000000	0.606998
2184.000000	0.606594
2185.000000	0.605437
2186.000000	0.604847
2187.000000	0.605239
2188.000000	0.605615
2189.000000	0.605927
2190.000000	0.605540
2191.000000	0.606283
2192.000000	0.605979
2193.000000	0.604771
2194.000000	0.603776
2195.000000	0.602175
2196.000000	0.601413
2197.000000	0.600826
2198.000000	0.600461
2199.000000	0.601968
2200.000000	0.602017
2201.000000	0.600947
2202.000000	0.600515
2203.000000	0.599897
2204.000000	0.597589
2205.000000	0.596091
2206.000000	0.594749
2207.000000	0.592948
2208.000000	0.591804
2209.000000	0.590653
2210.000000	0.589869
2211.000000	0.588543
2212.000000	0.587899
2213.000000	0.587681
2214.000000	0.588803
2215.000000	0.588201
2216.000000	0.587602
2217.000000	0.586134
2218.000000	0.582236
2219.000000	0.580509
2220.000000	0.579301
2221.000000	0.578589
2222.000000	0.579918
2223.000000	0.579573
2224.000000	0.577895
2225.000000	0.578333
2226.000000	0.576839
2227.000000	0.573614
2228.000000	0.572337
2229.000000	0.568609
2230.000000	0.566286
2231.000000	0.566432
2232.000000	0.565239
2233.000000	0.564523
2234.000000	0.563188
2235.000000	0.561666
2236.000000	0.560637
2237.000000	0.559248
2238.000000	0.559994
2239.000000	0.561954
2240.000000	0.563724
2241.000000	0.568272
2242.000000	0.569389
2243.000000	0.568282
2244.000000	0.568049
2245.000000	0.567032
2246.000000	0.565827
2247.000000	0.563414
2248.000000	0.562956
2249.000000	0.563829
2250.000000	0.562675
2251.000000	0.563482
2252.000000	0.565637
2253.000000	0.564365
2254.000000	0.563368
2255.000000	0.563157
2256.000000	0.562139
2257.000000	0.561708
2258.000000	0.561384
2259.000000	0.559637
2260.000000	0.557374
2261.000000	0.555679
2262.000000	0.553755
2263.000000	0.551999
2264.000000	0.551160
2265.000000	0.549834
2266.000000	0.548189
2267.000000	0.546230
2268.000000	0.544343
2269.000000	0.541521
2270.000000	0.538045
2271.000000	0.534664
2272.000000	0.530330
2273.000000	0.526920
2274.000000	0.524041
2275.000000	0.520354
2276.000000	0.517174
2277.000000	0.512902
2278.000000	0.507338
2279.000000	0.501958
2280.000000	0.494691
2281.000000	0.488094
2282.000000	0.481787
2283.000000	0.474563
2284.000000	0.468278
2285.000000	0.462965
2286.000000	0.458331
2287.000000	0.454718
2288.000000	0.451716
2289.000000	0.447758
2290.000000	0.443373
2291.000000	0.438709
2292.000000	0.435205
2293.000000	0.432480
2294.000000	0.430126
2295.000000	0.429317
2296.000000	0.427648
2297.000000	0.425396
2298.000000	0.423754
2299.000000	0.422770
2300.000000	0.419955
2301.000000	0.417671
2302.000000	0.413542
2303.000000	0.407034
2304.000000	0.401166
2305.000000	0.393530
2306.000000	0.387487
2307.000000	0.381934
2308.000000	0.376777
2309.000000	0.372966
2310.000000	0.369653
2311.000000	0.366161
2312.000000	0.362842
2313.000000	0.360061
2314.000000	0.359095
2315.000000	0.359990
2316.000000	0.363018
2317.000000	0.366659
2318.000000	0.370706
2319.000000	0.375670
2320.000000	0.380358
2321.000000	0.386105
2322.000000	0.392276
2323.000000	0.399803
2324.000000	0.407960
2325.000000	0.413324
2326.000000	0.419759
2327.000000	0.425997
2328.000000	0.429573
2329.000000	0.434169
2330.000000	0.437998
2331.000000	0.439618
2332.000000	0.441552
2333.000000	0.444041
2334.000000	0.446382
2335.000000	0.449263
2336.000000	0.451936
2337.000000	0.453476
2338.000000	0.454926
2339.000000	0.456124
2340.000000	0.456150
2341.000000	0.456166
2342.000000	0.455526
2343.000000	0.456097
2344.000000	0.456844
2345.000000	0.457662
2346.000000	0.460580
2347.000000	0.461176
2348.000000	0.460382
2349.000000	0.459542
2350.000000	0.456730
2351.000000	0.454634
2352.000000	0.450486
2353.000000	0.447583
2354.000000	0.446602
2355.000000	0.444989
2356.000000	0.445377
2357.000000	0.444399
2358.000000	0.443364
2359.000000	0.442495
2360.000000	0.441634
2361.000000	0.441547
2362.000000	0.439017
2363.000000	0.436639
2364.000000	0.434102
2365.000000	0.433175
2366.000000	0.432652
2367.000000	0.430803
2368.000000	0.430691
2369.000000	0.428467
2370.000000	0.425913
2371.000000	0.426339
2372.000000	0.426144
2373.000000	0.424317
2374.000000	0.419727
2375.000000	0.413437
2376.000000	0.407224
2377.000000	0.402726
2378.000000	0.399567
2379.000000	0.394940
2380.000000	0.391542
2381.000000	0.388174
2382.000000	0.383812
2383.000000	0.384912
2384.000000	0.386143
2385.000000	0.384633
2386.000000	0.386714
2387.000000	0.384410
2388.000000	0.377714
2389.000000	0.373975
2390.000000	0.370389
2391.000000	0.368198
2392.000000	0.369662
2393.000000	0.372050
2394.000000	0.375772
2395.000000	0.379711
2396.000000	0.382560
2397.000000	0.384583
2398.000000	0.384401
2399.000000	0.386872
2400.000000	0.387996
2401.000000	0.387941
2402.000000	0.389062
2403.000000	0.386989
2404.000000	0.386178
2405.000000	0.384611
2406.000000	0.386692
2407.000000	0.389922
2408.000000	0.389976
2409.000000	0.395613
2410.000000	0.397807
2411.000000	0.395034
2412.000000	0.395433
2413.000000	0.391374
2414.000000	0.384317
2415.000000	0.381276
2416.000000	0.380334
2417.000000	0.382131
2418.000000	0.385540
2419.000000	0.387241
2420.000000	0.385444
2421.000000	0.379691
2422.000000	0.379346
2423.000000	0.385790
2424.000000	0.389909
2425.000000	0.392865
2426.000000	0.390022
2427.000000	0.378901
2428.000000	0.368222
2429.000000	0.362936
2430.000000	0.362541
2431.000000	0.361325
2432.000000	0.356362
2433.000000	0.351896
2434.000000	0.346832
2435.000000	0.345852
2436.000000	0.352361
2437.000000	0.362603
2438.000000	0.374844
2439.000000	0.371277
2440.000000	0.363939
2441.000000	0.358571
2442.000000	0.346225
2443.000000	0.343004
2444.000000	0.342320
2445.000000	0.337268
2446.000000	0.331466
2447.000000	0.328268
2448.000000	0.324981
2449.000000	0.329731
2450.000000	0.336966
2451.000000	0.336676
2452.000000	0.344429
2453.000000	0.341259
2454.000000	0.332591
2455.000000	0.331129
2456.000000	0.331024
2457.000000	0.335203
2458.000000	0.334880
2459.000000	0.340110
2460.000000	0.337460
2461.000000	0.325273
2462.000000	0.324423
2463.000000	0.309507
2464.000000	0.302801
2465.000000	0.317121
2466.000000	0.317877
2467.000000	0.324170
2468.000000	0.325832
2469.000000	0.303266
2470.000000	0.290777
2471.000000	0.283341
2472.000000	0.279347
2473.000000	0.292777
2474.000000	0.301389
2475.000000	0.308949
2476.000000	0.317745
2477.000000	0.319605
2478.000000	0.321993
2479.000000	0.320737
2480.000000	0.319870
2481.000000	0.324635
2482.000000	0.327623
2483.000000	0.322762
2484.000000	0.324365
2485.000000	0.320929
2486.000000	0.301874
2487.000000	0.319812
2488.000000	0.344937
2489.000000	0.320097
2490.000000	0.326834
2491.000000	0.309707
2492.000000	0.292307
2493.000000	0.319126
2494.000000	0.320215
2495.000000	0.300062
2496.000000	0.267627
2497.000000	0.195130
2498.000000	0.166316
2499.000000	0.146303
2500.000000	0.143411
