# Wavelength	SM1200H-20_HEX-30_FV7-50_00000.asd.rts.txt
350.000000	0.243051
351.000000	0.225289
352.000000	0.224901
353.000000	0.225582
354.000000	0.220675
355.000000	0.226342
356.000000	0.224965
357.000000	0.221630
358.000000	0.234021
359.000000	0.238006
360.000000	0.233852
361.000000	0.227457
362.000000	0.223709
363.000000	0.222900
364.000000	0.225151
365.000000	0.236591
366.000000	0.237405
367.000000	0.229897
368.000000	0.236621
369.000000	0.234490
370.000000	0.228735
371.000000	0.230569
372.000000	0.228530
373.000000	0.227031
374.000000	0.229360
375.000000	0.230006
376.000000	0.229941
377.000000	0.230200
378.000000	0.232608
379.000000	0.229138
380.000000	0.225461
381.000000	0.230676
382.000000	0.236250
383.000000	0.236294
384.000000	0.230486
385.000000	0.230172
386.000000	0.231833
387.000000	0.233477
388.000000	0.234314
389.000000	0.233051
390.000000	0.232066
391.000000	0.234195
392.000000	0.234351
393.000000	0.233555
394.000000	0.233398
395.000000	0.234392
396.000000	0.235899
397.000000	0.237331
398.000000	0.238360
399.000000	0.237896
400.000000	0.236895
401.000000	0.237065
402.000000	0.237893
403.000000	0.238836
404.000000	0.239551
405.000000	0.239741
406.000000	0.240119
407.000000	0.240930
408.000000	0.241677
409.000000	0.241150
410.000000	0.240125
411.000000	0.240535
412.000000	0.241086
413.000000	0.241514
414.000000	0.241850
415.000000	0.242385
416.000000	0.242592
417.000000	0.242409
418.000000	0.242951
419.000000	0.243173
420.000000	0.243090
421.000000	0.243574
422.000000	0.244466
423.000000	0.245311
424.000000	0.245677
425.000000	0.245718
426.000000	0.245846
427.000000	0.246283
428.000000	0.246771
429.000000	0.246898
430.000000	0.246731
431.000000	0.246910
432.000000	0.247598
433.000000	0.248167
434.000000	0.247753
435.000000	0.247673
436.000000	0.247727
437.000000	0.247635
438.000000	0.248361
439.000000	0.249099
440.000000	0.249429
441.000000	0.249379
442.000000	0.249278
443.000000	0.249324
444.000000	0.249802
445.000000	0.249968
446.000000	0.250032
447.000000	0.250264
448.000000	0.250722
449.000000	0.251125
450.000000	0.251346
451.000000	0.251789
452.000000	0.251843
453.000000	0.251593
454.000000	0.252203
455.000000	0.252705
456.000000	0.252961
457.000000	0.252980
458.000000	0.252985
459.000000	0.253182
460.000000	0.253645
461.000000	0.253713
462.000000	0.253872
463.000000	0.254181
464.000000	0.254385
465.000000	0.254810
466.000000	0.255324
467.000000	0.255629
468.000000	0.255264
469.000000	0.254945
470.000000	0.255604
471.000000	0.255924
472.000000	0.256047
473.000000	0.256230
474.000000	0.256553
475.000000	0.256635
476.000000	0.256632
477.000000	0.256954
478.000000	0.257157
479.000000	0.257311
480.000000	0.257345
481.000000	0.257610
482.000000	0.258033
483.000000	0.258289
484.000000	0.258651
485.000000	0.258797
486.000000	0.258826
487.000000	0.259023
488.000000	0.259279
489.000000	0.259562
490.000000	0.259847
491.000000	0.260055
492.000000	0.260329
493.000000	0.260672
494.000000	0.260718
495.000000	0.260929
496.000000	0.261470
497.000000	0.261622
498.000000	0.261884
499.000000	0.262397
500.000000	0.262704
501.000000	0.262741
502.000000	0.262840
503.000000	0.263402
504.000000	0.263609
505.000000	0.263651
506.000000	0.263845
507.000000	0.264082
508.000000	0.264350
509.000000	0.264604
510.000000	0.264871
511.000000	0.265174
512.000000	0.265524
513.000000	0.265852
514.000000	0.266181
515.000000	0.266495
516.000000	0.266717
517.000000	0.266984
518.000000	0.267321
519.000000	0.267629
520.000000	0.267847
521.000000	0.268061
522.000000	0.268311
523.000000	0.268537
524.000000	0.268868
525.000000	0.269242
526.000000	0.269541
527.000000	0.269730
528.000000	0.269874
529.000000	0.270105
530.000000	0.270385
531.000000	0.270688
532.000000	0.270944
533.000000	0.271350
534.000000	0.271611
535.000000	0.271732
536.000000	0.272063
537.000000	0.272369
538.000000	0.272595
539.000000	0.272741
540.000000	0.272922
541.000000	0.273142
542.000000	0.273408
543.000000	0.273651
544.000000	0.273976
545.000000	0.274326
546.000000	0.274564
547.000000	0.274820
548.000000	0.275146
549.000000	0.275450
550.000000	0.275775
551.000000	0.276078
552.000000	0.276272
553.000000	0.276579
554.000000	0.276924
555.000000	0.277239
556.000000	0.277563
557.000000	0.277823
558.000000	0.278124
559.000000	0.278443
560.000000	0.278756
561.000000	0.279110
562.000000	0.279436
563.000000	0.279729
564.000000	0.280016
565.000000	0.280233
566.000000	0.280530
567.000000	0.280851
568.000000	0.281134
569.000000	0.281413
570.000000	0.281650
571.000000	0.281870
572.000000	0.282192
573.000000	0.282521
574.000000	0.282846
575.000000	0.283226
576.000000	0.283549
577.000000	0.283796
578.000000	0.284042
579.000000	0.284315
580.000000	0.284612
581.000000	0.284912
582.000000	0.285174
583.000000	0.285371
584.000000	0.285557
585.000000	0.285844
586.000000	0.286129
587.000000	0.286378
588.000000	0.286601
589.000000	0.286965
590.000000	0.287309
591.000000	0.287532
592.000000	0.287735
593.000000	0.288004
594.000000	0.288324
595.000000	0.288587
596.000000	0.288778
597.000000	0.288977
598.000000	0.289192
599.000000	0.289259
600.000000	0.289393
601.000000	0.289684
602.000000	0.289909
603.000000	0.290117
604.000000	0.290342
605.000000	0.290554
606.000000	0.290721
607.000000	0.290860
608.000000	0.291020
609.000000	0.291158
610.000000	0.291294
611.000000	0.291453
612.000000	0.291608
613.000000	0.291745
614.000000	0.291899
615.000000	0.292069
616.000000	0.292229
617.000000	0.292370
618.000000	0.292604
619.000000	0.292754
620.000000	0.292849
621.000000	0.293044
622.000000	0.293164
623.000000	0.293257
624.000000	0.293370
625.000000	0.293393
626.000000	0.293421
627.000000	0.293532
628.000000	0.293805
629.000000	0.293998
630.000000	0.294037
631.000000	0.294220
632.000000	0.294387
633.000000	0.294526
634.000000	0.294641
635.000000	0.294793
636.000000	0.294957
637.000000	0.295091
638.000000	0.295191
639.000000	0.295317
640.000000	0.295492
641.000000	0.295547
642.000000	0.295613
643.000000	0.295745
644.000000	0.295965
645.000000	0.296224
646.000000	0.296414
647.000000	0.296477
648.000000	0.296672
649.000000	0.296836
650.000000	0.296927
651.000000	0.297111
652.000000	0.297254
653.000000	0.297343
654.000000	0.297341
655.000000	0.297478
656.000000	0.297689
657.000000	0.297829
658.000000	0.297996
659.000000	0.298200
660.000000	0.298421
661.000000	0.298663
662.000000	0.298798
663.000000	0.298900
664.000000	0.299059
665.000000	0.299204
666.000000	0.299386
667.000000	0.299613
668.000000	0.299687
669.000000	0.299787
670.000000	0.299996
671.000000	0.300113
672.000000	0.300282
673.000000	0.300494
674.000000	0.300635
675.000000	0.300755
676.000000	0.300877
677.000000	0.301031
678.000000	0.301174
679.000000	0.301307
680.000000	0.301442
681.000000	0.301561
682.000000	0.301744
683.000000	0.301919
684.000000	0.302078
685.000000	0.302204
686.000000	0.302340
687.000000	0.302490
688.000000	0.302611
689.000000	0.302754
690.000000	0.302966
691.000000	0.303112
692.000000	0.303238
693.000000	0.303410
694.000000	0.303538
695.000000	0.303680
696.000000	0.303831
697.000000	0.303966
698.000000	0.304143
699.000000	0.304317
700.000000	0.304466
701.000000	0.304637
702.000000	0.304825
703.000000	0.305003
704.000000	0.305166
705.000000	0.305313
706.000000	0.305440
707.000000	0.305640
708.000000	0.305845
709.000000	0.305995
710.000000	0.306084
711.000000	0.306180
712.000000	0.306305
713.000000	0.306469
714.000000	0.306615
715.000000	0.306706
716.000000	0.306784
717.000000	0.306900
718.000000	0.307036
719.000000	0.307203
720.000000	0.307415
721.000000	0.307641
722.000000	0.307793
723.000000	0.307906
724.000000	0.307981
725.000000	0.308054
726.000000	0.308182
727.000000	0.308266
728.000000	0.308352
729.000000	0.308466
730.000000	0.308562
731.000000	0.308638
732.000000	0.308741
733.000000	0.308894
734.000000	0.308969
735.000000	0.308991
736.000000	0.309123
737.000000	0.309308
738.000000	0.309420
739.000000	0.309590
740.000000	0.309734
741.000000	0.309772
742.000000	0.309799
743.000000	0.309827
744.000000	0.309857
745.000000	0.309895
746.000000	0.310009
747.000000	0.310164
748.000000	0.310245
749.000000	0.310344
750.000000	0.310478
751.000000	0.310548
752.000000	0.310610
753.000000	0.310680
754.000000	0.310720
755.000000	0.310739
756.000000	0.310769
757.000000	0.310786
758.000000	0.310762
759.000000	0.310801
760.000000	0.310878
761.000000	0.310967
762.000000	0.311068
763.000000	0.311153
764.000000	0.311255
765.000000	0.311300
766.000000	0.311365
767.000000	0.311511
768.000000	0.311626
769.000000	0.311719
770.000000	0.311789
771.000000	0.311791
772.000000	0.311865
773.000000	0.311952
774.000000	0.312044
775.000000	0.312073
776.000000	0.312115
777.000000	0.312194
778.000000	0.312199
779.000000	0.312199
780.000000	0.312218
781.000000	0.312218
782.000000	0.312259
783.000000	0.312400
784.000000	0.312505
785.000000	0.312601
786.000000	0.312671
787.000000	0.312702
788.000000	0.312696
789.000000	0.312742
790.000000	0.312810
791.000000	0.312855
792.000000	0.312856
793.000000	0.312841
794.000000	0.312839
795.000000	0.312803
796.000000	0.312800
797.000000	0.312846
798.000000	0.312918
799.000000	0.312989
800.000000	0.313070
801.000000	0.313170
802.000000	0.313170
803.000000	0.313141
804.000000	0.313163
805.000000	0.313198
806.000000	0.313200
807.000000	0.313193
808.000000	0.313089
809.000000	0.313053
810.000000	0.313063
811.000000	0.313061
812.000000	0.313038
813.000000	0.313096
814.000000	0.313202
815.000000	0.313230
816.000000	0.313247
817.000000	0.313217
818.000000	0.313053
819.000000	0.313079
820.000000	0.313103
821.000000	0.313003
822.000000	0.312934
823.000000	0.312947
824.000000	0.312994
825.000000	0.313092
826.000000	0.313064
827.000000	0.312978
828.000000	0.312942
829.000000	0.312926
830.000000	0.312954
831.000000	0.313032
832.000000	0.312991
833.000000	0.312956
834.000000	0.312920
835.000000	0.312895
836.000000	0.312873
837.000000	0.312810
838.000000	0.312714
839.000000	0.312589
840.000000	0.312494
841.000000	0.312444
842.000000	0.312409
843.000000	0.312460
844.000000	0.312452
845.000000	0.312336
846.000000	0.312248
847.000000	0.312249
848.000000	0.312263
849.000000	0.312206
850.000000	0.311990
851.000000	0.311826
852.000000	0.311816
853.000000	0.311783
854.000000	0.311750
855.000000	0.311799
856.000000	0.311821
857.000000	0.311732
858.000000	0.311685
859.000000	0.311643
860.000000	0.311472
861.000000	0.311394
862.000000	0.311384
863.000000	0.311270
864.000000	0.311240
865.000000	0.311271
866.000000	0.311305
867.000000	0.311168
868.000000	0.311034
869.000000	0.310880
870.000000	0.310745
871.000000	0.310740
872.000000	0.310710
873.000000	0.310509
874.000000	0.310262
875.000000	0.309998
876.000000	0.309827
877.000000	0.309779
878.000000	0.309644
879.000000	0.309531
880.000000	0.309357
881.000000	0.309087
882.000000	0.308969
883.000000	0.308898
884.000000	0.308607
885.000000	0.308489
886.000000	0.308364
887.000000	0.308147
888.000000	0.307919
889.000000	0.307891
890.000000	0.307849
891.000000	0.307675
892.000000	0.307451
893.000000	0.307262
894.000000	0.307237
895.000000	0.307201
896.000000	0.306952
897.000000	0.306657
898.000000	0.306549
899.000000	0.306349
900.000000	0.306170
901.000000	0.306032
902.000000	0.305923
903.000000	0.305719
904.000000	0.305500
905.000000	0.305279
906.000000	0.305090
907.000000	0.304987
908.000000	0.304947
909.000000	0.304693
910.000000	0.304444
911.000000	0.304243
912.000000	0.304101
913.000000	0.303999
914.000000	0.303748
915.000000	0.303462
916.000000	0.303307
917.000000	0.303001
918.000000	0.302694
919.000000	0.302479
920.000000	0.302189
921.000000	0.302005
922.000000	0.301901
923.000000	0.301719
924.000000	0.301451
925.000000	0.301130
926.000000	0.300850
927.000000	0.300681
928.000000	0.300360
929.000000	0.300093
930.000000	0.300127
931.000000	0.299978
932.000000	0.299753
933.000000	0.299517
934.000000	0.299157
935.000000	0.298852
936.000000	0.298713
937.000000	0.298592
938.000000	0.298033
939.000000	0.297764
940.000000	0.297729
941.000000	0.297552
942.000000	0.297238
943.000000	0.297023
944.000000	0.296882
945.000000	0.296699
946.000000	0.296371
947.000000	0.296106
948.000000	0.296041
949.000000	0.295850
950.000000	0.295580
951.000000	0.295292
952.000000	0.295155
953.000000	0.295002
954.000000	0.294579
955.000000	0.293909
956.000000	0.294044
957.000000	0.294097
958.000000	0.293799
959.000000	0.293343
960.000000	0.293099
961.000000	0.292936
962.000000	0.292726
963.000000	0.292460
964.000000	0.292325
965.000000	0.292201
966.000000	0.291888
967.000000	0.291663
968.000000	0.291522
969.000000	0.291384
970.000000	0.291256
971.000000	0.291097
972.000000	0.290823
973.000000	0.290400
974.000000	0.290039
975.000000	0.289783
976.000000	0.289496
977.000000	0.289122
978.000000	0.288993
979.000000	0.288986
980.000000	0.288790
981.000000	0.288561
982.000000	0.288604
983.000000	0.288478
984.000000	0.288195
985.000000	0.288122
986.000000	0.287869
987.000000	0.287617
988.000000	0.287394
989.000000	0.287043
990.000000	0.286900
991.000000	0.286806
992.000000	0.286572
993.000000	0.286470
994.000000	0.286502
995.000000	0.286551
996.000000	0.286109
997.000000	0.285756
998.000000	0.285679
999.000000	0.285938
1000.000000	0.286236
1001.000000	0.286370
1002.000000	0.285840
1003.000000	0.285643
1004.000000	0.285355
1005.000000	0.285007
1006.000000	0.284531
1007.000000	0.284030
1008.000000	0.283494
1009.000000	0.283241
1010.000000	0.282519
1011.000000	0.282698
1012.000000	0.283677
1013.000000	0.284164
1014.000000	0.284331
1015.000000	0.283730
1016.000000	0.283006
1017.000000	0.282549
1018.000000	0.282363
1019.000000	0.282375
1020.000000	0.283185
1021.000000	0.283222
1022.000000	0.283121
1023.000000	0.283277
1024.000000	0.283393
1025.000000	0.283516
1026.000000	0.283279
1027.000000	0.282883
1028.000000	0.282463
1029.000000	0.282263
1030.000000	0.282226
1031.000000	0.282204
1032.000000	0.282014
1033.000000	0.281587
1034.000000	0.281625
1035.000000	0.282174
1036.000000	0.282168
1037.000000	0.281837
1038.000000	0.282106
1039.000000	0.282722
1040.000000	0.282783
1041.000000	0.282850
1042.000000	0.282970
1043.000000	0.282795
1044.000000	0.282561
1045.000000	0.282872
1046.000000	0.283381
1047.000000	0.283478
1048.000000	0.282849
1049.000000	0.283071
1050.000000	0.283710
1051.000000	0.284074
1052.000000	0.284744
1053.000000	0.284925
1054.000000	0.285040
1055.000000	0.285092
1056.000000	0.285085
1057.000000	0.284724
1058.000000	0.284420
1059.000000	0.283944
1060.000000	0.283993
1061.000000	0.284607
1062.000000	0.285373
1063.000000	0.285981
1064.000000	0.286368
1065.000000	0.286372
1066.000000	0.286699
1067.000000	0.287056
1068.000000	0.287222
1069.000000	0.287445
1070.000000	0.287532
1071.000000	0.287261
1072.000000	0.287284
1073.000000	0.287445
1074.000000	0.287636
1075.000000	0.288099
1076.000000	0.288940
1077.000000	0.289144
1078.000000	0.289275
1079.000000	0.289469
1080.000000	0.289393
1081.000000	0.289351
1082.000000	0.289569
1083.000000	0.289667
1084.000000	0.289326
1085.000000	0.289564
1086.000000	0.290314
1087.000000	0.290768
1088.000000	0.291366
1089.000000	0.291678
1090.000000	0.291671
1091.000000	0.291693
1092.000000	0.291513
1093.000000	0.291617
1094.000000	0.291667
1095.000000	0.291609
1096.000000	0.291770
1097.000000	0.292110
1098.000000	0.292381
1099.000000	0.292728
1100.000000	0.293052
1101.000000	0.293163
1102.000000	0.293490
1103.000000	0.294129
1104.000000	0.294428
1105.000000	0.294646
1106.000000	0.294859
1107.000000	0.294664
1108.000000	0.294673
1109.000000	0.294930
1110.000000	0.295161
1111.000000	0.295291
1112.000000	0.295403
1113.000000	0.295554
1114.000000	0.295608
1115.000000	0.295811
1116.000000	0.296152
1117.000000	0.296412
1118.000000	0.296834
1119.000000	0.296864
1120.000000	0.296520
1121.000000	0.296518
1122.000000	0.296419
1123.000000	0.296719
1124.000000	0.297387
1125.000000	0.297791
1126.000000	0.298040
1127.000000	0.298298
1128.000000	0.298505
1129.000000	0.298678
1130.000000	0.298749
1131.000000	0.298804
1132.000000	0.298810
1133.000000	0.298612
1134.000000	0.298738
1135.000000	0.299122
1136.000000	0.299165
1137.000000	0.299183
1138.000000	0.299120
1139.000000	0.298769
1140.000000	0.298757
1141.000000	0.298929
1142.000000	0.299019
1143.000000	0.299167
1144.000000	0.299331
1145.000000	0.299259
1146.000000	0.299131
1147.000000	0.299227
1148.000000	0.299326
1149.000000	0.299391
1150.000000	0.299619
1151.000000	0.299724
1152.000000	0.299552
1153.000000	0.299693
1154.000000	0.300059
1155.000000	0.300172
1156.000000	0.300276
1157.000000	0.300368
1158.000000	0.300251
1159.000000	0.300200
1160.000000	0.300223
1161.000000	0.300217
1162.000000	0.300267
1163.000000	0.300284
1164.000000	0.300314
1165.000000	0.300379
1166.000000	0.300364
1167.000000	0.300217
1168.000000	0.300216
1169.000000	0.300221
1170.000000	0.300309
1171.000000	0.300656
1172.000000	0.300739
1173.000000	0.300672
1174.000000	0.300674
1175.000000	0.300523
1176.000000	0.300448
1177.000000	0.300572
1178.000000	0.300590
1179.000000	0.300455
1180.000000	0.300418
1181.000000	0.300553
1182.000000	0.300588
1183.000000	0.300526
1184.000000	0.300797
1185.000000	0.300883
1186.000000	0.300882
1187.000000	0.300836
1188.000000	0.300818
1189.000000	0.300688
1190.000000	0.300436
1191.000000	0.300324
1192.000000	0.300262
1193.000000	0.300374
1194.000000	0.300571
1195.000000	0.300643
1196.000000	0.300698
1197.000000	0.300745
1198.000000	0.300684
1199.000000	0.300708
1200.000000	0.300809
1201.000000	0.300877
1202.000000	0.300948
1203.000000	0.300975
1204.000000	0.300867
1205.000000	0.300938
1206.000000	0.300947
1207.000000	0.301035
1208.000000	0.301009
1209.000000	0.301045
1210.000000	0.300991
1211.000000	0.300793
1212.000000	0.300728
1213.000000	0.300727
1214.000000	0.300768
1215.000000	0.300934
1216.000000	0.300933
1217.000000	0.300832
1218.000000	0.300761
1219.000000	0.300596
1220.000000	0.300526
1221.000000	0.300622
1222.000000	0.300640
1223.000000	0.300745
1224.000000	0.300833
1225.000000	0.300796
1226.000000	0.300732
1227.000000	0.300554
1228.000000	0.300483
1229.000000	0.300380
1230.000000	0.300235
1231.000000	0.300153
1232.000000	0.300227
1233.000000	0.300314
1234.000000	0.300495
1235.000000	0.300545
1236.000000	0.300412
1237.000000	0.300431
1238.000000	0.300436
1239.000000	0.300418
1240.000000	0.300446
1241.000000	0.300478
1242.000000	0.300527
1243.000000	0.300383
1244.000000	0.300379
1245.000000	0.300495
1246.000000	0.300286
1247.000000	0.300287
1248.000000	0.300420
1249.000000	0.300318
1250.000000	0.300459
1251.000000	0.300725
1252.000000	0.300779
1253.000000	0.300761
1254.000000	0.300780
1255.000000	0.300647
1256.000000	0.300612
1257.000000	0.300700
1258.000000	0.300792
1259.000000	0.300891
1260.000000	0.300933
1261.000000	0.300818
1262.000000	0.300793
1263.000000	0.300756
1264.000000	0.300781
1265.000000	0.300934
1266.000000	0.301016
1267.000000	0.300897
1268.000000	0.300839
1269.000000	0.300751
1270.000000	0.300643
1271.000000	0.300558
1272.000000	0.300506
1273.000000	0.300526
1274.000000	0.300472
1275.000000	0.300358
1276.000000	0.300246
1277.000000	0.300236
1278.000000	0.300070
1279.000000	0.300022
1280.000000	0.300114
1281.000000	0.300066
1282.000000	0.299974
1283.000000	0.299946
1284.000000	0.299801
1285.000000	0.299767
1286.000000	0.299724
1287.000000	0.299827
1288.000000	0.299969
1289.000000	0.300033
1290.000000	0.300003
1291.000000	0.299945
1292.000000	0.299939
1293.000000	0.299990
1294.000000	0.300046
1295.000000	0.300056
1296.000000	0.299944
1297.000000	0.299933
1298.000000	0.299920
1299.000000	0.299799
1300.000000	0.299933
1301.000000	0.299985
1302.000000	0.299917
1303.000000	0.299957
1304.000000	0.299845
1305.000000	0.299571
1306.000000	0.299507
1307.000000	0.299556
1308.000000	0.299606
1309.000000	0.299772
1310.000000	0.299831
1311.000000	0.299924
1312.000000	0.299801
1313.000000	0.299621
1314.000000	0.299542
1315.000000	0.299222
1316.000000	0.299156
1317.000000	0.299260
1318.000000	0.299158
1319.000000	0.299130
1320.000000	0.299160
1321.000000	0.299101
1322.000000	0.299160
1323.000000	0.299235
1324.000000	0.299215
1325.000000	0.299162
1326.000000	0.299037
1327.000000	0.298960
1328.000000	0.299036
1329.000000	0.298943
1330.000000	0.298819
1331.000000	0.298700
1332.000000	0.298552
1333.000000	0.298373
1334.000000	0.298225
1335.000000	0.298171
1336.000000	0.298105
1337.000000	0.298060
1338.000000	0.298031
1339.000000	0.298046
1340.000000	0.298053
1341.000000	0.297943
1342.000000	0.297864
1343.000000	0.297900
1344.000000	0.297907
1345.000000	0.297933
1346.000000	0.298067
1347.000000	0.298020
1348.000000	0.297829
1349.000000	0.297573
1350.000000	0.297424
1351.000000	0.297221
1352.000000	0.296932
1353.000000	0.296733
1354.000000	0.296680
1355.000000	0.296561
1356.000000	0.296444
1357.000000	0.296303
1358.000000	0.295988
1359.000000	0.295754
1360.000000	0.295674
1361.000000	0.295911
1362.000000	0.295906
1363.000000	0.295926
1364.000000	0.295777
1365.000000	0.295339
1366.000000	0.295118
1367.000000	0.294921
1368.000000	0.294699
1369.000000	0.294705
1370.000000	0.294708
1371.000000	0.294485
1372.000000	0.294310
1373.000000	0.294215
1374.000000	0.294064
1375.000000	0.293924
1376.000000	0.293775
1377.000000	0.293482
1378.000000	0.293102
1379.000000	0.292773
1380.000000	0.292489
1381.000000	0.292061
1382.000000	0.291537
1383.000000	0.290967
1384.000000	0.290281
1385.000000	0.289667
1386.000000	0.289215
1387.000000	0.288663
1388.000000	0.288087
1389.000000	0.287585
1390.000000	0.287071
1391.000000	0.286868
1392.000000	0.286866
1393.000000	0.286768
1394.000000	0.286869
1395.000000	0.286859
1396.000000	0.286723
1397.000000	0.286568
1398.000000	0.286391
1399.000000	0.286187
1400.000000	0.285911
1401.000000	0.285642
1402.000000	0.285419
1403.000000	0.285121
1404.000000	0.284986
1405.000000	0.284692
1406.000000	0.284254
1407.000000	0.283975
1408.000000	0.283582
1409.000000	0.283186
1410.000000	0.282951
1411.000000	0.282532
1412.000000	0.282068
1413.000000	0.281794
1414.000000	0.281505
1415.000000	0.281267
1416.000000	0.281014
1417.000000	0.280675
1418.000000	0.280337
1419.000000	0.280114
1420.000000	0.279824
1421.000000	0.279571
1422.000000	0.279408
1423.000000	0.279303
1424.000000	0.279072
1425.000000	0.278808
1426.000000	0.278564
1427.000000	0.278283
1428.000000	0.278024
1429.000000	0.277764
1430.000000	0.277426
1431.000000	0.277257
1432.000000	0.277099
1433.000000	0.277069
1434.000000	0.276934
1435.000000	0.276877
1436.000000	0.276724
1437.000000	0.276482
1438.000000	0.276301
1439.000000	0.276168
1440.000000	0.276015
1441.000000	0.275872
1442.000000	0.275769
1443.000000	0.275628
1444.000000	0.275477
1445.000000	0.275374
1446.000000	0.275247
1447.000000	0.275088
1448.000000	0.274923
1449.000000	0.274669
1450.000000	0.274398
1451.000000	0.274236
1452.000000	0.274057
1453.000000	0.273923
1454.000000	0.273771
1455.000000	0.273474
1456.000000	0.273300
1457.000000	0.273217
1458.000000	0.273159
1459.000000	0.273294
1460.000000	0.273389
1461.000000	0.273380
1462.000000	0.273324
1463.000000	0.273122
1464.000000	0.272967
1465.000000	0.272876
1466.000000	0.272798
1467.000000	0.272796
1468.000000	0.272752
1469.000000	0.272726
1470.000000	0.272730
1471.000000	0.272763
1472.000000	0.272809
1473.000000	0.273011
1474.000000	0.273134
1475.000000	0.273187
1476.000000	0.273302
1477.000000	0.273427
1478.000000	0.273558
1479.000000	0.273701
1480.000000	0.273806
1481.000000	0.273854
1482.000000	0.273762
1483.000000	0.273902
1484.000000	0.274135
1485.000000	0.274377
1486.000000	0.274789
1487.000000	0.275046
1488.000000	0.275223
1489.000000	0.275450
1490.000000	0.275503
1491.000000	0.275669
1492.000000	0.275869
1493.000000	0.276110
1494.000000	0.276388
1495.000000	0.276610
1496.000000	0.276810
1497.000000	0.277023
1498.000000	0.277221
1499.000000	0.277466
1500.000000	0.277614
1501.000000	0.277756
1502.000000	0.277870
1503.000000	0.277944
1504.000000	0.278208
1505.000000	0.278445
1506.000000	0.278551
1507.000000	0.278622
1508.000000	0.278655
1509.000000	0.278744
1510.000000	0.278904
1511.000000	0.279079
1512.000000	0.279165
1513.000000	0.279186
1514.000000	0.279261
1515.000000	0.279291
1516.000000	0.279370
1517.000000	0.279463
1518.000000	0.279571
1519.000000	0.279663
1520.000000	0.279720
1521.000000	0.279779
1522.000000	0.279834
1523.000000	0.279869
1524.000000	0.279882
1525.000000	0.279906
1526.000000	0.279830
1527.000000	0.279832
1528.000000	0.279951
1529.000000	0.279973
1530.000000	0.279974
1531.000000	0.280017
1532.000000	0.279985
1533.000000	0.279963
1534.000000	0.280046
1535.000000	0.280149
1536.000000	0.280173
1537.000000	0.280208
1538.000000	0.280189
1539.000000	0.280112
1540.000000	0.280196
1541.000000	0.280391
1542.000000	0.280530
1543.000000	0.280627
1544.000000	0.280642
1545.000000	0.280673
1546.000000	0.280778
1547.000000	0.280847
1548.000000	0.280850
1549.000000	0.280833
1550.000000	0.280812
1551.000000	0.280809
1552.000000	0.280899
1553.000000	0.280987
1554.000000	0.280988
1555.000000	0.280948
1556.000000	0.280868
1557.000000	0.280789
1558.000000	0.280787
1559.000000	0.280773
1560.000000	0.280822
1561.000000	0.281028
1562.000000	0.281088
1563.000000	0.281162
1564.000000	0.281172
1565.000000	0.281105
1566.000000	0.280969
1567.000000	0.280812
1568.000000	0.280785
1569.000000	0.280828
1570.000000	0.280845
1571.000000	0.280953
1572.000000	0.280980
1573.000000	0.280966
1574.000000	0.280956
1575.000000	0.280978
1576.000000	0.280921
1577.000000	0.280780
1578.000000	0.280636
1579.000000	0.280438
1580.000000	0.280431
1581.000000	0.280627
1582.000000	0.280651
1583.000000	0.280698
1584.000000	0.280685
1585.000000	0.280589
1586.000000	0.280584
1587.000000	0.280646
1588.000000	0.280719
1589.000000	0.280820
1590.000000	0.280875
1591.000000	0.280994
1592.000000	0.281018
1593.000000	0.280972
1594.000000	0.280976
1595.000000	0.281000
1596.000000	0.281051
1597.000000	0.281119
1598.000000	0.281211
1599.000000	0.281449
1600.000000	0.281465
1601.000000	0.281454
1602.000000	0.281473
1603.000000	0.281376
1604.000000	0.281345
1605.000000	0.281492
1606.000000	0.281433
1607.000000	0.281267
1608.000000	0.281214
1609.000000	0.281120
1610.000000	0.281100
1611.000000	0.281248
1612.000000	0.281239
1613.000000	0.281269
1614.000000	0.281299
1615.000000	0.281333
1616.000000	0.281379
1617.000000	0.281374
1618.000000	0.281417
1619.000000	0.281454
1620.000000	0.281492
1621.000000	0.281646
1622.000000	0.281694
1623.000000	0.281609
1624.000000	0.281571
1625.000000	0.281353
1626.000000	0.281277
1627.000000	0.281307
1628.000000	0.281346
1629.000000	0.281453
1630.000000	0.281530
1631.000000	0.281529
1632.000000	0.281516
1633.000000	0.281501
1634.000000	0.281544
1635.000000	0.281596
1636.000000	0.281725
1637.000000	0.282022
1638.000000	0.282107
1639.000000	0.282225
1640.000000	0.282222
1641.000000	0.282051
1642.000000	0.282026
1643.000000	0.282006
1644.000000	0.282056
1645.000000	0.282266
1646.000000	0.282264
1647.000000	0.282189
1648.000000	0.282266
1649.000000	0.282404
1650.000000	0.282521
1651.000000	0.282796
1652.000000	0.282957
1653.000000	0.282952
1654.000000	0.283045
1655.000000	0.283160
1656.000000	0.283180
1657.000000	0.283179
1658.000000	0.283222
1659.000000	0.283375
1660.000000	0.283460
1661.000000	0.283498
1662.000000	0.283487
1663.000000	0.283391
1664.000000	0.283325
1665.000000	0.283177
1666.000000	0.283248
1667.000000	0.283340
1668.000000	0.283380
1669.000000	0.283522
1670.000000	0.283553
1671.000000	0.283590
1672.000000	0.283625
1673.000000	0.283604
1674.000000	0.283500
1675.000000	0.283634
1676.000000	0.283820
1677.000000	0.283905
1678.000000	0.283967
1679.000000	0.284022
1680.000000	0.283936
1681.000000	0.283867
1682.000000	0.284009
1683.000000	0.284060
1684.000000	0.283978
1685.000000	0.284139
1686.000000	0.284170
1687.000000	0.283971
1688.000000	0.283892
1689.000000	0.283932
1690.000000	0.283926
1691.000000	0.284045
1692.000000	0.284146
1693.000000	0.284069
1694.000000	0.284036
1695.000000	0.284171
1696.000000	0.284293
1697.000000	0.284359
1698.000000	0.284480
1699.000000	0.284491
1700.000000	0.284343
1701.000000	0.284411
1702.000000	0.284448
1703.000000	0.284312
1704.000000	0.284226
1705.000000	0.284201
1706.000000	0.284053
1707.000000	0.283999
1708.000000	0.284093
1709.000000	0.284120
1710.000000	0.284193
1711.000000	0.284266
1712.000000	0.284400
1713.000000	0.284508
1714.000000	0.284585
1715.000000	0.284723
1716.000000	0.284995
1717.000000	0.285108
1718.000000	0.285139
1719.000000	0.285135
1720.000000	0.285059
1721.000000	0.285004
1722.000000	0.284926
1723.000000	0.284920
1724.000000	0.284985
1725.000000	0.284986
1726.000000	0.284971
1727.000000	0.284866
1728.000000	0.284533
1729.000000	0.284359
1730.000000	0.284304
1731.000000	0.284315
1732.000000	0.284519
1733.000000	0.284567
1734.000000	0.284449
1735.000000	0.284418
1736.000000	0.284279
1737.000000	0.284255
1738.000000	0.284389
1739.000000	0.284355
1740.000000	0.284232
1741.000000	0.284182
1742.000000	0.284062
1743.000000	0.284177
1744.000000	0.284458
1745.000000	0.284527
1746.000000	0.284629
1747.000000	0.284498
1748.000000	0.284397
1749.000000	0.284339
1750.000000	0.284248
1751.000000	0.284154
1752.000000	0.284297
1753.000000	0.284557
1754.000000	0.284662
1755.000000	0.284828
1756.000000	0.284859
1757.000000	0.284562
1758.000000	0.284501
1759.000000	0.284521
1760.000000	0.284551
1761.000000	0.284629
1762.000000	0.284741
1763.000000	0.284959
1764.000000	0.285061
1765.000000	0.285162
1766.000000	0.285192
1767.000000	0.284891
1768.000000	0.284897
1769.000000	0.285246
1770.000000	0.285320
1771.000000	0.285363
1772.000000	0.285377
1773.000000	0.285069
1774.000000	0.285056
1775.000000	0.285406
1776.000000	0.285398
1777.000000	0.285176
1778.000000	0.285167
1779.000000	0.285079
1780.000000	0.285097
1781.000000	0.285329
1782.000000	0.285339
1783.000000	0.285224
1784.000000	0.285212
1785.000000	0.285241
1786.000000	0.285499
1787.000000	0.285835
1788.000000	0.285906
1789.000000	0.285972
1790.000000	0.285592
1791.000000	0.285458
1792.000000	0.285631
1793.000000	0.285716
1794.000000	0.286045
1795.000000	0.286161
1796.000000	0.285979
1797.000000	0.285971
1798.000000	0.285940
1799.000000	0.285916
1800.000000	0.286042
1801.000000	0.286321
1802.000000	0.286388
1803.000000	0.285189
1804.000000	0.284883
1805.000000	0.285266
1806.000000	0.284971
1807.000000	0.283737
1808.000000	0.283651
1809.000000	0.284511
1810.000000	0.284117
1811.000000	0.284475
1812.000000	0.286025
1813.000000	0.286175
1814.000000	0.285184
1815.000000	0.285416
1816.000000	0.286235
1817.000000	0.286036
1818.000000	0.286147
1819.000000	0.285738
1820.000000	0.284525
1821.000000	0.284185
1822.000000	0.284051
1823.000000	0.284774
1824.000000	0.284918
1825.000000	0.284928
1826.000000	0.284900
1827.000000	0.284469
1828.000000	0.284497
1829.000000	0.285027
1830.000000	0.284650
1831.000000	0.284251
1832.000000	0.283529
1833.000000	0.283315
1834.000000	0.282695
1835.000000	0.282975
1836.000000	0.284623
1837.000000	0.285133
1838.000000	0.285691
1839.000000	0.285238
1840.000000	0.284435
1841.000000	0.283429
1842.000000	0.283116
1843.000000	0.283232
1844.000000	0.283230
1845.000000	0.283743
1846.000000	0.283691
1847.000000	0.282900
1848.000000	0.282467
1849.000000	0.282640
1850.000000	0.282284
1851.000000	0.282515
1852.000000	0.283768
1853.000000	0.283798
1854.000000	0.283077
1855.000000	0.282820
1856.000000	0.282512
1857.000000	0.281375
1858.000000	0.281004
1859.000000	0.281161
1860.000000	0.280684
1861.000000	0.280420
1862.000000	0.279745
1863.000000	0.278514
1864.000000	0.277988
1865.000000	0.277518
1866.000000	0.277170
1867.000000	0.277633
1868.000000	0.277558
1869.000000	0.275821
1870.000000	0.274433
1871.000000	0.273272
1872.000000	0.271902
1873.000000	0.271279
1874.000000	0.272099
1875.000000	0.271741
1876.000000	0.270810
1877.000000	0.269987
1878.000000	0.268890
1879.000000	0.267012
1880.000000	0.265453
1881.000000	0.263913
1882.000000	0.261620
1883.000000	0.260193
1884.000000	0.258872
1885.000000	0.257605
1886.000000	0.255953
1887.000000	0.254523
1888.000000	0.252774
1889.000000	0.250616
1890.000000	0.248570
1891.000000	0.246526
1892.000000	0.244023
1893.000000	0.241066
1894.000000	0.238680
1895.000000	0.236699
1896.000000	0.235281
1897.000000	0.233929
1898.000000	0.232841
1899.000000	0.231694
1900.000000	0.229673
1901.000000	0.227674
1902.000000	0.225824
1903.000000	0.223818
1904.000000	0.222666
1905.000000	0.221943
1906.000000	0.220674
1907.000000	0.219320
1908.000000	0.218093
1909.000000	0.216779
1910.000000	0.215759
1911.000000	0.215186
1912.000000	0.214404
1913.000000	0.213875
1914.000000	0.212792
1915.000000	0.211782
1916.000000	0.212038
1917.000000	0.211960
1918.000000	0.212043
1919.000000	0.212197
1920.000000	0.212689
1921.000000	0.212579
1922.000000	0.212407
1923.000000	0.212524
1924.000000	0.211739
1925.000000	0.210696
1926.000000	0.210297
1927.000000	0.209913
1928.000000	0.209579
1929.000000	0.209748
1930.000000	0.209770
1931.000000	0.209146
1932.000000	0.208985
1933.000000	0.209403
1934.000000	0.210247
1935.000000	0.211068
1936.000000	0.211904
1937.000000	0.212228
1938.000000	0.211881
1939.000000	0.211911
1940.000000	0.212174
1941.000000	0.212103
1942.000000	0.212005
1943.000000	0.212435
1944.000000	0.212385
1945.000000	0.211889
1946.000000	0.211637
1947.000000	0.211655
1948.000000	0.211365
1949.000000	0.211417
1950.000000	0.211570
1951.000000	0.211228
1952.000000	0.210330
1953.000000	0.209895
1954.000000	0.209091
1955.000000	0.208233
1956.000000	0.207988
1957.000000	0.207253
1958.000000	0.207679
1959.000000	0.208455
1960.000000	0.208578
1961.000000	0.209113
1962.000000	0.209147
1963.000000	0.208648
1964.000000	0.208071
1965.000000	0.208009
1966.000000	0.207812
1967.000000	0.208187
1968.000000	0.208922
1969.000000	0.209142
1970.000000	0.209709
1971.000000	0.209988
1972.000000	0.209789
1973.000000	0.209800
1974.000000	0.209842
1975.000000	0.210022
1976.000000	0.210437
1977.000000	0.210704
1978.000000	0.210982
1979.000000	0.211160
1980.000000	0.211108
1981.000000	0.211413
1982.000000	0.211333
1983.000000	0.211704
1984.000000	0.212069
1985.000000	0.212397
1986.000000	0.212654
1987.000000	0.213112
1988.000000	0.213699
1989.000000	0.213780
1990.000000	0.214168
1991.000000	0.214833
1992.000000	0.214785
1993.000000	0.214556
1994.000000	0.215135
1995.000000	0.215142
1996.000000	0.215027
1997.000000	0.215205
1998.000000	0.215346
1999.000000	0.215790
2000.000000	0.216430
2001.000000	0.217520
2002.000000	0.218853
2003.000000	0.219775
2004.000000	0.220353
2005.000000	0.220552
2006.000000	0.220529
2007.000000	0.220924
2008.000000	0.221352
2009.000000	0.221965
2010.000000	0.222601
2011.000000	0.223414
2012.000000	0.223785
2013.000000	0.223958
2014.000000	0.223974
2015.000000	0.224015
2016.000000	0.224054
2017.000000	0.224863
2018.000000	0.225659
2019.000000	0.225988
2020.000000	0.226447
2021.000000	0.226680
2022.000000	0.226183
2023.000000	0.226476
2024.000000	0.227331
2025.000000	0.227894
2026.000000	0.228460
2027.000000	0.229036
2028.000000	0.229579
2029.000000	0.229538
2030.000000	0.230004
2031.000000	0.230988
2032.000000	0.232150
2033.000000	0.233372
2034.000000	0.233911
2035.000000	0.234140
2036.000000	0.234120
2037.000000	0.233577
2038.000000	0.233368
2039.000000	0.232954
2040.000000	0.233209
2041.000000	0.233753
2042.000000	0.233923
2043.000000	0.234737
2044.000000	0.235351
2045.000000	0.235496
2046.000000	0.235580
2047.000000	0.235927
2048.000000	0.236298
2049.000000	0.236751
2050.000000	0.237310
2051.000000	0.237548
2052.000000	0.237232
2053.000000	0.237164
2054.000000	0.237338
2055.000000	0.237536
2056.000000	0.237430
2057.000000	0.238290
2058.000000	0.238651
2059.000000	0.238557
2060.000000	0.239038
2061.000000	0.239882
2062.000000	0.240357
2063.000000	0.241145
2064.000000	0.241432
2065.000000	0.241328
2066.000000	0.241468
2067.000000	0.241689
2068.000000	0.242141
2069.000000	0.242816
2070.000000	0.243306
2071.000000	0.242728
2072.000000	0.242538
2073.000000	0.242879
2074.000000	0.242559
2075.000000	0.242638
2076.000000	0.243326
2077.000000	0.243707
2078.000000	0.243739
2079.000000	0.244106
2080.000000	0.245072
2081.000000	0.245429
2082.000000	0.245548
2083.000000	0.245458
2084.000000	0.245490
2085.000000	0.246025
2086.000000	0.246742
2087.000000	0.248165
2088.000000	0.249143
2089.000000	0.248562
2090.000000	0.248352
2091.000000	0.247243
2092.000000	0.247127
2093.000000	0.247626
2094.000000	0.247970
2095.000000	0.248907
2096.000000	0.249487
2097.000000	0.249676
2098.000000	0.249731
2099.000000	0.250555
2100.000000	0.250565
2101.000000	0.251041
2102.000000	0.251391
2103.000000	0.251220
2104.000000	0.251715
2105.000000	0.252100
2106.000000	0.252475
2107.000000	0.252953
2108.000000	0.253875
2109.000000	0.254193
2110.000000	0.254066
2111.000000	0.254157
2112.000000	0.253965
2113.000000	0.253465
2114.000000	0.254003
2115.000000	0.253945
2116.000000	0.254181
2117.000000	0.254603
2118.000000	0.254172
2119.000000	0.254502
2120.000000	0.254709
2121.000000	0.254690
2122.000000	0.254918
2123.000000	0.255698
2124.000000	0.255854
2125.000000	0.255731
2126.000000	0.255874
2127.000000	0.255833
2128.000000	0.255934
2129.000000	0.256321
2130.000000	0.256407
2131.000000	0.256274
2132.000000	0.256063
2133.000000	0.255813
2134.000000	0.256247
2135.000000	0.256365
2136.000000	0.256887
2137.000000	0.257183
2138.000000	0.257520
2139.000000	0.257472
2140.000000	0.257023
2141.000000	0.256806
2142.000000	0.256352
2143.000000	0.256104
2144.000000	0.256799
2145.000000	0.256838
2146.000000	0.256497
2147.000000	0.256308
2148.000000	0.256866
2149.000000	0.256346
2150.000000	0.255921
2151.000000	0.256141
2152.000000	0.255733
2153.000000	0.254897
2154.000000	0.254611
2155.000000	0.255048
2156.000000	0.254962
2157.000000	0.254310
2158.000000	0.254746
2159.000000	0.256015
2160.000000	0.256474
2161.000000	0.257544
2162.000000	0.257934
2163.000000	0.256425
2164.000000	0.256426
2165.000000	0.257392
2166.000000	0.257868
2167.000000	0.258696
2168.000000	0.259836
2169.000000	0.259533
2170.000000	0.259686
2171.000000	0.259796
2172.000000	0.260037
2173.000000	0.260056
2174.000000	0.259954
2175.000000	0.259667
2176.000000	0.258969
2177.000000	0.258539
2178.000000	0.258100
2179.000000	0.257979
2180.000000	0.258039
2181.000000	0.258663
2182.000000	0.259516
2183.000000	0.260149
2184.000000	0.260233
2185.000000	0.258313
2186.000000	0.256450
2187.000000	0.254978
2188.000000	0.254062
2189.000000	0.254657
2190.000000	0.255372
2191.000000	0.257033
2192.000000	0.258050
2193.000000	0.259959
2194.000000	0.260362
2195.000000	0.259379
2196.000000	0.258952
2197.000000	0.257711
2198.000000	0.257262
2199.000000	0.257391
2200.000000	0.257117
2201.000000	0.257195
2202.000000	0.257006
2203.000000	0.256092
2204.000000	0.256101
2205.000000	0.254444
2206.000000	0.253853
2207.000000	0.254091
2208.000000	0.253146
2209.000000	0.254868
2210.000000	0.256221
2211.000000	0.255223
2212.000000	0.256717
2213.000000	0.256493
2214.000000	0.254492
2215.000000	0.254249
2216.000000	0.253981
2217.000000	0.254539
2218.000000	0.256320
2219.000000	0.257455
2220.000000	0.260162
2221.000000	0.260720
2222.000000	0.259461
2223.000000	0.259188
2224.000000	0.259012
2225.000000	0.256897
2226.000000	0.255389
2227.000000	0.255326
2228.000000	0.254365
2229.000000	0.253391
2230.000000	0.255760
2231.000000	0.258008
2232.000000	0.259646
2233.000000	0.261483
2234.000000	0.258924
2235.000000	0.257428
2236.000000	0.256765
2237.000000	0.255932
2238.000000	0.255122
2239.000000	0.254975
2240.000000	0.254565
2241.000000	0.253914
2242.000000	0.253699
2243.000000	0.253640
2244.000000	0.254756
2245.000000	0.257056
2246.000000	0.257751
2247.000000	0.258994
2248.000000	0.259673
2249.000000	0.259822
2250.000000	0.257746
2251.000000	0.255553
2252.000000	0.254074
2253.000000	0.251546
2254.000000	0.250617
2255.000000	0.253734
2256.000000	0.257150
2257.000000	0.259768
2258.000000	0.260428
2259.000000	0.259388
2260.000000	0.257937
2261.000000	0.257150
2262.000000	0.257165
2263.000000	0.256033
2264.000000	0.254810
2265.000000	0.252993
2266.000000	0.249825
2267.000000	0.248361
2268.000000	0.246456
2269.000000	0.246747
2270.000000	0.248517
2271.000000	0.250319
2272.000000	0.254788
2273.000000	0.256579
2274.000000	0.257525
2275.000000	0.258192
2276.000000	0.258366
2277.000000	0.256697
2278.000000	0.253689
2279.000000	0.252632
2280.000000	0.249865
2281.000000	0.247767
2282.000000	0.249625
2283.000000	0.250052
2284.000000	0.250602
2285.000000	0.251861
2286.000000	0.249793
2287.000000	0.247104
2288.000000	0.246751
2289.000000	0.245409
2290.000000	0.244574
2291.000000	0.244894
2292.000000	0.243082
2293.000000	0.241812
2294.000000	0.241298
2295.000000	0.241407
2296.000000	0.240433
2297.000000	0.238605
2298.000000	0.239312
2299.000000	0.241761
2300.000000	0.242814
2301.000000	0.245964
2302.000000	0.246806
2303.000000	0.244513
2304.000000	0.242679
2305.000000	0.240257
2306.000000	0.238274
2307.000000	0.235339
2308.000000	0.234143
2309.000000	0.233873
2310.000000	0.233792
2311.000000	0.233743
2312.000000	0.233171
2313.000000	0.232686
2314.000000	0.232432
2315.000000	0.232254
2316.000000	0.232908
2317.000000	0.232830
2318.000000	0.233023
2319.000000	0.233705
2320.000000	0.233565
2321.000000	0.234439
2322.000000	0.235530
2323.000000	0.238221
2324.000000	0.240707
2325.000000	0.241094
2326.000000	0.241902
2327.000000	0.239957
2328.000000	0.235635
2329.000000	0.231890
2330.000000	0.227438
2331.000000	0.223646
2332.000000	0.224209
2333.000000	0.224675
2334.000000	0.225381
2335.000000	0.227230
2336.000000	0.229428
2337.000000	0.229776
2338.000000	0.230965
2339.000000	0.231098
2340.000000	0.229228
2341.000000	0.228870
2342.000000	0.228633
2343.000000	0.228679
2344.000000	0.230233
2345.000000	0.230131
2346.000000	0.229397
2347.000000	0.228649
2348.000000	0.227098
2349.000000	0.224541
2350.000000	0.224044
2351.000000	0.221852
2352.000000	0.221400
2353.000000	0.221884
2354.000000	0.218981
2355.000000	0.220024
2356.000000	0.221178
2357.000000	0.220025
2358.000000	0.220253
2359.000000	0.219812
2360.000000	0.219498
2361.000000	0.221031
2362.000000	0.224520
2363.000000	0.226705
2364.000000	0.225828
2365.000000	0.222196
2366.000000	0.216466
2367.000000	0.215018
2368.000000	0.215138
2369.000000	0.213448
2370.000000	0.211992
2371.000000	0.209110
2372.000000	0.206526
2373.000000	0.206253
2374.000000	0.209106
2375.000000	0.212367
2376.000000	0.216406
2377.000000	0.219510
2378.000000	0.220855
2379.000000	0.222003
2380.000000	0.218052
2381.000000	0.215718
2382.000000	0.214017
2383.000000	0.207844
2384.000000	0.205832
2385.000000	0.206088
2386.000000	0.204600
2387.000000	0.206042
2388.000000	0.204941
2389.000000	0.200026
2390.000000	0.200402
2391.000000	0.197531
2392.000000	0.194769
2393.000000	0.198806
2394.000000	0.196488
2395.000000	0.196662
2396.000000	0.198673
2397.000000	0.195115
2398.000000	0.194492
2399.000000	0.191192
2400.000000	0.188738
2401.000000	0.191401
2402.000000	0.194148
2403.000000	0.196950
2404.000000	0.196094
2405.000000	0.196610
2406.000000	0.195816
2407.000000	0.192794
2408.000000	0.199076
2409.000000	0.201242
2410.000000	0.202196
2411.000000	0.208720
2412.000000	0.205238
2413.000000	0.197413
2414.000000	0.195024
2415.000000	0.191501
2416.000000	0.191086
2417.000000	0.197779
2418.000000	0.197605
2419.000000	0.201673
2420.000000	0.202011
2421.000000	0.195142
2422.000000	0.204940
2423.000000	0.199251
2424.000000	0.192585
2425.000000	0.196340
2426.000000	0.181864
2427.000000	0.179719
2428.000000	0.181703
2429.000000	0.184118
2430.000000	0.199137
2431.000000	0.208440
2432.000000	0.223406
2433.000000	0.229220
2434.000000	0.218967
2435.000000	0.208150
2436.000000	0.189416
2437.000000	0.179869
2438.000000	0.189249
2439.000000	0.198700
2440.000000	0.201575
2441.000000	0.208295
2442.000000	0.210194
2443.000000	0.200818
2444.000000	0.190893
2445.000000	0.182032
2446.000000	0.180078
2447.000000	0.190465
2448.000000	0.200465
2449.000000	0.200254
2450.000000	0.193977
2451.000000	0.176608
2452.000000	0.162626
2453.000000	0.164361
2454.000000	0.167970
2455.000000	0.171324
2456.000000	0.176008
2457.000000	0.164677
2458.000000	0.154052
2459.000000	0.155933
2460.000000	0.159972
2461.000000	0.176079
2462.000000	0.175986
2463.000000	0.159859
2464.000000	0.144408
2465.000000	0.143030
2466.000000	0.163438
2467.000000	0.183011
2468.000000	0.201873
2469.000000	0.197961
2470.000000	0.165665
2471.000000	0.137014
2472.000000	0.126634
2473.000000	0.115192
2474.000000	0.120100
2475.000000	0.147357
2476.000000	0.146160
2477.000000	0.159863
2478.000000	0.171225
2479.000000	0.142349
2480.000000	0.148629
2481.000000	0.161290
2482.000000	0.175145
2483.000000	0.211541
2484.000000	0.213632
2485.000000	0.185877
2486.000000	0.167788
2487.000000	0.161449
2488.000000	0.134243
2489.000000	0.098429
2490.000000	0.092341
2491.000000	0.063560
2492.000000	0.061207
2493.000000	0.087747
2494.000000	0.116859
2495.000000	0.186151
2496.000000	0.197972
2497.000000	0.186564
2498.000000	0.173048
2499.000000	0.111590
2500.000000	0.083657
