# Wavelength	SM1200H-20_HEX-10_FV7-70_00002.asd.rts.txt
350.000000	0.225050
351.000000	0.239590
352.000000	0.237320
353.000000	0.222961
354.000000	0.209016
355.000000	0.217681
356.000000	0.216521
357.000000	0.208984
358.000000	0.220398
359.000000	0.220069
360.000000	0.212503
361.000000	0.209408
362.000000	0.211099
363.000000	0.220732
364.000000	0.233455
365.000000	0.225991
366.000000	0.221156
367.000000	0.222353
368.000000	0.218081
369.000000	0.218615
370.000000	0.220452
371.000000	0.217357
372.000000	0.215472
373.000000	0.212873
374.000000	0.209942
375.000000	0.214394
376.000000	0.218858
377.000000	0.219845
378.000000	0.216922
379.000000	0.221099
380.000000	0.227372
381.000000	0.227375
382.000000	0.223658
383.000000	0.220836
384.000000	0.221102
385.000000	0.218746
386.000000	0.218000
387.000000	0.218918
388.000000	0.216453
389.000000	0.216771
390.000000	0.219728
391.000000	0.222671
392.000000	0.224785
393.000000	0.225732
394.000000	0.225799
395.000000	0.227071
396.000000	0.226838
397.000000	0.225023
398.000000	0.225120
399.000000	0.226157
400.000000	0.227231
401.000000	0.227170
402.000000	0.225334
403.000000	0.224100
404.000000	0.225230
405.000000	0.225249
406.000000	0.226217
407.000000	0.228340
408.000000	0.228250
409.000000	0.227497
410.000000	0.227197
411.000000	0.228335
412.000000	0.229533
413.000000	0.230215
414.000000	0.230206
415.000000	0.230102
416.000000	0.230210
417.000000	0.230516
418.000000	0.230344
419.000000	0.230448
420.000000	0.230917
421.000000	0.231286
422.000000	0.231713
423.000000	0.232064
424.000000	0.232274
425.000000	0.232867
426.000000	0.233364
427.000000	0.233449
428.000000	0.233753
429.000000	0.234137
430.000000	0.234385
431.000000	0.234052
432.000000	0.234192
433.000000	0.234426
434.000000	0.233900
435.000000	0.234169
436.000000	0.234993
437.000000	0.235713
438.000000	0.235636
439.000000	0.235490
440.000000	0.235671
441.000000	0.235508
442.000000	0.235276
443.000000	0.235287
444.000000	0.236091
445.000000	0.236216
446.000000	0.236149
447.000000	0.236630
448.000000	0.237226
449.000000	0.237786
450.000000	0.238214
451.000000	0.238417
452.000000	0.238511
453.000000	0.238572
454.000000	0.238866
455.000000	0.239099
456.000000	0.239353
457.000000	0.239695
458.000000	0.240404
459.000000	0.240860
460.000000	0.240670
461.000000	0.240699
462.000000	0.240765
463.000000	0.240694
464.000000	0.240884
465.000000	0.241358
466.000000	0.241843
467.000000	0.241969
468.000000	0.241733
469.000000	0.241679
470.000000	0.242422
471.000000	0.242713
472.000000	0.242710
473.000000	0.242698
474.000000	0.242775
475.000000	0.242838
476.000000	0.243001
477.000000	0.243301
478.000000	0.243207
479.000000	0.243127
480.000000	0.243481
481.000000	0.243835
482.000000	0.244182
483.000000	0.244399
484.000000	0.244787
485.000000	0.244945
486.000000	0.244974
487.000000	0.245364
488.000000	0.245779
489.000000	0.246089
490.000000	0.246249
491.000000	0.246390
492.000000	0.246653
493.000000	0.246988
494.000000	0.247108
495.000000	0.247274
496.000000	0.247633
497.000000	0.248093
498.000000	0.248297
499.000000	0.248355
500.000000	0.248799
501.000000	0.249042
502.000000	0.249213
503.000000	0.249632
504.000000	0.249843
505.000000	0.249924
506.000000	0.250035
507.000000	0.250129
508.000000	0.250397
509.000000	0.250821
510.000000	0.251110
511.000000	0.251313
512.000000	0.251479
513.000000	0.251617
514.000000	0.251990
515.000000	0.252408
516.000000	0.252527
517.000000	0.252801
518.000000	0.253175
519.000000	0.253470
520.000000	0.253726
521.000000	0.253945
522.000000	0.254157
523.000000	0.254426
524.000000	0.254672
525.000000	0.254870
526.000000	0.255067
527.000000	0.255333
528.000000	0.255598
529.000000	0.255828
530.000000	0.256079
531.000000	0.256331
532.000000	0.256522
533.000000	0.256840
534.000000	0.257229
535.000000	0.257605
536.000000	0.257876
537.000000	0.258152
538.000000	0.258405
539.000000	0.258559
540.000000	0.258855
541.000000	0.259166
542.000000	0.259400
543.000000	0.259693
544.000000	0.259978
545.000000	0.260185
546.000000	0.260477
547.000000	0.260784
548.000000	0.261100
549.000000	0.261364
550.000000	0.261575
551.000000	0.261805
552.000000	0.262085
553.000000	0.262421
554.000000	0.262719
555.000000	0.262952
556.000000	0.263335
557.000000	0.263605
558.000000	0.263832
559.000000	0.264182
560.000000	0.264424
561.000000	0.264648
562.000000	0.264944
563.000000	0.265135
564.000000	0.265338
565.000000	0.265597
566.000000	0.265938
567.000000	0.266242
568.000000	0.266464
569.000000	0.266831
570.000000	0.267185
571.000000	0.267461
572.000000	0.267686
573.000000	0.267872
574.000000	0.268078
575.000000	0.268416
576.000000	0.268710
577.000000	0.268995
578.000000	0.269347
579.000000	0.269571
580.000000	0.269811
581.000000	0.270122
582.000000	0.270420
583.000000	0.270690
584.000000	0.270948
585.000000	0.271235
586.000000	0.271484
587.000000	0.271741
588.000000	0.272058
589.000000	0.272339
590.000000	0.272578
591.000000	0.272793
592.000000	0.273034
593.000000	0.273355
594.000000	0.273700
595.000000	0.273901
596.000000	0.274153
597.000000	0.274443
598.000000	0.274596
599.000000	0.274772
600.000000	0.274981
601.000000	0.275151
602.000000	0.275420
603.000000	0.275652
604.000000	0.275819
605.000000	0.276079
606.000000	0.276202
607.000000	0.276226
608.000000	0.276363
609.000000	0.276524
610.000000	0.276654
611.000000	0.276734
612.000000	0.276959
613.000000	0.277151
614.000000	0.277252
615.000000	0.277453
616.000000	0.277638
617.000000	0.277763
618.000000	0.277960
619.000000	0.278122
620.000000	0.278234
621.000000	0.278373
622.000000	0.278474
623.000000	0.278559
624.000000	0.278657
625.000000	0.278772
626.000000	0.278917
627.000000	0.279096
628.000000	0.279300
629.000000	0.279491
630.000000	0.279595
631.000000	0.279780
632.000000	0.279901
633.000000	0.280035
634.000000	0.280243
635.000000	0.280365
636.000000	0.280452
637.000000	0.280546
638.000000	0.280708
639.000000	0.280821
640.000000	0.280917
641.000000	0.280991
642.000000	0.281142
643.000000	0.281299
644.000000	0.281358
645.000000	0.281421
646.000000	0.281554
647.000000	0.281742
648.000000	0.281873
649.000000	0.281962
650.000000	0.282053
651.000000	0.282314
652.000000	0.282442
653.000000	0.282522
654.000000	0.282722
655.000000	0.282920
656.000000	0.283107
657.000000	0.283250
658.000000	0.283446
659.000000	0.283619
660.000000	0.283728
661.000000	0.283835
662.000000	0.283950
663.000000	0.284130
664.000000	0.284353
665.000000	0.284539
666.000000	0.284685
667.000000	0.284791
668.000000	0.284946
669.000000	0.285137
670.000000	0.285345
671.000000	0.285515
672.000000	0.285692
673.000000	0.285892
674.000000	0.286138
675.000000	0.286305
676.000000	0.286434
677.000000	0.286612
678.000000	0.286711
679.000000	0.286801
680.000000	0.286939
681.000000	0.287070
682.000000	0.287271
683.000000	0.287479
684.000000	0.287704
685.000000	0.287838
686.000000	0.287961
687.000000	0.288156
688.000000	0.288354
689.000000	0.288547
690.000000	0.288759
691.000000	0.288930
692.000000	0.289113
693.000000	0.289342
694.000000	0.289455
695.000000	0.289547
696.000000	0.289680
697.000000	0.289895
698.000000	0.290041
699.000000	0.290164
700.000000	0.290328
701.000000	0.290492
702.000000	0.290634
703.000000	0.290717
704.000000	0.290731
705.000000	0.290823
706.000000	0.290934
707.000000	0.291011
708.000000	0.291168
709.000000	0.291352
710.000000	0.291513
711.000000	0.291604
712.000000	0.291706
713.000000	0.291863
714.000000	0.292005
715.000000	0.292175
716.000000	0.292348
717.000000	0.292452
718.000000	0.292553
719.000000	0.292658
720.000000	0.292772
721.000000	0.292871
722.000000	0.292952
723.000000	0.293062
724.000000	0.293136
725.000000	0.293235
726.000000	0.293421
727.000000	0.293589
728.000000	0.293716
729.000000	0.293872
730.000000	0.294049
731.000000	0.294185
732.000000	0.294300
733.000000	0.294434
734.000000	0.294537
735.000000	0.294589
736.000000	0.294711
737.000000	0.294832
738.000000	0.294919
739.000000	0.295019
740.000000	0.295030
741.000000	0.295098
742.000000	0.295223
743.000000	0.295356
744.000000	0.295472
745.000000	0.295453
746.000000	0.295464
747.000000	0.295634
748.000000	0.295777
749.000000	0.295924
750.000000	0.296057
751.000000	0.296090
752.000000	0.296127
753.000000	0.296196
754.000000	0.296237
755.000000	0.296279
756.000000	0.296363
757.000000	0.296477
758.000000	0.296600
759.000000	0.296717
760.000000	0.296762
761.000000	0.296818
762.000000	0.296951
763.000000	0.297101
764.000000	0.297195
765.000000	0.297250
766.000000	0.297254
767.000000	0.297215
768.000000	0.297281
769.000000	0.297366
770.000000	0.297424
771.000000	0.297460
772.000000	0.297485
773.000000	0.297444
774.000000	0.297400
775.000000	0.297427
776.000000	0.297491
777.000000	0.297543
778.000000	0.297602
779.000000	0.297702
780.000000	0.297830
781.000000	0.297904
782.000000	0.297894
783.000000	0.297932
784.000000	0.297997
785.000000	0.298142
786.000000	0.298262
787.000000	0.298301
788.000000	0.298315
789.000000	0.298356
790.000000	0.298380
791.000000	0.298351
792.000000	0.298431
793.000000	0.298515
794.000000	0.298508
795.000000	0.298479
796.000000	0.298396
797.000000	0.298280
798.000000	0.298213
799.000000	0.298245
800.000000	0.298328
801.000000	0.298395
802.000000	0.298475
803.000000	0.298508
804.000000	0.298506
805.000000	0.298494
806.000000	0.298497
807.000000	0.298582
808.000000	0.298676
809.000000	0.298687
810.000000	0.298705
811.000000	0.298774
812.000000	0.298781
813.000000	0.298694
814.000000	0.298537
815.000000	0.298412
816.000000	0.298354
817.000000	0.298386
818.000000	0.298422
819.000000	0.298462
820.000000	0.298486
821.000000	0.298445
822.000000	0.298397
823.000000	0.298320
824.000000	0.298228
825.000000	0.298248
826.000000	0.298212
827.000000	0.298185
828.000000	0.298233
829.000000	0.298220
830.000000	0.298217
831.000000	0.298247
832.000000	0.298162
833.000000	0.298141
834.000000	0.298161
835.000000	0.298192
836.000000	0.298154
837.000000	0.298184
838.000000	0.298250
839.000000	0.298148
840.000000	0.298067
841.000000	0.298002
842.000000	0.297887
843.000000	0.297818
844.000000	0.297728
845.000000	0.297614
846.000000	0.297619
847.000000	0.297674
848.000000	0.297728
849.000000	0.297763
850.000000	0.297701
851.000000	0.297576
852.000000	0.297481
853.000000	0.297474
854.000000	0.297329
855.000000	0.297263
856.000000	0.297377
857.000000	0.297376
858.000000	0.297322
859.000000	0.297201
860.000000	0.297057
861.000000	0.296978
862.000000	0.296965
863.000000	0.296918
864.000000	0.296976
865.000000	0.297034
866.000000	0.297026
867.000000	0.296892
868.000000	0.296838
869.000000	0.296822
870.000000	0.296794
871.000000	0.296558
872.000000	0.296305
873.000000	0.296135
874.000000	0.296129
875.000000	0.295976
876.000000	0.295739
877.000000	0.295566
878.000000	0.295413
879.000000	0.295235
880.000000	0.294925
881.000000	0.294749
882.000000	0.294552
883.000000	0.294279
884.000000	0.293885
885.000000	0.293676
886.000000	0.293554
887.000000	0.293436
888.000000	0.293262
889.000000	0.293077
890.000000	0.292872
891.000000	0.292816
892.000000	0.292749
893.000000	0.292706
894.000000	0.292755
895.000000	0.292612
896.000000	0.292363
897.000000	0.292087
898.000000	0.291855
899.000000	0.291594
900.000000	0.291504
901.000000	0.291532
902.000000	0.291397
903.000000	0.291240
904.000000	0.291121
905.000000	0.290954
906.000000	0.290710
907.000000	0.290523
908.000000	0.290364
909.000000	0.289868
910.000000	0.289527
911.000000	0.289330
912.000000	0.289169
913.000000	0.288974
914.000000	0.288725
915.000000	0.288520
916.000000	0.288368
917.000000	0.288037
918.000000	0.287858
919.000000	0.287942
920.000000	0.287671
921.000000	0.287426
922.000000	0.287297
923.000000	0.287172
924.000000	0.286820
925.000000	0.286355
926.000000	0.285977
927.000000	0.285857
928.000000	0.285665
929.000000	0.285467
930.000000	0.285402
931.000000	0.285195
932.000000	0.284918
933.000000	0.284669
934.000000	0.284442
935.000000	0.284107
936.000000	0.283790
937.000000	0.283502
938.000000	0.283157
939.000000	0.282772
940.000000	0.282445
941.000000	0.282424
942.000000	0.282219
943.000000	0.282044
944.000000	0.281861
945.000000	0.281420
946.000000	0.281117
947.000000	0.281001
948.000000	0.280881
949.000000	0.280473
950.000000	0.280280
951.000000	0.280320
952.000000	0.280219
953.000000	0.279869
954.000000	0.279567
955.000000	0.279418
956.000000	0.279089
957.000000	0.278803
958.000000	0.278657
959.000000	0.278720
960.000000	0.278372
961.000000	0.278100
962.000000	0.278065
963.000000	0.278002
964.000000	0.277762
965.000000	0.277506
966.000000	0.277270
967.000000	0.276955
968.000000	0.276745
969.000000	0.276516
970.000000	0.276153
971.000000	0.275806
972.000000	0.275643
973.000000	0.275537
974.000000	0.275206
975.000000	0.275029
976.000000	0.274852
977.000000	0.274514
978.000000	0.274180
979.000000	0.274084
980.000000	0.273918
981.000000	0.273667
982.000000	0.273671
983.000000	0.273658
984.000000	0.273496
985.000000	0.273137
986.000000	0.273026
987.000000	0.272949
988.000000	0.272607
989.000000	0.272157
990.000000	0.272084
991.000000	0.272037
992.000000	0.271658
993.000000	0.271901
994.000000	0.271910
995.000000	0.271661
996.000000	0.271402
997.000000	0.270944
998.000000	0.270829
999.000000	0.271107
1000.000000	0.270785
1001.000000	0.271271
1002.000000	0.271016
1003.000000	0.270434
1004.000000	0.270349
1005.000000	0.270257
1006.000000	0.270090
1007.000000	0.270246
1008.000000	0.270302
1009.000000	0.270309
1010.000000	0.270186
1011.000000	0.270231
1012.000000	0.270771
1013.000000	0.270795
1014.000000	0.270287
1015.000000	0.269804
1016.000000	0.269855
1017.000000	0.270111
1018.000000	0.270175
1019.000000	0.270007
1020.000000	0.269693
1021.000000	0.269283
1022.000000	0.268660
1023.000000	0.268569
1024.000000	0.268596
1025.000000	0.268809
1026.000000	0.269483
1027.000000	0.269920
1028.000000	0.269345
1029.000000	0.269133
1030.000000	0.269108
1031.000000	0.268287
1032.000000	0.268439
1033.000000	0.269003
1034.000000	0.268951
1035.000000	0.268112
1036.000000	0.268248
1037.000000	0.268842
1038.000000	0.268983
1039.000000	0.269391
1040.000000	0.269779
1041.000000	0.270023
1042.000000	0.269874
1043.000000	0.270072
1044.000000	0.270758
1045.000000	0.270531
1046.000000	0.270158
1047.000000	0.270049
1048.000000	0.269665
1049.000000	0.269606
1050.000000	0.269914
1051.000000	0.270020
1052.000000	0.270099
1053.000000	0.270243
1054.000000	0.270646
1055.000000	0.270835
1056.000000	0.271022
1057.000000	0.270994
1058.000000	0.271264
1059.000000	0.271747
1060.000000	0.272144
1061.000000	0.272551
1062.000000	0.272310
1063.000000	0.272034
1064.000000	0.272148
1065.000000	0.272520
1066.000000	0.272595
1067.000000	0.272669
1068.000000	0.272835
1069.000000	0.272801
1070.000000	0.272964
1071.000000	0.273465
1072.000000	0.273795
1073.000000	0.274215
1074.000000	0.274461
1075.000000	0.274232
1076.000000	0.274203
1077.000000	0.274249
1078.000000	0.274467
1079.000000	0.274670
1080.000000	0.275303
1081.000000	0.275611
1082.000000	0.275686
1083.000000	0.275849
1084.000000	0.276290
1085.000000	0.276443
1086.000000	0.276148
1087.000000	0.276357
1088.000000	0.276689
1089.000000	0.276878
1090.000000	0.277233
1091.000000	0.277573
1092.000000	0.277781
1093.000000	0.277764
1094.000000	0.277959
1095.000000	0.278324
1096.000000	0.278404
1097.000000	0.278234
1098.000000	0.278448
1099.000000	0.278634
1100.000000	0.278947
1101.000000	0.279683
1102.000000	0.279993
1103.000000	0.279938
1104.000000	0.280128
1105.000000	0.280257
1106.000000	0.280491
1107.000000	0.280975
1108.000000	0.281226
1109.000000	0.281708
1110.000000	0.281635
1111.000000	0.281512
1112.000000	0.281005
1113.000000	0.281019
1114.000000	0.281001
1115.000000	0.281192
1116.000000	0.281890
1117.000000	0.282162
1118.000000	0.282257
1119.000000	0.282340
1120.000000	0.282258
1121.000000	0.282315
1122.000000	0.282570
1123.000000	0.282809
1124.000000	0.282703
1125.000000	0.282918
1126.000000	0.283304
1127.000000	0.283474
1128.000000	0.283629
1129.000000	0.284004
1130.000000	0.284129
1131.000000	0.283950
1132.000000	0.283993
1133.000000	0.284137
1134.000000	0.284322
1135.000000	0.284592
1136.000000	0.284675
1137.000000	0.284698
1138.000000	0.284715
1139.000000	0.284571
1140.000000	0.284715
1141.000000	0.285072
1142.000000	0.285294
1143.000000	0.285517
1144.000000	0.285784
1145.000000	0.285843
1146.000000	0.285878
1147.000000	0.285861
1148.000000	0.285676
1149.000000	0.285727
1150.000000	0.285769
1151.000000	0.285961
1152.000000	0.286400
1153.000000	0.286593
1154.000000	0.286724
1155.000000	0.286771
1156.000000	0.286644
1157.000000	0.286628
1158.000000	0.286637
1159.000000	0.286542
1160.000000	0.286361
1161.000000	0.286249
1162.000000	0.286085
1163.000000	0.286103
1164.000000	0.286186
1165.000000	0.286443
1166.000000	0.286490
1167.000000	0.286470
1168.000000	0.286409
1169.000000	0.286220
1170.000000	0.286167
1171.000000	0.286223
1172.000000	0.286273
1173.000000	0.286243
1174.000000	0.286354
1175.000000	0.286675
1176.000000	0.286688
1177.000000	0.286642
1178.000000	0.286660
1179.000000	0.286447
1180.000000	0.286346
1181.000000	0.286441
1182.000000	0.286645
1183.000000	0.286719
1184.000000	0.286783
1185.000000	0.286810
1186.000000	0.286779
1187.000000	0.286751
1188.000000	0.286682
1189.000000	0.286678
1190.000000	0.286756
1191.000000	0.286799
1192.000000	0.286962
1193.000000	0.287113
1194.000000	0.287104
1195.000000	0.287135
1196.000000	0.287199
1197.000000	0.287189
1198.000000	0.287132
1199.000000	0.287092
1200.000000	0.286978
1201.000000	0.286878
1202.000000	0.286920
1203.000000	0.287029
1204.000000	0.287064
1205.000000	0.287054
1206.000000	0.286990
1207.000000	0.286842
1208.000000	0.286772
1209.000000	0.286779
1210.000000	0.286829
1211.000000	0.286953
1212.000000	0.286982
1213.000000	0.287069
1214.000000	0.287114
1215.000000	0.287042
1216.000000	0.287020
1217.000000	0.286971
1218.000000	0.286965
1219.000000	0.286995
1220.000000	0.287055
1221.000000	0.287145
1222.000000	0.287215
1223.000000	0.287229
1224.000000	0.287123
1225.000000	0.286873
1226.000000	0.286740
1227.000000	0.286742
1228.000000	0.286767
1229.000000	0.286760
1230.000000	0.286904
1231.000000	0.286826
1232.000000	0.286666
1233.000000	0.286667
1234.000000	0.286661
1235.000000	0.286634
1236.000000	0.286570
1237.000000	0.286572
1238.000000	0.286509
1239.000000	0.286494
1240.000000	0.286541
1241.000000	0.286577
1242.000000	0.286674
1243.000000	0.286753
1244.000000	0.286847
1245.000000	0.286976
1246.000000	0.286962
1247.000000	0.287043
1248.000000	0.287026
1249.000000	0.287005
1250.000000	0.287147
1251.000000	0.287229
1252.000000	0.287214
1253.000000	0.287279
1254.000000	0.287174
1255.000000	0.286779
1256.000000	0.286653
1257.000000	0.286653
1258.000000	0.286629
1259.000000	0.286583
1260.000000	0.286627
1261.000000	0.286671
1262.000000	0.286703
1263.000000	0.286825
1264.000000	0.286885
1265.000000	0.286946
1266.000000	0.286905
1267.000000	0.286857
1268.000000	0.286917
1269.000000	0.286959
1270.000000	0.287064
1271.000000	0.287108
1272.000000	0.287123
1273.000000	0.287067
1274.000000	0.286948
1275.000000	0.286871
1276.000000	0.286801
1277.000000	0.286812
1278.000000	0.286829
1279.000000	0.286805
1280.000000	0.286752
1281.000000	0.286656
1282.000000	0.286543
1283.000000	0.286492
1284.000000	0.286342
1285.000000	0.286352
1286.000000	0.286505
1287.000000	0.286469
1288.000000	0.286494
1289.000000	0.286476
1290.000000	0.286228
1291.000000	0.286136
1292.000000	0.286246
1293.000000	0.286236
1294.000000	0.286203
1295.000000	0.286252
1296.000000	0.286241
1297.000000	0.286186
1298.000000	0.286208
1299.000000	0.286185
1300.000000	0.286226
1301.000000	0.286349
1302.000000	0.286291
1303.000000	0.286338
1304.000000	0.286257
1305.000000	0.285947
1306.000000	0.285893
1307.000000	0.286123
1308.000000	0.286193
1309.000000	0.286210
1310.000000	0.286263
1311.000000	0.286347
1312.000000	0.286251
1313.000000	0.286227
1314.000000	0.286360
1315.000000	0.286307
1316.000000	0.286259
1317.000000	0.286233
1318.000000	0.286136
1319.000000	0.286016
1320.000000	0.285959
1321.000000	0.285984
1322.000000	0.286037
1323.000000	0.286054
1324.000000	0.286033
1325.000000	0.285950
1326.000000	0.285842
1327.000000	0.285837
1328.000000	0.285989
1329.000000	0.285951
1330.000000	0.285834
1331.000000	0.285801
1332.000000	0.285763
1333.000000	0.285669
1334.000000	0.285598
1335.000000	0.285697
1336.000000	0.285912
1337.000000	0.285926
1338.000000	0.285917
1339.000000	0.285935
1340.000000	0.285701
1341.000000	0.285407
1342.000000	0.285417
1343.000000	0.285448
1344.000000	0.285393
1345.000000	0.285351
1346.000000	0.285260
1347.000000	0.285019
1348.000000	0.284908
1349.000000	0.284852
1350.000000	0.284916
1351.000000	0.284962
1352.000000	0.284884
1353.000000	0.284846
1354.000000	0.284872
1355.000000	0.284968
1356.000000	0.285040
1357.000000	0.285023
1358.000000	0.284978
1359.000000	0.284817
1360.000000	0.284698
1361.000000	0.284656
1362.000000	0.284563
1363.000000	0.284411
1364.000000	0.284277
1365.000000	0.284034
1366.000000	0.283969
1367.000000	0.283946
1368.000000	0.284040
1369.000000	0.284283
1370.000000	0.284387
1371.000000	0.284261
1372.000000	0.283974
1373.000000	0.283601
1374.000000	0.283371
1375.000000	0.283296
1376.000000	0.283267
1377.000000	0.283148
1378.000000	0.282963
1379.000000	0.282652
1380.000000	0.282212
1381.000000	0.281760
1382.000000	0.281307
1383.000000	0.280749
1384.000000	0.280165
1385.000000	0.279721
1386.000000	0.279322
1387.000000	0.278976
1388.000000	0.278704
1389.000000	0.278559
1390.000000	0.278433
1391.000000	0.278227
1392.000000	0.278281
1393.000000	0.278293
1394.000000	0.278282
1395.000000	0.278357
1396.000000	0.278608
1397.000000	0.278636
1398.000000	0.278612
1399.000000	0.278567
1400.000000	0.278351
1401.000000	0.278192
1402.000000	0.278095
1403.000000	0.277890
1404.000000	0.277837
1405.000000	0.277749
1406.000000	0.277551
1407.000000	0.277451
1408.000000	0.277189
1409.000000	0.276949
1410.000000	0.276882
1411.000000	0.276796
1412.000000	0.276623
1413.000000	0.276591
1414.000000	0.276602
1415.000000	0.276520
1416.000000	0.276618
1417.000000	0.276670
1418.000000	0.276448
1419.000000	0.276357
1420.000000	0.276231
1421.000000	0.276120
1422.000000	0.276174
1423.000000	0.276288
1424.000000	0.276290
1425.000000	0.276323
1426.000000	0.276314
1427.000000	0.276314
1428.000000	0.276367
1429.000000	0.276297
1430.000000	0.276240
1431.000000	0.276224
1432.000000	0.276162
1433.000000	0.276107
1434.000000	0.276076
1435.000000	0.276112
1436.000000	0.276104
1437.000000	0.276105
1438.000000	0.276069
1439.000000	0.276017
1440.000000	0.276002
1441.000000	0.275957
1442.000000	0.275991
1443.000000	0.276039
1444.000000	0.276143
1445.000000	0.276124
1446.000000	0.276090
1447.000000	0.275985
1448.000000	0.275720
1449.000000	0.275576
1450.000000	0.275587
1451.000000	0.275584
1452.000000	0.275564
1453.000000	0.275490
1454.000000	0.275343
1455.000000	0.275270
1456.000000	0.275409
1457.000000	0.275556
1458.000000	0.275559
1459.000000	0.275536
1460.000000	0.275478
1461.000000	0.275452
1462.000000	0.275533
1463.000000	0.275564
1464.000000	0.275575
1465.000000	0.275657
1466.000000	0.275726
1467.000000	0.275808
1468.000000	0.275888
1469.000000	0.275944
1470.000000	0.275921
1471.000000	0.275986
1472.000000	0.276064
1473.000000	0.276085
1474.000000	0.276095
1475.000000	0.276159
1476.000000	0.276212
1477.000000	0.276271
1478.000000	0.276342
1479.000000	0.276345
1480.000000	0.276312
1481.000000	0.276323
1482.000000	0.276400
1483.000000	0.276510
1484.000000	0.276636
1485.000000	0.276823
1486.000000	0.277061
1487.000000	0.277223
1488.000000	0.277439
1489.000000	0.277644
1490.000000	0.277700
1491.000000	0.277863
1492.000000	0.278053
1493.000000	0.278184
1494.000000	0.278269
1495.000000	0.278263
1496.000000	0.278126
1497.000000	0.278127
1498.000000	0.278127
1499.000000	0.278242
1500.000000	0.278388
1501.000000	0.278513
1502.000000	0.278524
1503.000000	0.278444
1504.000000	0.278371
1505.000000	0.278312
1506.000000	0.278382
1507.000000	0.278494
1508.000000	0.278668
1509.000000	0.278891
1510.000000	0.278934
1511.000000	0.278956
1512.000000	0.279044
1513.000000	0.279055
1514.000000	0.279074
1515.000000	0.279104
1516.000000	0.279103
1517.000000	0.279117
1518.000000	0.279198
1519.000000	0.279240
1520.000000	0.279176
1521.000000	0.279054
1522.000000	0.279024
1523.000000	0.278978
1524.000000	0.278897
1525.000000	0.278895
1526.000000	0.278843
1527.000000	0.278738
1528.000000	0.278703
1529.000000	0.278712
1530.000000	0.278624
1531.000000	0.278593
1532.000000	0.278579
1533.000000	0.278398
1534.000000	0.278294
1535.000000	0.278266
1536.000000	0.278207
1537.000000	0.278383
1538.000000	0.278491
1539.000000	0.278426
1540.000000	0.278417
1541.000000	0.278388
1542.000000	0.278410
1543.000000	0.278445
1544.000000	0.278405
1545.000000	0.278392
1546.000000	0.278382
1547.000000	0.278448
1548.000000	0.278590
1549.000000	0.278652
1550.000000	0.278643
1551.000000	0.278628
1552.000000	0.278630
1553.000000	0.278634
1554.000000	0.278582
1555.000000	0.278512
1556.000000	0.278505
1557.000000	0.278542
1558.000000	0.278611
1559.000000	0.278745
1560.000000	0.278795
1561.000000	0.278887
1562.000000	0.278835
1563.000000	0.278721
1564.000000	0.278673
1565.000000	0.278496
1566.000000	0.278402
1567.000000	0.278474
1568.000000	0.278566
1569.000000	0.278814
1570.000000	0.278920
1571.000000	0.278988
1572.000000	0.279011
1573.000000	0.278914
1574.000000	0.278940
1575.000000	0.279056
1576.000000	0.279166
1577.000000	0.279313
1578.000000	0.279327
1579.000000	0.279347
1580.000000	0.279352
1581.000000	0.279365
1582.000000	0.279304
1583.000000	0.279150
1584.000000	0.279118
1585.000000	0.279137
1586.000000	0.279141
1587.000000	0.279283
1588.000000	0.279310
1589.000000	0.279253
1590.000000	0.279237
1591.000000	0.279233
1592.000000	0.279210
1593.000000	0.279183
1594.000000	0.279151
1595.000000	0.279149
1596.000000	0.279188
1597.000000	0.279354
1598.000000	0.279288
1599.000000	0.279140
1600.000000	0.279015
1601.000000	0.278726
1602.000000	0.278643
1603.000000	0.278835
1604.000000	0.278863
1605.000000	0.278906
1606.000000	0.278915
1607.000000	0.278853
1608.000000	0.278808
1609.000000	0.278847
1610.000000	0.278809
1611.000000	0.278719
1612.000000	0.278753
1613.000000	0.278899
1614.000000	0.278947
1615.000000	0.279116
1616.000000	0.279234
1617.000000	0.279282
1618.000000	0.279230
1619.000000	0.279131
1620.000000	0.278962
1621.000000	0.278589
1622.000000	0.278483
1623.000000	0.278436
1624.000000	0.278428
1625.000000	0.278466
1626.000000	0.278417
1627.000000	0.278317
1628.000000	0.278356
1629.000000	0.278462
1630.000000	0.278514
1631.000000	0.278577
1632.000000	0.278609
1633.000000	0.278518
1634.000000	0.278580
1635.000000	0.278882
1636.000000	0.278883
1637.000000	0.278808
1638.000000	0.278702
1639.000000	0.278391
1640.000000	0.278277
1641.000000	0.278322
1642.000000	0.278358
1643.000000	0.278520
1644.000000	0.278557
1645.000000	0.278570
1646.000000	0.278543
1647.000000	0.278435
1648.000000	0.278391
1649.000000	0.278498
1650.000000	0.278544
1651.000000	0.278577
1652.000000	0.278664
1653.000000	0.278721
1654.000000	0.278734
1655.000000	0.278738
1656.000000	0.278655
1657.000000	0.278529
1658.000000	0.278535
1659.000000	0.278654
1660.000000	0.278703
1661.000000	0.278732
1662.000000	0.278729
1663.000000	0.278624
1664.000000	0.278613
1665.000000	0.278664
1666.000000	0.278703
1667.000000	0.278692
1668.000000	0.278678
1669.000000	0.278595
1670.000000	0.278556
1671.000000	0.278635
1672.000000	0.278668
1673.000000	0.278659
1674.000000	0.278822
1675.000000	0.278959
1676.000000	0.279103
1677.000000	0.279161
1678.000000	0.279196
1679.000000	0.279179
1680.000000	0.279040
1681.000000	0.279023
1682.000000	0.278852
1683.000000	0.278728
1684.000000	0.278790
1685.000000	0.278807
1686.000000	0.278925
1687.000000	0.278940
1688.000000	0.278803
1689.000000	0.278801
1690.000000	0.278754
1691.000000	0.278684
1692.000000	0.278646
1693.000000	0.278689
1694.000000	0.278512
1695.000000	0.278340
1696.000000	0.278311
1697.000000	0.278244
1698.000000	0.278403
1699.000000	0.278482
1700.000000	0.278475
1701.000000	0.278502
1702.000000	0.278287
1703.000000	0.278233
1704.000000	0.278345
1705.000000	0.278402
1706.000000	0.278655
1707.000000	0.278754
1708.000000	0.278641
1709.000000	0.278590
1710.000000	0.278646
1711.000000	0.278626
1712.000000	0.278545
1713.000000	0.278570
1714.000000	0.278657
1715.000000	0.278700
1716.000000	0.278914
1717.000000	0.278927
1718.000000	0.278629
1719.000000	0.278595
1720.000000	0.278749
1721.000000	0.278701
1722.000000	0.278661
1723.000000	0.278672
1724.000000	0.278536
1725.000000	0.278543
1726.000000	0.278689
1727.000000	0.278744
1728.000000	0.278692
1729.000000	0.278619
1730.000000	0.278698
1731.000000	0.278640
1732.000000	0.278433
1733.000000	0.278462
1734.000000	0.278423
1735.000000	0.278456
1736.000000	0.278655
1737.000000	0.278643
1738.000000	0.278511
1739.000000	0.278519
1740.000000	0.278511
1741.000000	0.278481
1742.000000	0.278553
1743.000000	0.278521
1744.000000	0.278326
1745.000000	0.278329
1746.000000	0.278404
1747.000000	0.278451
1748.000000	0.278458
1749.000000	0.278431
1750.000000	0.278339
1751.000000	0.278351
1752.000000	0.278384
1753.000000	0.278184
1754.000000	0.278093
1755.000000	0.278049
1756.000000	0.277964
1757.000000	0.277883
1758.000000	0.277846
1759.000000	0.277761
1760.000000	0.277742
1761.000000	0.277778
1762.000000	0.277796
1763.000000	0.277859
1764.000000	0.277898
1765.000000	0.277897
1766.000000	0.277923
1767.000000	0.277876
1768.000000	0.277848
1769.000000	0.277919
1770.000000	0.277995
1771.000000	0.278070
1772.000000	0.278087
1773.000000	0.278031
1774.000000	0.278019
1775.000000	0.278033
1776.000000	0.278035
1777.000000	0.278009
1778.000000	0.278030
1779.000000	0.278087
1780.000000	0.278038
1781.000000	0.277903
1782.000000	0.277910
1783.000000	0.277938
1784.000000	0.277944
1785.000000	0.278093
1786.000000	0.278207
1787.000000	0.278161
1788.000000	0.278162
1789.000000	0.278186
1790.000000	0.278122
1791.000000	0.278040
1792.000000	0.278081
1793.000000	0.278088
1794.000000	0.278084
1795.000000	0.278075
1796.000000	0.278097
1797.000000	0.278044
1798.000000	0.277808
1799.000000	0.277769
1800.000000	0.277900
1801.000000	0.277227
1802.000000	0.277661
1803.000000	0.278589
1804.000000	0.279085
1805.000000	0.280820
1806.000000	0.280912
1807.000000	0.278981
1808.000000	0.278523
1809.000000	0.277663
1810.000000	0.277898
1811.000000	0.278271
1812.000000	0.279781
1813.000000	0.280626
1814.000000	0.281665
1815.000000	0.282132
1816.000000	0.282751
1817.000000	0.282627
1818.000000	0.281783
1819.000000	0.280849
1820.000000	0.280164
1821.000000	0.279591
1822.000000	0.279405
1823.000000	0.279846
1824.000000	0.279765
1825.000000	0.279179
1826.000000	0.279384
1827.000000	0.279719
1828.000000	0.280426
1829.000000	0.280633
1830.000000	0.281119
1831.000000	0.281149
1832.000000	0.280347
1833.000000	0.279939
1834.000000	0.279781
1835.000000	0.279306
1836.000000	0.278285
1837.000000	0.277816
1838.000000	0.277410
1839.000000	0.277116
1840.000000	0.276845
1841.000000	0.276759
1842.000000	0.277041
1843.000000	0.277750
1844.000000	0.278015
1845.000000	0.278723
1846.000000	0.278733
1847.000000	0.277689
1848.000000	0.277079
1849.000000	0.277005
1850.000000	0.276500
1851.000000	0.276322
1852.000000	0.276493
1853.000000	0.276465
1854.000000	0.276266
1855.000000	0.276109
1856.000000	0.275881
1857.000000	0.275550
1858.000000	0.275842
1859.000000	0.275792
1860.000000	0.275746
1861.000000	0.276145
1862.000000	0.275913
1863.000000	0.274822
1864.000000	0.274677
1865.000000	0.275049
1866.000000	0.274937
1867.000000	0.274923
1868.000000	0.275065
1869.000000	0.274473
1870.000000	0.273464
1871.000000	0.272677
1872.000000	0.271939
1873.000000	0.271539
1874.000000	0.271443
1875.000000	0.271174
1876.000000	0.270885
1877.000000	0.270538
1878.000000	0.269592
1879.000000	0.268474
1880.000000	0.267675
1881.000000	0.266752
1882.000000	0.266406
1883.000000	0.265913
1884.000000	0.265383
1885.000000	0.264871
1886.000000	0.264185
1887.000000	0.263377
1888.000000	0.262254
1889.000000	0.260937
1890.000000	0.259637
1891.000000	0.258172
1892.000000	0.256566
1893.000000	0.255544
1894.000000	0.254965
1895.000000	0.254159
1896.000000	0.253508
1897.000000	0.253270
1898.000000	0.252834
1899.000000	0.251806
1900.000000	0.250579
1901.000000	0.249572
1902.000000	0.248920
1903.000000	0.248251
1904.000000	0.247722
1905.000000	0.247071
1906.000000	0.246543
1907.000000	0.245780
1908.000000	0.245557
1909.000000	0.245633
1910.000000	0.246353
1911.000000	0.246804
1912.000000	0.246064
1913.000000	0.245544
1914.000000	0.244563
1915.000000	0.243098
1916.000000	0.242599
1917.000000	0.242356
1918.000000	0.242435
1919.000000	0.242881
1920.000000	0.243722
1921.000000	0.244420
1922.000000	0.245337
1923.000000	0.245776
1924.000000	0.245573
1925.000000	0.245584
1926.000000	0.245477
1927.000000	0.245586
1928.000000	0.245554
1929.000000	0.245913
1930.000000	0.245774
1931.000000	0.245391
1932.000000	0.245513
1933.000000	0.246303
1934.000000	0.247185
1935.000000	0.248225
1936.000000	0.248626
1937.000000	0.248249
1938.000000	0.248107
1939.000000	0.247846
1940.000000	0.247375
1941.000000	0.246973
1942.000000	0.246993
1943.000000	0.246945
1944.000000	0.246839
1945.000000	0.246816
1946.000000	0.246938
1947.000000	0.247419
1948.000000	0.247943
1949.000000	0.248241
1950.000000	0.248637
1951.000000	0.248612
1952.000000	0.248002
1953.000000	0.247557
1954.000000	0.247873
1955.000000	0.247542
1956.000000	0.247439
1957.000000	0.247741
1958.000000	0.247274
1959.000000	0.247268
1960.000000	0.247923
1961.000000	0.248138
1962.000000	0.248400
1963.000000	0.248870
1964.000000	0.249714
1965.000000	0.249469
1966.000000	0.249386
1967.000000	0.250189
1968.000000	0.249978
1969.000000	0.249693
1970.000000	0.250149
1971.000000	0.250132
1972.000000	0.250055
1973.000000	0.250077
1974.000000	0.250626
1975.000000	0.250364
1976.000000	0.249458
1977.000000	0.249492
1978.000000	0.248949
1979.000000	0.249418
1980.000000	0.250542
1981.000000	0.250879
1982.000000	0.251056
1983.000000	0.251201
1984.000000	0.251235
1985.000000	0.250716
1986.000000	0.251036
1987.000000	0.251923
1988.000000	0.252493
1989.000000	0.253421
1990.000000	0.253721
1991.000000	0.252664
1992.000000	0.252308
1993.000000	0.251803
1994.000000	0.251552
1995.000000	0.252130
1996.000000	0.252187
1997.000000	0.252522
1998.000000	0.253317
1999.000000	0.253656
2000.000000	0.253776
2001.000000	0.254118
2002.000000	0.254454
2003.000000	0.254462
2004.000000	0.254788
2005.000000	0.255120
2006.000000	0.255263
2007.000000	0.255372
2008.000000	0.255461
2009.000000	0.255563
2010.000000	0.255627
2011.000000	0.255570
2012.000000	0.255334
2013.000000	0.254706
2014.000000	0.254533
2015.000000	0.254545
2016.000000	0.254620
2017.000000	0.255190
2018.000000	0.255864
2019.000000	0.256909
2020.000000	0.257723
2021.000000	0.258130
2022.000000	0.258567
2023.000000	0.258623
2024.000000	0.257826
2025.000000	0.257596
2026.000000	0.257416
2027.000000	0.257065
2028.000000	0.257142
2029.000000	0.257591
2030.000000	0.258132
2031.000000	0.258802
2032.000000	0.259106
2033.000000	0.259161
2034.000000	0.259239
2035.000000	0.259073
2036.000000	0.259000
2037.000000	0.259160
2038.000000	0.259476
2039.000000	0.259821
2040.000000	0.260496
2041.000000	0.261167
2042.000000	0.261334
2043.000000	0.261174
2044.000000	0.260599
2045.000000	0.259995
2046.000000	0.259225
2047.000000	0.259269
2048.000000	0.259870
2049.000000	0.260484
2050.000000	0.261970
2051.000000	0.261977
2052.000000	0.260613
2053.000000	0.260101
2054.000000	0.259236
2055.000000	0.259009
2056.000000	0.260168
2057.000000	0.260836
2058.000000	0.261117
2059.000000	0.261357
2060.000000	0.261423
2061.000000	0.261062
2062.000000	0.261153
2063.000000	0.261469
2064.000000	0.261550
2065.000000	0.261810
2066.000000	0.261739
2067.000000	0.261717
2068.000000	0.261714
2069.000000	0.261422
2070.000000	0.262127
2071.000000	0.262130
2072.000000	0.262579
2073.000000	0.263325
2074.000000	0.262947
2075.000000	0.263059
2076.000000	0.263418
2077.000000	0.263272
2078.000000	0.262842
2079.000000	0.262770
2080.000000	0.262585
2081.000000	0.262564
2082.000000	0.262867
2083.000000	0.262963
2084.000000	0.262952
2085.000000	0.263263
2086.000000	0.263635
2087.000000	0.263617
2088.000000	0.263922
2089.000000	0.264002
2090.000000	0.264025
2091.000000	0.264183
2092.000000	0.264160
2093.000000	0.263807
2094.000000	0.263787
2095.000000	0.263699
2096.000000	0.263953
2097.000000	0.264604
2098.000000	0.264866
2099.000000	0.265526
2100.000000	0.266189
2101.000000	0.266118
2102.000000	0.266219
2103.000000	0.266041
2104.000000	0.265795
2105.000000	0.265829
2106.000000	0.266380
2107.000000	0.266289
2108.000000	0.265928
2109.000000	0.265527
2110.000000	0.264219
2111.000000	0.263818
2112.000000	0.263739
2113.000000	0.263815
2114.000000	0.263779
2115.000000	0.264087
2116.000000	0.264303
2117.000000	0.264691
2118.000000	0.265581
2119.000000	0.265589
2120.000000	0.265911
2121.000000	0.266090
2122.000000	0.266158
2123.000000	0.266420
2124.000000	0.266564
2125.000000	0.266361
2126.000000	0.266264
2127.000000	0.265975
2128.000000	0.265836
2129.000000	0.265783
2130.000000	0.265642
2131.000000	0.265055
2132.000000	0.265898
2133.000000	0.265614
2134.000000	0.265367
2135.000000	0.265935
2136.000000	0.265764
2137.000000	0.265675
2138.000000	0.265994
2139.000000	0.265596
2140.000000	0.264143
2141.000000	0.263858
2142.000000	0.263778
2143.000000	0.263889
2144.000000	0.264868
2145.000000	0.265600
2146.000000	0.266630
2147.000000	0.267514
2148.000000	0.268232
2149.000000	0.268991
2150.000000	0.268308
2151.000000	0.267651
2152.000000	0.266923
2153.000000	0.266839
2154.000000	0.267016
2155.000000	0.268539
2156.000000	0.268455
2157.000000	0.267546
2158.000000	0.267001
2159.000000	0.265789
2160.000000	0.265218
2161.000000	0.265192
2162.000000	0.265252
2163.000000	0.265470
2164.000000	0.265363
2165.000000	0.265079
2166.000000	0.265477
2167.000000	0.264977
2168.000000	0.264914
2169.000000	0.265600
2170.000000	0.265890
2171.000000	0.266126
2172.000000	0.266935
2173.000000	0.266564
2174.000000	0.265078
2175.000000	0.264364
2176.000000	0.262773
2177.000000	0.262558
2178.000000	0.264013
2179.000000	0.264540
2180.000000	0.264990
2181.000000	0.265981
2182.000000	0.266656
2183.000000	0.266811
2184.000000	0.267442
2185.000000	0.268098
2186.000000	0.267615
2187.000000	0.267202
2188.000000	0.268177
2189.000000	0.268611
2190.000000	0.268875
2191.000000	0.269635
2192.000000	0.269576
2193.000000	0.268174
2194.000000	0.267894
2195.000000	0.268256
2196.000000	0.268321
2197.000000	0.268344
2198.000000	0.268131
2199.000000	0.268364
2200.000000	0.267162
2201.000000	0.264327
2202.000000	0.263298
2203.000000	0.261609
2204.000000	0.260748
2205.000000	0.262607
2206.000000	0.263981
2207.000000	0.264045
2208.000000	0.263246
2209.000000	0.260765
2210.000000	0.258989
2211.000000	0.259156
2212.000000	0.259294
2213.000000	0.259319
2214.000000	0.259627
2215.000000	0.260373
2216.000000	0.260330
2217.000000	0.262165
2218.000000	0.267607
2219.000000	0.269342
2220.000000	0.270734
2221.000000	0.270730
2222.000000	0.266633
2223.000000	0.264705
2224.000000	0.263182
2225.000000	0.261748
2226.000000	0.261968
2227.000000	0.263091
2228.000000	0.263979
2229.000000	0.263112
2230.000000	0.261679
2231.000000	0.260405
2232.000000	0.260367
2233.000000	0.263589
2234.000000	0.264032
2235.000000	0.264118
2236.000000	0.264972
2237.000000	0.264117
2238.000000	0.264830
2239.000000	0.268610
2240.000000	0.269924
2241.000000	0.270082
2242.000000	0.269769
2243.000000	0.268185
2244.000000	0.266904
2245.000000	0.264854
2246.000000	0.264433
2247.000000	0.264509
2248.000000	0.265077
2249.000000	0.268154
2250.000000	0.267800
2251.000000	0.267883
2252.000000	0.266586
2253.000000	0.262370
2254.000000	0.262072
2255.000000	0.261850
2256.000000	0.261236
2257.000000	0.261750
2258.000000	0.262047
2259.000000	0.262812
2260.000000	0.264356
2261.000000	0.263395
2262.000000	0.260731
2263.000000	0.259929
2264.000000	0.257361
2265.000000	0.257162
2266.000000	0.261355
2267.000000	0.261431
2268.000000	0.258974
2269.000000	0.258864
2270.000000	0.257272
2271.000000	0.257517
2272.000000	0.261315
2273.000000	0.262789
2274.000000	0.263129
2275.000000	0.264447
2276.000000	0.266799
2277.000000	0.266628
2278.000000	0.264618
2279.000000	0.263937
2280.000000	0.259950
2281.000000	0.256252
2282.000000	0.256060
2283.000000	0.255378
2284.000000	0.255457
2285.000000	0.255813
2286.000000	0.254939
2287.000000	0.253775
2288.000000	0.255471
2289.000000	0.256768
2290.000000	0.255881
2291.000000	0.258856
2292.000000	0.259440
2293.000000	0.257135
2294.000000	0.256739
2295.000000	0.256623
2296.000000	0.255896
2297.000000	0.255678
2298.000000	0.255711
2299.000000	0.256103
2300.000000	0.256634
2301.000000	0.257503
2302.000000	0.257509
2303.000000	0.256695
2304.000000	0.256227
2305.000000	0.256004
2306.000000	0.254725
2307.000000	0.253192
2308.000000	0.250899
2309.000000	0.249557
2310.000000	0.248857
2311.000000	0.247894
2312.000000	0.249191
2313.000000	0.248686
2314.000000	0.246747
2315.000000	0.246607
2316.000000	0.246228
2317.000000	0.247257
2318.000000	0.249805
2319.000000	0.252462
2320.000000	0.254768
2321.000000	0.255666
2322.000000	0.256025
2323.000000	0.255251
2324.000000	0.254094
2325.000000	0.251690
2326.000000	0.247988
2327.000000	0.244919
2328.000000	0.242539
2329.000000	0.242654
2330.000000	0.243731
2331.000000	0.245815
2332.000000	0.248570
2333.000000	0.250918
2334.000000	0.253217
2335.000000	0.254714
2336.000000	0.254646
2337.000000	0.255434
2338.000000	0.255696
2339.000000	0.256647
2340.000000	0.258937
2341.000000	0.260261
2342.000000	0.261225
2343.000000	0.260379
2344.000000	0.256882
2345.000000	0.255821
2346.000000	0.256169
2347.000000	0.256535
2348.000000	0.258194
2349.000000	0.259829
2350.000000	0.259567
2351.000000	0.255924
2352.000000	0.257328
2353.000000	0.256171
2354.000000	0.252899
2355.000000	0.253603
2356.000000	0.250922
2357.000000	0.250838
2358.000000	0.250465
2359.000000	0.250051
2360.000000	0.249799
2361.000000	0.245435
2362.000000	0.244948
2363.000000	0.243360
2364.000000	0.239308
2365.000000	0.240865
2366.000000	0.244136
2367.000000	0.246386
2368.000000	0.251458
2369.000000	0.253214
2370.000000	0.247317
2371.000000	0.246404
2372.000000	0.244914
2373.000000	0.241333
2374.000000	0.246376
2375.000000	0.246541
2376.000000	0.245748
2377.000000	0.247171
2378.000000	0.245909
2379.000000	0.249374
2380.000000	0.248614
2381.000000	0.248197
2382.000000	0.248191
2383.000000	0.239891
2384.000000	0.236446
2385.000000	0.234667
2386.000000	0.231250
2387.000000	0.233269
2388.000000	0.234378
2389.000000	0.238388
2390.000000	0.243630
2391.000000	0.243684
2392.000000	0.246078
2393.000000	0.243802
2394.000000	0.240592
2395.000000	0.242395
2396.000000	0.237990
2397.000000	0.233452
2398.000000	0.228235
2399.000000	0.222768
2400.000000	0.223200
2401.000000	0.230557
2402.000000	0.246281
2403.000000	0.255633
2404.000000	0.261004
2405.000000	0.261548
2406.000000	0.250917
2407.000000	0.247550
2408.000000	0.248072
2409.000000	0.239205
2410.000000	0.233929
2411.000000	0.233083
2412.000000	0.224694
2413.000000	0.224594
2414.000000	0.229088
2415.000000	0.221399
2416.000000	0.225103
2417.000000	0.233431
2418.000000	0.236207
2419.000000	0.248057
2420.000000	0.253059
2421.000000	0.247163
2422.000000	0.245664
2423.000000	0.246597
2424.000000	0.242600
2425.000000	0.247820
2426.000000	0.254890
2427.000000	0.250946
2428.000000	0.246751
2429.000000	0.237316
2430.000000	0.228996
2431.000000	0.220607
2432.000000	0.214088
2433.000000	0.218187
2434.000000	0.227331
2435.000000	0.237029
2436.000000	0.242239
2437.000000	0.251299
2438.000000	0.247569
2439.000000	0.238384
2440.000000	0.241132
2441.000000	0.233955
2442.000000	0.228651
2443.000000	0.225537
2444.000000	0.221450
2445.000000	0.221030
2446.000000	0.221424
2447.000000	0.230726
2448.000000	0.233157
2449.000000	0.242729
2450.000000	0.255817
2451.000000	0.264719
2452.000000	0.275737
2453.000000	0.269244
2454.000000	0.262440
2455.000000	0.252778
2456.000000	0.247717
2457.000000	0.248057
2458.000000	0.238621
2459.000000	0.233952
2460.000000	0.231320
2461.000000	0.223394
2462.000000	0.225133
2463.000000	0.242726
2464.000000	0.247041
2465.000000	0.258027
2466.000000	0.277504
2467.000000	0.272789
2468.000000	0.257808
2469.000000	0.235906
2470.000000	0.223549
2471.000000	0.218956
2472.000000	0.219667
2473.000000	0.248810
2474.000000	0.258347
2475.000000	0.251447
2476.000000	0.252270
2477.000000	0.221564
2478.000000	0.190755
2479.000000	0.180712
2480.000000	0.169220
2481.000000	0.175556
2482.000000	0.175304
2483.000000	0.159624
2484.000000	0.155060
2485.000000	0.152206
2486.000000	0.168194
2487.000000	0.211572
2488.000000	0.258625
2489.000000	0.272329
2490.000000	0.274804
2491.000000	0.271253
2492.000000	0.265381
2493.000000	0.286074
2494.000000	0.297492
2495.000000	0.288148
2496.000000	0.289841
2497.000000	0.284686
2498.000000	0.297779
2499.000000	0.345521
2500.000000	0.352253
