# Wavelength	SM1200H-10_HEX-40_FV7-50_00000.asd.rts.txt
350.000000	0.220126
351.000000	0.233991
352.000000	0.246517
353.000000	0.239073
354.000000	0.216098
355.000000	0.217720
356.000000	0.223883
357.000000	0.228815
358.000000	0.232169
359.000000	0.235744
360.000000	0.234323
361.000000	0.223544
362.000000	0.218868
363.000000	0.222184
364.000000	0.229285
365.000000	0.227902
366.000000	0.223324
367.000000	0.220976
368.000000	0.228416
369.000000	0.228401
370.000000	0.226995
371.000000	0.234377
372.000000	0.233765
373.000000	0.232273
374.000000	0.235384
375.000000	0.236736
376.000000	0.232948
377.000000	0.226955
378.000000	0.228318
379.000000	0.230149
380.000000	0.229799
381.000000	0.227563
382.000000	0.230800
383.000000	0.231812
384.000000	0.227006
385.000000	0.226261
386.000000	0.231471
387.000000	0.238616
388.000000	0.235986
389.000000	0.234938
390.000000	0.236316
391.000000	0.237158
392.000000	0.236640
393.000000	0.235335
394.000000	0.234247
395.000000	0.235165
396.000000	0.235496
397.000000	0.234970
398.000000	0.236733
399.000000	0.237300
400.000000	0.237130
401.000000	0.238073
402.000000	0.238832
403.000000	0.239681
404.000000	0.240829
405.000000	0.240239
406.000000	0.239978
407.000000	0.240878
408.000000	0.241712
409.000000	0.241257
410.000000	0.239942
411.000000	0.239218
412.000000	0.240844
413.000000	0.242619
414.000000	0.242304
415.000000	0.242996
416.000000	0.243628
417.000000	0.243649
418.000000	0.244425
419.000000	0.244318
420.000000	0.243715
421.000000	0.244754
422.000000	0.245768
423.000000	0.246257
424.000000	0.246245
425.000000	0.246482
426.000000	0.246732
427.000000	0.246819
428.000000	0.247243
429.000000	0.247887
430.000000	0.248443
431.000000	0.248183
432.000000	0.248517
433.000000	0.249103
434.000000	0.248964
435.000000	0.249151
436.000000	0.249419
437.000000	0.249429
438.000000	0.249706
439.000000	0.249973
440.000000	0.250144
441.000000	0.250216
442.000000	0.250148
443.000000	0.250142
444.000000	0.250759
445.000000	0.250953
446.000000	0.251072
447.000000	0.251530
448.000000	0.251629
449.000000	0.251895
450.000000	0.252560
451.000000	0.252645
452.000000	0.252980
453.000000	0.253518
454.000000	0.253395
455.000000	0.253640
456.000000	0.254114
457.000000	0.254091
458.000000	0.254599
459.000000	0.255136
460.000000	0.255223
461.000000	0.255242
462.000000	0.255520
463.000000	0.255897
464.000000	0.255820
465.000000	0.256012
466.000000	0.256442
467.000000	0.256751
468.000000	0.256685
469.000000	0.256510
470.000000	0.256764
471.000000	0.257409
472.000000	0.257850
473.000000	0.257852
474.000000	0.258090
475.000000	0.258121
476.000000	0.258092
477.000000	0.258464
478.000000	0.258678
479.000000	0.258879
480.000000	0.259122
481.000000	0.259364
482.000000	0.259663
483.000000	0.259864
484.000000	0.260161
485.000000	0.260284
486.000000	0.260375
487.000000	0.260771
488.000000	0.261136
489.000000	0.261416
490.000000	0.261701
491.000000	0.261952
492.000000	0.262197
493.000000	0.262350
494.000000	0.262493
495.000000	0.262834
496.000000	0.263345
497.000000	0.263493
498.000000	0.263711
499.000000	0.264139
500.000000	0.264377
501.000000	0.264543
502.000000	0.264732
503.000000	0.264958
504.000000	0.265280
505.000000	0.265599
506.000000	0.265839
507.000000	0.266141
508.000000	0.266510
509.000000	0.266849
510.000000	0.266995
511.000000	0.267152
512.000000	0.267437
513.000000	0.267860
514.000000	0.268221
515.000000	0.268532
516.000000	0.268814
517.000000	0.269173
518.000000	0.269534
519.000000	0.269771
520.000000	0.270113
521.000000	0.270343
522.000000	0.270465
523.000000	0.270815
524.000000	0.271168
525.000000	0.271469
526.000000	0.271781
527.000000	0.271954
528.000000	0.272110
529.000000	0.272442
530.000000	0.272761
531.000000	0.273054
532.000000	0.273274
533.000000	0.273626
534.000000	0.273899
535.000000	0.274080
536.000000	0.274401
537.000000	0.274727
538.000000	0.275004
539.000000	0.275207
540.000000	0.275461
541.000000	0.275777
542.000000	0.276138
543.000000	0.276316
544.000000	0.276569
545.000000	0.276925
546.000000	0.277195
547.000000	0.277479
548.000000	0.277801
549.000000	0.278049
550.000000	0.278324
551.000000	0.278641
552.000000	0.278938
553.000000	0.279241
554.000000	0.279546
555.000000	0.279871
556.000000	0.280308
557.000000	0.280667
558.000000	0.281008
559.000000	0.281348
560.000000	0.281679
561.000000	0.282045
562.000000	0.282361
563.000000	0.282694
564.000000	0.282983
565.000000	0.283101
566.000000	0.283458
567.000000	0.283840
568.000000	0.284105
569.000000	0.284439
570.000000	0.284699
571.000000	0.284897
572.000000	0.285214
573.000000	0.285532
574.000000	0.285842
575.000000	0.286218
576.000000	0.286576
577.000000	0.286882
578.000000	0.287189
579.000000	0.287511
580.000000	0.287838
581.000000	0.288144
582.000000	0.288379
583.000000	0.288592
584.000000	0.288841
585.000000	0.289195
586.000000	0.289440
587.000000	0.289661
588.000000	0.289991
589.000000	0.290349
590.000000	0.290649
591.000000	0.290869
592.000000	0.291148
593.000000	0.291420
594.000000	0.291671
595.000000	0.291946
596.000000	0.292230
597.000000	0.292493
598.000000	0.292612
599.000000	0.292736
600.000000	0.292948
601.000000	0.293193
602.000000	0.293371
603.000000	0.293588
604.000000	0.293860
605.000000	0.293991
606.000000	0.294125
607.000000	0.294290
608.000000	0.294457
609.000000	0.294684
610.000000	0.294918
611.000000	0.295088
612.000000	0.295254
613.000000	0.295410
614.000000	0.295588
615.000000	0.295789
616.000000	0.295974
617.000000	0.296109
618.000000	0.296273
619.000000	0.296365
620.000000	0.296425
621.000000	0.296601
622.000000	0.296802
623.000000	0.296962
624.000000	0.297051
625.000000	0.297171
626.000000	0.297306
627.000000	0.297461
628.000000	0.297697
629.000000	0.297919
630.000000	0.298013
631.000000	0.298140
632.000000	0.298295
633.000000	0.298485
634.000000	0.298685
635.000000	0.298850
636.000000	0.299005
637.000000	0.299150
638.000000	0.299277
639.000000	0.299413
640.000000	0.299583
641.000000	0.299637
642.000000	0.299753
643.000000	0.299939
644.000000	0.300147
645.000000	0.300314
646.000000	0.300450
647.000000	0.300559
648.000000	0.300732
649.000000	0.300857
650.000000	0.300922
651.000000	0.301116
652.000000	0.301239
653.000000	0.301323
654.000000	0.301418
655.000000	0.301595
656.000000	0.301802
657.000000	0.301938
658.000000	0.302132
659.000000	0.302338
660.000000	0.302525
661.000000	0.302764
662.000000	0.302934
663.000000	0.303085
664.000000	0.303263
665.000000	0.303408
666.000000	0.303572
667.000000	0.303767
668.000000	0.303860
669.000000	0.303963
670.000000	0.304147
671.000000	0.304347
672.000000	0.304581
673.000000	0.304811
674.000000	0.304973
675.000000	0.305133
676.000000	0.305298
677.000000	0.305473
678.000000	0.305633
679.000000	0.305762
680.000000	0.305865
681.000000	0.305961
682.000000	0.306124
683.000000	0.306276
684.000000	0.306413
685.000000	0.306554
686.000000	0.306718
687.000000	0.306873
688.000000	0.307086
689.000000	0.307292
690.000000	0.307474
691.000000	0.307649
692.000000	0.307813
693.000000	0.308011
694.000000	0.308165
695.000000	0.308313
696.000000	0.308476
697.000000	0.308666
698.000000	0.308850
699.000000	0.308995
700.000000	0.309113
701.000000	0.309334
702.000000	0.309564
703.000000	0.309738
704.000000	0.309869
705.000000	0.310049
706.000000	0.310252
707.000000	0.310487
708.000000	0.310676
709.000000	0.310816
710.000000	0.310942
711.000000	0.311052
712.000000	0.311136
713.000000	0.311232
714.000000	0.311391
715.000000	0.311522
716.000000	0.311649
717.000000	0.311815
718.000000	0.311954
719.000000	0.312084
720.000000	0.312245
721.000000	0.312429
722.000000	0.312557
723.000000	0.312667
724.000000	0.312767
725.000000	0.312890
726.000000	0.313077
727.000000	0.313206
728.000000	0.313338
729.000000	0.313495
730.000000	0.313628
731.000000	0.313732
732.000000	0.313819
733.000000	0.313945
734.000000	0.314105
735.000000	0.314152
736.000000	0.314244
737.000000	0.314384
738.000000	0.314438
739.000000	0.314545
740.000000	0.314640
741.000000	0.314722
742.000000	0.314801
743.000000	0.314857
744.000000	0.314926
745.000000	0.314984
746.000000	0.315095
747.000000	0.315232
748.000000	0.315360
749.000000	0.315496
750.000000	0.315612
751.000000	0.315693
752.000000	0.315746
753.000000	0.315809
754.000000	0.315921
755.000000	0.315989
756.000000	0.316024
757.000000	0.316023
758.000000	0.316014
759.000000	0.316064
760.000000	0.316125
761.000000	0.316188
762.000000	0.316312
763.000000	0.316448
764.000000	0.316555
765.000000	0.316588
766.000000	0.316609
767.000000	0.316675
768.000000	0.316777
769.000000	0.316866
770.000000	0.316923
771.000000	0.316964
772.000000	0.317039
773.000000	0.317075
774.000000	0.317093
775.000000	0.317099
776.000000	0.317124
777.000000	0.317170
778.000000	0.317255
779.000000	0.317352
780.000000	0.317426
781.000000	0.317411
782.000000	0.317376
783.000000	0.317442
784.000000	0.317531
785.000000	0.317610
786.000000	0.317677
787.000000	0.317733
788.000000	0.317807
789.000000	0.317894
790.000000	0.317963
791.000000	0.318011
792.000000	0.318052
793.000000	0.318071
794.000000	0.318067
795.000000	0.318057
796.000000	0.318051
797.000000	0.318058
798.000000	0.318091
799.000000	0.318142
800.000000	0.318212
801.000000	0.318293
802.000000	0.318310
803.000000	0.318306
804.000000	0.318346
805.000000	0.318406
806.000000	0.318366
807.000000	0.318338
808.000000	0.318380
809.000000	0.318411
810.000000	0.318415
811.000000	0.318378
812.000000	0.318320
813.000000	0.318292
814.000000	0.318301
815.000000	0.318336
816.000000	0.318370
817.000000	0.318386
818.000000	0.318305
819.000000	0.318296
820.000000	0.318303
821.000000	0.318250
822.000000	0.318206
823.000000	0.318159
824.000000	0.318126
825.000000	0.318233
826.000000	0.318260
827.000000	0.318254
828.000000	0.318305
829.000000	0.318390
830.000000	0.318374
831.000000	0.318330
832.000000	0.318272
833.000000	0.318170
834.000000	0.318061
835.000000	0.318002
836.000000	0.317920
837.000000	0.317796
838.000000	0.317688
839.000000	0.317665
840.000000	0.317613
841.000000	0.317607
842.000000	0.317666
843.000000	0.317660
844.000000	0.317604
845.000000	0.317510
846.000000	0.317459
847.000000	0.317398
848.000000	0.317357
849.000000	0.317397
850.000000	0.317385
851.000000	0.317345
852.000000	0.317320
853.000000	0.317250
854.000000	0.317118
855.000000	0.317070
856.000000	0.317072
857.000000	0.316991
858.000000	0.317012
859.000000	0.317054
860.000000	0.316811
861.000000	0.316691
862.000000	0.316730
863.000000	0.316746
864.000000	0.316813
865.000000	0.316834
866.000000	0.316777
867.000000	0.316657
868.000000	0.316520
869.000000	0.316305
870.000000	0.316053
871.000000	0.315987
872.000000	0.315981
873.000000	0.315873
874.000000	0.315726
875.000000	0.315514
876.000000	0.315329
877.000000	0.315213
878.000000	0.314995
879.000000	0.314878
880.000000	0.314811
881.000000	0.314704
882.000000	0.314565
883.000000	0.314398
884.000000	0.314170
885.000000	0.314172
886.000000	0.314052
887.000000	0.313718
888.000000	0.313560
889.000000	0.313523
890.000000	0.313405
891.000000	0.313197
892.000000	0.312928
893.000000	0.312731
894.000000	0.312712
895.000000	0.312501
896.000000	0.312266
897.000000	0.312103
898.000000	0.312034
899.000000	0.311781
900.000000	0.311534
901.000000	0.311376
902.000000	0.311346
903.000000	0.311150
904.000000	0.310857
905.000000	0.310544
906.000000	0.310400
907.000000	0.310347
908.000000	0.310307
909.000000	0.310042
910.000000	0.309836
911.000000	0.309646
912.000000	0.309438
913.000000	0.309427
914.000000	0.309213
915.000000	0.308888
916.000000	0.308735
917.000000	0.308418
918.000000	0.308094
919.000000	0.307883
920.000000	0.307682
921.000000	0.307524
922.000000	0.307431
923.000000	0.307363
924.000000	0.307069
925.000000	0.306690
926.000000	0.306403
927.000000	0.306254
928.000000	0.306074
929.000000	0.305883
930.000000	0.305744
931.000000	0.305562
932.000000	0.305222
933.000000	0.304786
934.000000	0.304400
935.000000	0.304204
936.000000	0.304110
937.000000	0.303878
938.000000	0.303424
939.000000	0.303193
940.000000	0.303057
941.000000	0.302730
942.000000	0.302485
943.000000	0.302318
944.000000	0.302075
945.000000	0.301820
946.000000	0.301580
947.000000	0.301373
948.000000	0.301142
949.000000	0.300904
950.000000	0.300738
951.000000	0.300527
952.000000	0.300121
953.000000	0.299925
954.000000	0.299791
955.000000	0.299500
956.000000	0.299237
957.000000	0.299037
958.000000	0.298769
959.000000	0.298410
960.000000	0.298207
961.000000	0.298074
962.000000	0.297883
963.000000	0.297553
964.000000	0.297234
965.000000	0.297108
966.000000	0.297083
967.000000	0.296789
968.000000	0.296675
969.000000	0.296634
970.000000	0.296455
971.000000	0.296280
972.000000	0.296031
973.000000	0.295644
974.000000	0.295281
975.000000	0.295070
976.000000	0.294887
977.000000	0.294631
978.000000	0.294479
979.000000	0.294443
980.000000	0.294291
981.000000	0.294142
982.000000	0.293637
983.000000	0.293395
984.000000	0.293453
985.000000	0.293061
986.000000	0.292937
987.000000	0.292768
988.000000	0.292291
989.000000	0.292216
990.000000	0.292221
991.000000	0.292112
992.000000	0.291842
993.000000	0.291570
994.000000	0.291627
995.000000	0.291870
996.000000	0.291499
997.000000	0.291277
998.000000	0.291121
999.000000	0.291053
1000.000000	0.291145
1001.000000	0.291267
1002.000000	0.290828
1003.000000	0.291223
1004.000000	0.291419
1005.000000	0.291882
1006.000000	0.291918
1007.000000	0.292019
1008.000000	0.291806
1009.000000	0.291093
1010.000000	0.290555
1011.000000	0.290615
1012.000000	0.290462
1013.000000	0.290137
1014.000000	0.290302
1015.000000	0.290514
1016.000000	0.290684
1017.000000	0.290832
1018.000000	0.290849
1019.000000	0.290891
1020.000000	0.290784
1021.000000	0.290619
1022.000000	0.290929
1023.000000	0.290882
1024.000000	0.290256
1025.000000	0.290367
1026.000000	0.290188
1027.000000	0.288949
1028.000000	0.288438
1029.000000	0.288464
1030.000000	0.288700
1031.000000	0.289199
1032.000000	0.289661
1033.000000	0.290135
1034.000000	0.290206
1035.000000	0.289521
1036.000000	0.289579
1037.000000	0.289855
1038.000000	0.289893
1039.000000	0.289870
1040.000000	0.290839
1041.000000	0.290911
1042.000000	0.290604
1043.000000	0.290867
1044.000000	0.290591
1045.000000	0.290429
1046.000000	0.290877
1047.000000	0.290990
1048.000000	0.290841
1049.000000	0.290713
1050.000000	0.290403
1051.000000	0.290574
1052.000000	0.291111
1053.000000	0.291128
1054.000000	0.291405
1055.000000	0.291636
1056.000000	0.291561
1057.000000	0.291250
1058.000000	0.291677
1059.000000	0.291714
1060.000000	0.291208
1061.000000	0.291338
1062.000000	0.291871
1063.000000	0.292330
1064.000000	0.292627
1065.000000	0.293070
1066.000000	0.293427
1067.000000	0.293459
1068.000000	0.293485
1069.000000	0.293597
1070.000000	0.293711
1071.000000	0.293726
1072.000000	0.293737
1073.000000	0.293856
1074.000000	0.293919
1075.000000	0.294351
1076.000000	0.294590
1077.000000	0.294784
1078.000000	0.295290
1079.000000	0.295469
1080.000000	0.295244
1081.000000	0.295306
1082.000000	0.295641
1083.000000	0.295714
1084.000000	0.295490
1085.000000	0.295784
1086.000000	0.296398
1087.000000	0.296714
1088.000000	0.297139
1089.000000	0.297429
1090.000000	0.297320
1091.000000	0.297319
1092.000000	0.297642
1093.000000	0.298136
1094.000000	0.298284
1095.000000	0.298248
1096.000000	0.298332
1097.000000	0.298154
1098.000000	0.298422
1099.000000	0.298999
1100.000000	0.299424
1101.000000	0.300036
1102.000000	0.300299
1103.000000	0.300170
1104.000000	0.300381
1105.000000	0.300544
1106.000000	0.300848
1107.000000	0.301665
1108.000000	0.301920
1109.000000	0.301874
1110.000000	0.301869
1111.000000	0.301864
1112.000000	0.301473
1113.000000	0.301627
1114.000000	0.302271
1115.000000	0.302426
1116.000000	0.302387
1117.000000	0.302656
1118.000000	0.303006
1119.000000	0.303074
1120.000000	0.303202
1121.000000	0.303353
1122.000000	0.303315
1123.000000	0.303486
1124.000000	0.303719
1125.000000	0.303914
1126.000000	0.303847
1127.000000	0.303889
1128.000000	0.303986
1129.000000	0.304210
1130.000000	0.304440
1131.000000	0.304770
1132.000000	0.304932
1133.000000	0.305170
1134.000000	0.305283
1135.000000	0.305170
1136.000000	0.305169
1137.000000	0.305219
1138.000000	0.305136
1139.000000	0.304996
1140.000000	0.305062
1141.000000	0.305060
1142.000000	0.305163
1143.000000	0.305500
1144.000000	0.305746
1145.000000	0.305811
1146.000000	0.305750
1147.000000	0.305749
1148.000000	0.305532
1149.000000	0.305578
1150.000000	0.305801
1151.000000	0.305910
1152.000000	0.306045
1153.000000	0.306086
1154.000000	0.306004
1155.000000	0.305917
1156.000000	0.305708
1157.000000	0.305697
1158.000000	0.305629
1159.000000	0.305706
1160.000000	0.306158
1161.000000	0.306252
1162.000000	0.306251
1163.000000	0.306368
1164.000000	0.306168
1165.000000	0.306028
1166.000000	0.305965
1167.000000	0.305899
1168.000000	0.305901
1169.000000	0.306009
1170.000000	0.306055
1171.000000	0.306190
1172.000000	0.306308
1173.000000	0.306357
1174.000000	0.306390
1175.000000	0.306405
1176.000000	0.306415
1177.000000	0.306469
1178.000000	0.306479
1179.000000	0.306498
1180.000000	0.306445
1181.000000	0.306379
1182.000000	0.306346
1183.000000	0.306331
1184.000000	0.306284
1185.000000	0.306344
1186.000000	0.306507
1187.000000	0.306485
1188.000000	0.306469
1189.000000	0.306381
1190.000000	0.306089
1191.000000	0.306037
1192.000000	0.306217
1193.000000	0.306396
1194.000000	0.306594
1195.000000	0.306698
1196.000000	0.306678
1197.000000	0.306723
1198.000000	0.306781
1199.000000	0.306844
1200.000000	0.306967
1201.000000	0.307025
1202.000000	0.307003
1203.000000	0.306877
1204.000000	0.306832
1205.000000	0.306828
1206.000000	0.306755
1207.000000	0.306804
1208.000000	0.306766
1209.000000	0.306708
1210.000000	0.306671
1211.000000	0.306632
1212.000000	0.306616
1213.000000	0.306648
1214.000000	0.306645
1215.000000	0.306655
1216.000000	0.306655
1217.000000	0.306571
1218.000000	0.306495
1219.000000	0.306460
1220.000000	0.306434
1221.000000	0.306404
1222.000000	0.306356
1223.000000	0.306319
1224.000000	0.306370
1225.000000	0.306353
1226.000000	0.306384
1227.000000	0.306376
1228.000000	0.306386
1229.000000	0.306375
1230.000000	0.306345
1231.000000	0.306241
1232.000000	0.306206
1233.000000	0.306237
1234.000000	0.306246
1235.000000	0.306248
1236.000000	0.306168
1237.000000	0.306187
1238.000000	0.306178
1239.000000	0.306162
1240.000000	0.306107
1241.000000	0.306314
1242.000000	0.306470
1243.000000	0.306452
1244.000000	0.306503
1245.000000	0.306557
1246.000000	0.306440
1247.000000	0.306479
1248.000000	0.306574
1249.000000	0.306550
1250.000000	0.306498
1251.000000	0.306487
1252.000000	0.306460
1253.000000	0.306464
1254.000000	0.306414
1255.000000	0.306335
1256.000000	0.306222
1257.000000	0.306047
1258.000000	0.306032
1259.000000	0.306054
1260.000000	0.306047
1261.000000	0.305991
1262.000000	0.305978
1263.000000	0.305898
1264.000000	0.305999
1265.000000	0.306130
1266.000000	0.306197
1267.000000	0.306214
1268.000000	0.306146
1269.000000	0.306102
1270.000000	0.306181
1271.000000	0.306209
1272.000000	0.306134
1273.000000	0.306069
1274.000000	0.305961
1275.000000	0.305883
1276.000000	0.305812
1277.000000	0.305854
1278.000000	0.305963
1279.000000	0.305897
1280.000000	0.305655
1281.000000	0.305565
1282.000000	0.305444
1283.000000	0.305461
1284.000000	0.305654
1285.000000	0.305767
1286.000000	0.305882
1287.000000	0.305838
1288.000000	0.305932
1289.000000	0.305918
1290.000000	0.305736
1291.000000	0.305818
1292.000000	0.305891
1293.000000	0.305802
1294.000000	0.305796
1295.000000	0.305740
1296.000000	0.305558
1297.000000	0.305472
1298.000000	0.305583
1299.000000	0.305647
1300.000000	0.305703
1301.000000	0.305891
1302.000000	0.305832
1303.000000	0.305578
1304.000000	0.305500
1305.000000	0.305528
1306.000000	0.305472
1307.000000	0.305639
1308.000000	0.305680
1309.000000	0.305499
1310.000000	0.305439
1311.000000	0.305517
1312.000000	0.305297
1313.000000	0.305142
1314.000000	0.305095
1315.000000	0.304895
1316.000000	0.304870
1317.000000	0.304907
1318.000000	0.304840
1319.000000	0.304831
1320.000000	0.304882
1321.000000	0.304836
1322.000000	0.304861
1323.000000	0.304873
1324.000000	0.304714
1325.000000	0.304473
1326.000000	0.304180
1327.000000	0.304012
1328.000000	0.304098
1329.000000	0.304032
1330.000000	0.304115
1331.000000	0.304054
1332.000000	0.303886
1333.000000	0.303721
1334.000000	0.303583
1335.000000	0.303542
1336.000000	0.303464
1337.000000	0.303364
1338.000000	0.303248
1339.000000	0.303261
1340.000000	0.303114
1341.000000	0.303140
1342.000000	0.303253
1343.000000	0.303166
1344.000000	0.303057
1345.000000	0.302938
1346.000000	0.302801
1347.000000	0.302624
1348.000000	0.302445
1349.000000	0.302281
1350.000000	0.302199
1351.000000	0.301953
1352.000000	0.301805
1353.000000	0.301674
1354.000000	0.301447
1355.000000	0.301294
1356.000000	0.301168
1357.000000	0.300962
1358.000000	0.300790
1359.000000	0.300739
1360.000000	0.300660
1361.000000	0.300681
1362.000000	0.300597
1363.000000	0.300369
1364.000000	0.300292
1365.000000	0.300295
1366.000000	0.300275
1367.000000	0.300361
1368.000000	0.300232
1369.000000	0.300047
1370.000000	0.299780
1371.000000	0.299507
1372.000000	0.299393
1373.000000	0.299379
1374.000000	0.299262
1375.000000	0.299060
1376.000000	0.298999
1377.000000	0.298913
1378.000000	0.298702
1379.000000	0.298442
1380.000000	0.298051
1381.000000	0.297672
1382.000000	0.297314
1383.000000	0.296881
1384.000000	0.296531
1385.000000	0.296036
1386.000000	0.295622
1387.000000	0.295402
1388.000000	0.294998
1389.000000	0.294609
1390.000000	0.294266
1391.000000	0.293832
1392.000000	0.293537
1393.000000	0.293251
1394.000000	0.293047
1395.000000	0.292914
1396.000000	0.292956
1397.000000	0.292712
1398.000000	0.292395
1399.000000	0.292054
1400.000000	0.291441
1401.000000	0.290911
1402.000000	0.290430
1403.000000	0.290104
1404.000000	0.289781
1405.000000	0.289397
1406.000000	0.289057
1407.000000	0.288624
1408.000000	0.288057
1409.000000	0.287577
1410.000000	0.287125
1411.000000	0.286694
1412.000000	0.286268
1413.000000	0.285866
1414.000000	0.285508
1415.000000	0.285046
1416.000000	0.284461
1417.000000	0.283945
1418.000000	0.283421
1419.000000	0.282935
1420.000000	0.282410
1421.000000	0.281877
1422.000000	0.281350
1423.000000	0.280905
1424.000000	0.280424
1425.000000	0.280000
1426.000000	0.279552
1427.000000	0.279107
1428.000000	0.278707
1429.000000	0.278209
1430.000000	0.277773
1431.000000	0.277401
1432.000000	0.276997
1433.000000	0.276654
1434.000000	0.276314
1435.000000	0.276035
1436.000000	0.275751
1437.000000	0.275535
1438.000000	0.275199
1439.000000	0.274780
1440.000000	0.274409
1441.000000	0.273965
1442.000000	0.273655
1443.000000	0.273389
1444.000000	0.273222
1445.000000	0.272918
1446.000000	0.272698
1447.000000	0.272357
1448.000000	0.271965
1449.000000	0.271679
1450.000000	0.271386
1451.000000	0.271179
1452.000000	0.270949
1453.000000	0.270770
1454.000000	0.270568
1455.000000	0.270322
1456.000000	0.270275
1457.000000	0.270201
1458.000000	0.269991
1459.000000	0.269877
1460.000000	0.269760
1461.000000	0.269600
1462.000000	0.269523
1463.000000	0.269437
1464.000000	0.269320
1465.000000	0.269296
1466.000000	0.269371
1467.000000	0.269416
1468.000000	0.269386
1469.000000	0.269336
1470.000000	0.269180
1471.000000	0.269095
1472.000000	0.269067
1473.000000	0.269203
1474.000000	0.269362
1475.000000	0.269501
1476.000000	0.269752
1477.000000	0.269848
1478.000000	0.269913
1479.000000	0.270067
1480.000000	0.270122
1481.000000	0.270220
1482.000000	0.270411
1483.000000	0.270626
1484.000000	0.270862
1485.000000	0.271079
1486.000000	0.271336
1487.000000	0.271558
1488.000000	0.271718
1489.000000	0.271953
1490.000000	0.272119
1491.000000	0.272362
1492.000000	0.272650
1493.000000	0.272888
1494.000000	0.273092
1495.000000	0.273261
1496.000000	0.273353
1497.000000	0.273511
1498.000000	0.273698
1499.000000	0.273921
1500.000000	0.274153
1501.000000	0.274310
1502.000000	0.274361
1503.000000	0.274468
1504.000000	0.274622
1505.000000	0.274714
1506.000000	0.274872
1507.000000	0.275063
1508.000000	0.275225
1509.000000	0.275434
1510.000000	0.275588
1511.000000	0.275671
1512.000000	0.275752
1513.000000	0.275847
1514.000000	0.276010
1515.000000	0.276152
1516.000000	0.276278
1517.000000	0.276388
1518.000000	0.276553
1519.000000	0.276602
1520.000000	0.276549
1521.000000	0.276530
1522.000000	0.276557
1523.000000	0.276725
1524.000000	0.276968
1525.000000	0.277143
1526.000000	0.277209
1527.000000	0.277208
1528.000000	0.277218
1529.000000	0.277234
1530.000000	0.277126
1531.000000	0.277079
1532.000000	0.277071
1533.000000	0.276993
1534.000000	0.277028
1535.000000	0.277116
1536.000000	0.277093
1537.000000	0.277147
1538.000000	0.277213
1539.000000	0.277232
1540.000000	0.277274
1541.000000	0.277405
1542.000000	0.277584
1543.000000	0.277648
1544.000000	0.277643
1545.000000	0.277566
1546.000000	0.277467
1547.000000	0.277459
1548.000000	0.277488
1549.000000	0.277477
1550.000000	0.277403
1551.000000	0.277382
1552.000000	0.277417
1553.000000	0.277435
1554.000000	0.277450
1555.000000	0.277526
1556.000000	0.277570
1557.000000	0.277524
1558.000000	0.277538
1559.000000	0.277479
1560.000000	0.277470
1561.000000	0.277518
1562.000000	0.277609
1563.000000	0.277867
1564.000000	0.277934
1565.000000	0.277929
1566.000000	0.277862
1567.000000	0.277707
1568.000000	0.277647
1569.000000	0.277712
1570.000000	0.277714
1571.000000	0.277686
1572.000000	0.277690
1573.000000	0.277741
1574.000000	0.277685
1575.000000	0.277606
1576.000000	0.277566
1577.000000	0.277397
1578.000000	0.277323
1579.000000	0.277449
1580.000000	0.277477
1581.000000	0.277495
1582.000000	0.277530
1583.000000	0.277556
1584.000000	0.277495
1585.000000	0.277486
1586.000000	0.277529
1587.000000	0.277573
1588.000000	0.277599
1589.000000	0.277650
1590.000000	0.277649
1591.000000	0.277567
1592.000000	0.277600
1593.000000	0.277796
1594.000000	0.277814
1595.000000	0.277749
1596.000000	0.277803
1597.000000	0.277895
1598.000000	0.277901
1599.000000	0.278054
1600.000000	0.278059
1601.000000	0.277902
1602.000000	0.277803
1603.000000	0.277753
1604.000000	0.277681
1605.000000	0.277551
1606.000000	0.277551
1607.000000	0.277712
1608.000000	0.277755
1609.000000	0.277900
1610.000000	0.277923
1611.000000	0.277808
1612.000000	0.277770
1613.000000	0.277809
1614.000000	0.277824
1615.000000	0.277957
1616.000000	0.278010
1617.000000	0.277935
1618.000000	0.277940
1619.000000	0.277911
1620.000000	0.277918
1621.000000	0.278014
1622.000000	0.278185
1623.000000	0.278369
1624.000000	0.278488
1625.000000	0.278530
1626.000000	0.278530
1627.000000	0.278426
1628.000000	0.278515
1629.000000	0.278721
1630.000000	0.278844
1631.000000	0.278961
1632.000000	0.278992
1633.000000	0.278922
1634.000000	0.278980
1635.000000	0.279098
1636.000000	0.279207
1637.000000	0.279385
1638.000000	0.279477
1639.000000	0.279574
1640.000000	0.279673
1641.000000	0.279845
1642.000000	0.279915
1643.000000	0.279944
1644.000000	0.280012
1645.000000	0.280013
1646.000000	0.280059
1647.000000	0.280218
1648.000000	0.280322
1649.000000	0.280475
1650.000000	0.280594
1651.000000	0.280735
1652.000000	0.280869
1653.000000	0.280939
1654.000000	0.281076
1655.000000	0.281204
1656.000000	0.281238
1657.000000	0.281297
1658.000000	0.281360
1659.000000	0.281453
1660.000000	0.281628
1661.000000	0.281817
1662.000000	0.281951
1663.000000	0.282104
1664.000000	0.282147
1665.000000	0.282052
1666.000000	0.282146
1667.000000	0.282190
1668.000000	0.282302
1669.000000	0.282531
1670.000000	0.282562
1671.000000	0.282589
1672.000000	0.282710
1673.000000	0.282809
1674.000000	0.282897
1675.000000	0.282968
1676.000000	0.282929
1677.000000	0.282817
1678.000000	0.282779
1679.000000	0.282866
1680.000000	0.282888
1681.000000	0.282993
1682.000000	0.283237
1683.000000	0.283301
1684.000000	0.283351
1685.000000	0.283392
1686.000000	0.283228
1687.000000	0.283189
1688.000000	0.283144
1689.000000	0.283070
1690.000000	0.282989
1691.000000	0.282923
1692.000000	0.282838
1693.000000	0.282794
1694.000000	0.282815
1695.000000	0.282773
1696.000000	0.282669
1697.000000	0.282632
1698.000000	0.282756
1699.000000	0.282808
1700.000000	0.282863
1701.000000	0.282957
1702.000000	0.282845
1703.000000	0.282765
1704.000000	0.282727
1705.000000	0.282788
1706.000000	0.283043
1707.000000	0.283099
1708.000000	0.283058
1709.000000	0.283077
1710.000000	0.283019
1711.000000	0.283099
1712.000000	0.283480
1713.000000	0.283615
1714.000000	0.283627
1715.000000	0.283740
1716.000000	0.283821
1717.000000	0.283926
1718.000000	0.284140
1719.000000	0.284206
1720.000000	0.284168
1721.000000	0.284219
1722.000000	0.284284
1723.000000	0.284332
1724.000000	0.284416
1725.000000	0.284551
1726.000000	0.284637
1727.000000	0.284665
1728.000000	0.284668
1729.000000	0.284632
1730.000000	0.284585
1731.000000	0.284612
1732.000000	0.284732
1733.000000	0.284848
1734.000000	0.284874
1735.000000	0.284865
1736.000000	0.284776
1737.000000	0.284825
1738.000000	0.284933
1739.000000	0.284941
1740.000000	0.285017
1741.000000	0.284954
1742.000000	0.284726
1743.000000	0.284647
1744.000000	0.284533
1745.000000	0.284644
1746.000000	0.284868
1747.000000	0.285151
1748.000000	0.285245
1749.000000	0.285082
1750.000000	0.284955
1751.000000	0.284800
1752.000000	0.284881
1753.000000	0.285075
1754.000000	0.285128
1755.000000	0.285209
1756.000000	0.285219
1757.000000	0.284962
1758.000000	0.284927
1759.000000	0.285055
1760.000000	0.285096
1761.000000	0.285106
1762.000000	0.285182
1763.000000	0.285321
1764.000000	0.285364
1765.000000	0.285349
1766.000000	0.285437
1767.000000	0.285426
1768.000000	0.285393
1769.000000	0.285590
1770.000000	0.285644
1771.000000	0.285506
1772.000000	0.285410
1773.000000	0.285188
1774.000000	0.285178
1775.000000	0.285310
1776.000000	0.285382
1777.000000	0.285539
1778.000000	0.285649
1779.000000	0.285672
1780.000000	0.285719
1781.000000	0.285799
1782.000000	0.285865
1783.000000	0.285881
1784.000000	0.286053
1785.000000	0.286195
1786.000000	0.286285
1787.000000	0.286541
1788.000000	0.286584
1789.000000	0.286600
1790.000000	0.286808
1791.000000	0.286932
1792.000000	0.287344
1793.000000	0.287536
1794.000000	0.287530
1795.000000	0.287569
1796.000000	0.287460
1797.000000	0.287470
1798.000000	0.287580
1799.000000	0.287593
1800.000000	0.287652
1801.000000	0.287815
1802.000000	0.287823
1803.000000	0.287188
1804.000000	0.286821
1805.000000	0.286032
1806.000000	0.285871
1807.000000	0.286200
1808.000000	0.286057
1809.000000	0.285797
1810.000000	0.285554
1811.000000	0.285921
1812.000000	0.286307
1813.000000	0.286683
1814.000000	0.288269
1815.000000	0.288364
1816.000000	0.287064
1817.000000	0.286747
1818.000000	0.286468
1819.000000	0.286401
1820.000000	0.286506
1821.000000	0.285929
1822.000000	0.285735
1823.000000	0.284902
1824.000000	0.284818
1825.000000	0.285263
1826.000000	0.285655
1827.000000	0.286337
1828.000000	0.286576
1829.000000	0.286923
1830.000000	0.287508
1831.000000	0.287473
1832.000000	0.287093
1833.000000	0.286867
1834.000000	0.286038
1835.000000	0.285882
1836.000000	0.285984
1837.000000	0.285882
1838.000000	0.285756
1839.000000	0.286117
1840.000000	0.285688
1841.000000	0.285585
1842.000000	0.285480
1843.000000	0.285229
1844.000000	0.285153
1845.000000	0.285328
1846.000000	0.285264
1847.000000	0.285179
1848.000000	0.284810
1849.000000	0.283593
1850.000000	0.282825
1851.000000	0.282432
1852.000000	0.281673
1853.000000	0.281640
1854.000000	0.282774
1855.000000	0.282621
1856.000000	0.281683
1857.000000	0.281685
1858.000000	0.280883
1859.000000	0.279944
1860.000000	0.280151
1861.000000	0.279741
1862.000000	0.279573
1863.000000	0.280078
1864.000000	0.279862
1865.000000	0.279392
1866.000000	0.278771
1867.000000	0.277524
1868.000000	0.276394
1869.000000	0.276162
1870.000000	0.275690
1871.000000	0.275182
1872.000000	0.273886
1873.000000	0.272788
1874.000000	0.270901
1875.000000	0.269725
1876.000000	0.268714
1877.000000	0.267943
1878.000000	0.266413
1879.000000	0.264885
1880.000000	0.263352
1881.000000	0.261709
1882.000000	0.260485
1883.000000	0.258837
1884.000000	0.257159
1885.000000	0.254999
1886.000000	0.253132
1887.000000	0.251103
1888.000000	0.249440
1889.000000	0.247888
1890.000000	0.246571
1891.000000	0.245212
1892.000000	0.243071
1893.000000	0.241155
1894.000000	0.239607
1895.000000	0.237548
1896.000000	0.235257
1897.000000	0.233461
1898.000000	0.231851
1899.000000	0.229470
1900.000000	0.226979
1901.000000	0.224662
1902.000000	0.221498
1903.000000	0.218566
1904.000000	0.216520
1905.000000	0.214496
1906.000000	0.212926
1907.000000	0.212039
1908.000000	0.211141
1909.000000	0.209569
1910.000000	0.208221
1911.000000	0.206738
1912.000000	0.205222
1913.000000	0.204178
1914.000000	0.203097
1915.000000	0.202089
1916.000000	0.201362
1917.000000	0.200408
1918.000000	0.199525
1919.000000	0.199094
1920.000000	0.198220
1921.000000	0.196770
1922.000000	0.195984
1923.000000	0.195101
1924.000000	0.194289
1925.000000	0.193894
1926.000000	0.193365
1927.000000	0.193205
1928.000000	0.193002
1929.000000	0.192973
1930.000000	0.192820
1931.000000	0.192696
1932.000000	0.193000
1933.000000	0.193319
1934.000000	0.193340
1935.000000	0.193835
1936.000000	0.193892
1937.000000	0.193836
1938.000000	0.194050
1939.000000	0.193887
1940.000000	0.193374
1941.000000	0.193034
1942.000000	0.193127
1943.000000	0.193035
1944.000000	0.193463
1945.000000	0.193709
1946.000000	0.193273
1947.000000	0.193312
1948.000000	0.193278
1949.000000	0.192880
1950.000000	0.192357
1951.000000	0.192198
1952.000000	0.192147
1953.000000	0.192049
1954.000000	0.192147
1955.000000	0.192720
1956.000000	0.192053
1957.000000	0.191024
1958.000000	0.190631
1959.000000	0.190132
1960.000000	0.190075
1961.000000	0.190399
1962.000000	0.190297
1963.000000	0.190001
1964.000000	0.189654
1965.000000	0.189219
1966.000000	0.188989
1967.000000	0.189730
1968.000000	0.190441
1969.000000	0.190384
1970.000000	0.190140
1971.000000	0.189329
1972.000000	0.188411
1973.000000	0.188218
1974.000000	0.189047
1975.000000	0.189383
1976.000000	0.189918
1977.000000	0.190508
1978.000000	0.190701
1979.000000	0.190995
1980.000000	0.191050
1981.000000	0.191183
1982.000000	0.191423
1983.000000	0.191758
1984.000000	0.192107
1985.000000	0.192838
1986.000000	0.193257
1987.000000	0.193660
1988.000000	0.193695
1989.000000	0.194043
1990.000000	0.194062
1991.000000	0.193358
1992.000000	0.193372
1993.000000	0.193520
1994.000000	0.193842
1995.000000	0.195022
1996.000000	0.195728
1997.000000	0.196243
1998.000000	0.196634
1999.000000	0.196940
2000.000000	0.196798
2001.000000	0.197114
2002.000000	0.197606
2003.000000	0.198260
2004.000000	0.199023
2005.000000	0.199642
2006.000000	0.200369
2007.000000	0.200708
2008.000000	0.201068
2009.000000	0.201218
2010.000000	0.201759
2011.000000	0.202388
2012.000000	0.202931
2013.000000	0.203611
2014.000000	0.204105
2015.000000	0.204711
2016.000000	0.205045
2017.000000	0.205692
2018.000000	0.206484
2019.000000	0.206831
2020.000000	0.207087
2021.000000	0.207415
2022.000000	0.207446
2023.000000	0.207858
2024.000000	0.208458
2025.000000	0.209270
2026.000000	0.210297
2027.000000	0.211275
2028.000000	0.212093
2029.000000	0.212884
2030.000000	0.213136
2031.000000	0.213217
2032.000000	0.213892
2033.000000	0.214412
2034.000000	0.214999
2035.000000	0.216021
2036.000000	0.216785
2037.000000	0.217581
2038.000000	0.218091
2039.000000	0.218708
2040.000000	0.218821
2041.000000	0.218463
2042.000000	0.218725
2043.000000	0.218650
2044.000000	0.219024
2045.000000	0.220397
2046.000000	0.221109
2047.000000	0.221615
2048.000000	0.222014
2049.000000	0.222718
2050.000000	0.222775
2051.000000	0.223318
2052.000000	0.224568
2053.000000	0.225277
2054.000000	0.226144
2055.000000	0.226394
2056.000000	0.226533
2057.000000	0.226666
2058.000000	0.226010
2059.000000	0.225925
2060.000000	0.226392
2061.000000	0.227597
2062.000000	0.228156
2063.000000	0.229097
2064.000000	0.229346
2065.000000	0.228819
2066.000000	0.228732
2067.000000	0.228508
2068.000000	0.229489
2069.000000	0.230377
2070.000000	0.231123
2071.000000	0.231863
2072.000000	0.231772
2073.000000	0.231391
2074.000000	0.231358
2075.000000	0.231734
2076.000000	0.232549
2077.000000	0.233383
2078.000000	0.234685
2079.000000	0.235412
2080.000000	0.236200
2081.000000	0.236487
2082.000000	0.236120
2083.000000	0.236333
2084.000000	0.236040
2085.000000	0.235934
2086.000000	0.236425
2087.000000	0.236939
2088.000000	0.237166
2089.000000	0.237465
2090.000000	0.238003
2091.000000	0.238482
2092.000000	0.239129
2093.000000	0.240601
2094.000000	0.241118
2095.000000	0.240928
2096.000000	0.241098
2097.000000	0.240965
2098.000000	0.240937
2099.000000	0.240726
2100.000000	0.241964
2101.000000	0.242730
2102.000000	0.242552
2103.000000	0.243281
2104.000000	0.243237
2105.000000	0.243317
2106.000000	0.243201
2107.000000	0.243666
2108.000000	0.244348
2109.000000	0.244760
2110.000000	0.245256
2111.000000	0.245733
2112.000000	0.245920
2113.000000	0.245821
2114.000000	0.246866
2115.000000	0.247395
2116.000000	0.247402
2117.000000	0.248046
2118.000000	0.247852
2119.000000	0.247534
2120.000000	0.247611
2121.000000	0.247856
2122.000000	0.247888
2123.000000	0.248216
2124.000000	0.248310
2125.000000	0.247961
2126.000000	0.247986
2127.000000	0.248121
2128.000000	0.248162
2129.000000	0.247969
2130.000000	0.248541
2131.000000	0.248601
2132.000000	0.249293
2133.000000	0.249965
2134.000000	0.250371
2135.000000	0.250705
2136.000000	0.250951
2137.000000	0.251292
2138.000000	0.251873
2139.000000	0.251993
2140.000000	0.251862
2141.000000	0.251872
2142.000000	0.251518
2143.000000	0.251090
2144.000000	0.250999
2145.000000	0.250910
2146.000000	0.250669
2147.000000	0.251065
2148.000000	0.250405
2149.000000	0.249848
2150.000000	0.249406
2151.000000	0.248837
2152.000000	0.249401
2153.000000	0.249666
2154.000000	0.249862
2155.000000	0.249924
2156.000000	0.250197
2157.000000	0.250748
2158.000000	0.250874
2159.000000	0.251064
2160.000000	0.250836
2161.000000	0.249856
2162.000000	0.249410
2163.000000	0.248224
2164.000000	0.248186
2165.000000	0.249176
2166.000000	0.250194
2167.000000	0.251022
2168.000000	0.252372
2169.000000	0.251867
2170.000000	0.251279
2171.000000	0.251433
2172.000000	0.251950
2173.000000	0.251948
2174.000000	0.252163
2175.000000	0.252288
2176.000000	0.251592
2177.000000	0.251659
2178.000000	0.252671
2179.000000	0.253319
2180.000000	0.254576
2181.000000	0.254835
2182.000000	0.254029
2183.000000	0.252785
2184.000000	0.251861
2185.000000	0.250695
2186.000000	0.250576
2187.000000	0.251247
2188.000000	0.250909
2189.000000	0.249732
2190.000000	0.248305
2191.000000	0.247829
2192.000000	0.247603
2193.000000	0.247971
2194.000000	0.248232
2195.000000	0.249006
2196.000000	0.249751
2197.000000	0.250566
2198.000000	0.251242
2199.000000	0.252974
2200.000000	0.253258
2201.000000	0.251423
2202.000000	0.251291
2203.000000	0.251421
2204.000000	0.250962
2205.000000	0.252284
2206.000000	0.253545
2207.000000	0.252836
2208.000000	0.252955
2209.000000	0.252197
2210.000000	0.253785
2211.000000	0.255063
2212.000000	0.254608
2213.000000	0.253895
2214.000000	0.251383
2215.000000	0.249548
2216.000000	0.247462
2217.000000	0.246644
2218.000000	0.246194
2219.000000	0.246505
2220.000000	0.248276
2221.000000	0.249206
2222.000000	0.250441
2223.000000	0.251045
2224.000000	0.251761
2225.000000	0.250982
2226.000000	0.249397
2227.000000	0.248166
2228.000000	0.248479
2229.000000	0.248537
2230.000000	0.249939
2231.000000	0.252517
2232.000000	0.254473
2233.000000	0.255720
2234.000000	0.255531
2235.000000	0.256734
2236.000000	0.258067
2237.000000	0.260089
2238.000000	0.260402
2239.000000	0.261311
2240.000000	0.259995
2241.000000	0.254705
2242.000000	0.252628
2243.000000	0.250202
2244.000000	0.249675
2245.000000	0.253171
2246.000000	0.253642
2247.000000	0.253299
2248.000000	0.253917
2249.000000	0.254343
2250.000000	0.252641
2251.000000	0.252941
2252.000000	0.252092
2253.000000	0.251659
2254.000000	0.252222
2255.000000	0.255546
2256.000000	0.260614
2257.000000	0.261119
2258.000000	0.260306
2259.000000	0.258604
2260.000000	0.255192
2261.000000	0.253704
2262.000000	0.253933
2263.000000	0.253704
2264.000000	0.253951
2265.000000	0.252827
2266.000000	0.251679
2267.000000	0.250616
2268.000000	0.247698
2269.000000	0.246625
2270.000000	0.246800
2271.000000	0.246600
2272.000000	0.247176
2273.000000	0.247902
2274.000000	0.248387
2275.000000	0.249134
2276.000000	0.250891
2277.000000	0.250850
2278.000000	0.250280
2279.000000	0.250246
2280.000000	0.249087
2281.000000	0.247323
2282.000000	0.246634
2283.000000	0.245910
2284.000000	0.245518
2285.000000	0.245924
2286.000000	0.244656
2287.000000	0.243340
2288.000000	0.241696
2289.000000	0.239704
2290.000000	0.240310
2291.000000	0.241149
2292.000000	0.240777
2293.000000	0.240585
2294.000000	0.240358
2295.000000	0.239409
2296.000000	0.238590
2297.000000	0.238445
2298.000000	0.237724
2299.000000	0.235488
2300.000000	0.233820
2301.000000	0.231541
2302.000000	0.231573
2303.000000	0.234047
2304.000000	0.235225
2305.000000	0.238381
2306.000000	0.238283
2307.000000	0.234834
2308.000000	0.232606
2309.000000	0.232132
2310.000000	0.232524
2311.000000	0.234919
2312.000000	0.234566
2313.000000	0.231087
2314.000000	0.227942
2315.000000	0.226291
2316.000000	0.227631
2317.000000	0.228945
2318.000000	0.230893
2319.000000	0.231985
2320.000000	0.229103
2321.000000	0.228706
2322.000000	0.229409
2323.000000	0.227152
2324.000000	0.227052
2325.000000	0.228499
2326.000000	0.227971
2327.000000	0.227367
2328.000000	0.227707
2329.000000	0.227065
2330.000000	0.225511
2331.000000	0.226989
2332.000000	0.229836
2333.000000	0.230526
2334.000000	0.229886
2335.000000	0.228824
2336.000000	0.224736
2337.000000	0.223037
2338.000000	0.222298
2339.000000	0.222287
2340.000000	0.224066
2341.000000	0.224517
2342.000000	0.224543
2343.000000	0.224175
2344.000000	0.223511
2345.000000	0.222121
2346.000000	0.219791
2347.000000	0.217131
2348.000000	0.212685
2349.000000	0.211875
2350.000000	0.211446
2351.000000	0.212370
2352.000000	0.212768
2353.000000	0.211407
2354.000000	0.209452
2355.000000	0.207720
2356.000000	0.208055
2357.000000	0.210788
2358.000000	0.214135
2359.000000	0.216148
2360.000000	0.216848
2361.000000	0.217290
2362.000000	0.215902
2363.000000	0.216671
2364.000000	0.220666
2365.000000	0.221114
2366.000000	0.221368
2367.000000	0.219085
2368.000000	0.214551
2369.000000	0.211573
2370.000000	0.204128
2371.000000	0.200787
2372.000000	0.200873
2373.000000	0.197087
2374.000000	0.197476
2375.000000	0.198527
2376.000000	0.198799
2377.000000	0.201335
2378.000000	0.202233
2379.000000	0.203053
2380.000000	0.198748
2381.000000	0.191456
2382.000000	0.188606
2383.000000	0.185822
2384.000000	0.181940
2385.000000	0.182328
2386.000000	0.184961
2387.000000	0.181545
2388.000000	0.182558
2389.000000	0.186680
2390.000000	0.184895
2391.000000	0.187429
2392.000000	0.191750
2393.000000	0.194649
2394.000000	0.195690
2395.000000	0.197135
2396.000000	0.194262
2397.000000	0.188140
2398.000000	0.192185
2399.000000	0.193054
2400.000000	0.191772
2401.000000	0.192747
2402.000000	0.184970
2403.000000	0.177172
2404.000000	0.174693
2405.000000	0.171253
2406.000000	0.167565
2407.000000	0.169564
2408.000000	0.169099
2409.000000	0.169103
2410.000000	0.172982
2411.000000	0.166912
2412.000000	0.161832
2413.000000	0.163819
2414.000000	0.162410
2415.000000	0.163529
2416.000000	0.167738
2417.000000	0.172051
2418.000000	0.181288
2419.000000	0.187504
2420.000000	0.194828
2421.000000	0.197757
2422.000000	0.185394
2423.000000	0.181898
2424.000000	0.178462
2425.000000	0.166019
2426.000000	0.170388
2427.000000	0.177172
2428.000000	0.181555
2429.000000	0.194526
2430.000000	0.196252
2431.000000	0.190979
2432.000000	0.193754
2433.000000	0.188083
2434.000000	0.177190
2435.000000	0.179367
2436.000000	0.175755
2437.000000	0.172050
2438.000000	0.176796
2439.000000	0.166814
2440.000000	0.158371
2441.000000	0.157398
2442.000000	0.155035
2443.000000	0.159981
2444.000000	0.162597
2445.000000	0.162235
2446.000000	0.167237
2447.000000	0.166454
2448.000000	0.166258
2449.000000	0.169675
2450.000000	0.166136
2451.000000	0.165745
2452.000000	0.163597
2453.000000	0.163175
2454.000000	0.162596
2455.000000	0.157843
2456.000000	0.165020
2457.000000	0.165083
2458.000000	0.167752
2459.000000	0.175918
2460.000000	0.163234
2461.000000	0.160107
2462.000000	0.160776
2463.000000	0.154730
2464.000000	0.165878
2465.000000	0.167060
2466.000000	0.153069
2467.000000	0.138743
2468.000000	0.126627
2469.000000	0.124334
2470.000000	0.144008
2471.000000	0.166609
2472.000000	0.184733
2473.000000	0.200913
2474.000000	0.171192
2475.000000	0.159191
2476.000000	0.158979
2477.000000	0.129780
2478.000000	0.138716
2479.000000	0.121289
2480.000000	0.095663
2481.000000	0.116748
2482.000000	0.128029
2483.000000	0.158425
2484.000000	0.178500
2485.000000	0.160715
2486.000000	0.130914
2487.000000	0.097690
2488.000000	0.085619
2489.000000	0.081592
2490.000000	0.105622
2491.000000	0.152333
2492.000000	0.162080
2493.000000	0.167630
2494.000000	0.166733
2495.000000	0.128396
2496.000000	0.107759
2497.000000	0.101068
2498.000000	0.098744
2499.000000	0.094474
2500.000000	0.082250
