# Wavelength	SM1200H-20_FV7-80_00002.asd.rts.txt
350.000000	0.222516
351.000000	0.219621
352.000000	0.217538
353.000000	0.216565
354.000000	0.217342
355.000000	0.214771
356.000000	0.215157
357.000000	0.218472
358.000000	0.216625
359.000000	0.217565
360.000000	0.219471
361.000000	0.218859
362.000000	0.219747
363.000000	0.221275
364.000000	0.222400
365.000000	0.225108
366.000000	0.225768
367.000000	0.223828
368.000000	0.221767
369.000000	0.223013
370.000000	0.224708
371.000000	0.222925
372.000000	0.222853
373.000000	0.223544
374.000000	0.224191
375.000000	0.224174
376.000000	0.224569
377.000000	0.225713
378.000000	0.227694
379.000000	0.227606
380.000000	0.226725
381.000000	0.228110
382.000000	0.228727
383.000000	0.229300
384.000000	0.230484
385.000000	0.230587
386.000000	0.230502
387.000000	0.230765
388.000000	0.231247
389.000000	0.231835
390.000000	0.232054
391.000000	0.231273
392.000000	0.232143
393.000000	0.233195
394.000000	0.233202
395.000000	0.233546
396.000000	0.234224
397.000000	0.234937
398.000000	0.235041
399.000000	0.235635
400.000000	0.236544
401.000000	0.236923
402.000000	0.236718
403.000000	0.236751
404.000000	0.237640
405.000000	0.237870
406.000000	0.238123
407.000000	0.238637
408.000000	0.238592
409.000000	0.238850
410.000000	0.239383
411.000000	0.239639
412.000000	0.240049
413.000000	0.240417
414.000000	0.240553
415.000000	0.240957
416.000000	0.241295
417.000000	0.241463
418.000000	0.241997
419.000000	0.242475
420.000000	0.242761
421.000000	0.242913
422.000000	0.243143
423.000000	0.243439
424.000000	0.243784
425.000000	0.244074
426.000000	0.244230
427.000000	0.244262
428.000000	0.244512
429.000000	0.244804
430.000000	0.245089
431.000000	0.245471
432.000000	0.245760
433.000000	0.245902
434.000000	0.246023
435.000000	0.246210
436.000000	0.246520
437.000000	0.246909
438.000000	0.247093
439.000000	0.247172
440.000000	0.247311
441.000000	0.247413
442.000000	0.247567
443.000000	0.247723
444.000000	0.247896
445.000000	0.247964
446.000000	0.248122
447.000000	0.248433
448.000000	0.248850
449.000000	0.249191
450.000000	0.249376
451.000000	0.249549
452.000000	0.249924
453.000000	0.250369
454.000000	0.250557
455.000000	0.250715
456.000000	0.250947
457.000000	0.251137
458.000000	0.251354
459.000000	0.251611
460.000000	0.251932
461.000000	0.252149
462.000000	0.252387
463.000000	0.252565
464.000000	0.252755
465.000000	0.252924
466.000000	0.253082
467.000000	0.253402
468.000000	0.253576
469.000000	0.253654
470.000000	0.253915
471.000000	0.254106
472.000000	0.254288
473.000000	0.254531
474.000000	0.254738
475.000000	0.254805
476.000000	0.254910
477.000000	0.255210
478.000000	0.255383
479.000000	0.255575
480.000000	0.255754
481.000000	0.255846
482.000000	0.256054
483.000000	0.256326
484.000000	0.256643
485.000000	0.256872
486.000000	0.257128
487.000000	0.257395
488.000000	0.257611
489.000000	0.257842
490.000000	0.258218
491.000000	0.258454
492.000000	0.258657
493.000000	0.258893
494.000000	0.259197
495.000000	0.259518
496.000000	0.259769
497.000000	0.259981
498.000000	0.260253
499.000000	0.260620
500.000000	0.260846
501.000000	0.261005
502.000000	0.261227
503.000000	0.261577
504.000000	0.261854
505.000000	0.262082
506.000000	0.262320
507.000000	0.262521
508.000000	0.262786
509.000000	0.263104
510.000000	0.263374
511.000000	0.263620
512.000000	0.263872
513.000000	0.264108
514.000000	0.264447
515.000000	0.264841
516.000000	0.265132
517.000000	0.265478
518.000000	0.265804
519.000000	0.265986
520.000000	0.266256
521.000000	0.266563
522.000000	0.266880
523.000000	0.267210
524.000000	0.267531
525.000000	0.267822
526.000000	0.268112
527.000000	0.268350
528.000000	0.268552
529.000000	0.268792
530.000000	0.268968
531.000000	0.269191
532.000000	0.269444
533.000000	0.269723
534.000000	0.269966
535.000000	0.270181
536.000000	0.270504
537.000000	0.270776
538.000000	0.270992
539.000000	0.271195
540.000000	0.271434
541.000000	0.271737
542.000000	0.272117
543.000000	0.272357
544.000000	0.272586
545.000000	0.272819
546.000000	0.273093
547.000000	0.273381
548.000000	0.273688
549.000000	0.273939
550.000000	0.274212
551.000000	0.274526
552.000000	0.274823
553.000000	0.275058
554.000000	0.275316
555.000000	0.275644
556.000000	0.275916
557.000000	0.276185
558.000000	0.276563
559.000000	0.276867
560.000000	0.277160
561.000000	0.277511
562.000000	0.277842
563.000000	0.278181
564.000000	0.278512
565.000000	0.278724
566.000000	0.278982
567.000000	0.279226
568.000000	0.279429
569.000000	0.279758
570.000000	0.280085
571.000000	0.280376
572.000000	0.280693
573.000000	0.280982
574.000000	0.281236
575.000000	0.281520
576.000000	0.281792
577.000000	0.282032
578.000000	0.282293
579.000000	0.282535
580.000000	0.282851
581.000000	0.283230
582.000000	0.283496
583.000000	0.283752
584.000000	0.284035
585.000000	0.284351
586.000000	0.284610
587.000000	0.284837
588.000000	0.285090
589.000000	0.285382
590.000000	0.285667
591.000000	0.285917
592.000000	0.286141
593.000000	0.286386
594.000000	0.286622
595.000000	0.286736
596.000000	0.286864
597.000000	0.287067
598.000000	0.287272
599.000000	0.287476
600.000000	0.287707
601.000000	0.287915
602.000000	0.288150
603.000000	0.288371
604.000000	0.288571
605.000000	0.288772
606.000000	0.288977
607.000000	0.289203
608.000000	0.289471
609.000000	0.289721
610.000000	0.289938
611.000000	0.290116
612.000000	0.290227
613.000000	0.290317
614.000000	0.290457
615.000000	0.290622
616.000000	0.290708
617.000000	0.290695
618.000000	0.290752
619.000000	0.290791
620.000000	0.290805
621.000000	0.290880
622.000000	0.291038
623.000000	0.291246
624.000000	0.291478
625.000000	0.291790
626.000000	0.292065
627.000000	0.292261
628.000000	0.292461
629.000000	0.292679
630.000000	0.292821
631.000000	0.293008
632.000000	0.293176
633.000000	0.293334
634.000000	0.293478
635.000000	0.293531
636.000000	0.293603
637.000000	0.293726
638.000000	0.293819
639.000000	0.293927
640.000000	0.294098
641.000000	0.294222
642.000000	0.294361
643.000000	0.294520
644.000000	0.294690
645.000000	0.294821
646.000000	0.294940
647.000000	0.295055
648.000000	0.295209
649.000000	0.295389
650.000000	0.295556
651.000000	0.295682
652.000000	0.295835
653.000000	0.296029
654.000000	0.296166
655.000000	0.296317
656.000000	0.296533
657.000000	0.296777
658.000000	0.296971
659.000000	0.297142
660.000000	0.297295
661.000000	0.297454
662.000000	0.297531
663.000000	0.297599
664.000000	0.297717
665.000000	0.297866
666.000000	0.298043
667.000000	0.298208
668.000000	0.298320
669.000000	0.298408
670.000000	0.298512
671.000000	0.298659
672.000000	0.298829
673.000000	0.298984
674.000000	0.299090
675.000000	0.299175
676.000000	0.299292
677.000000	0.299499
678.000000	0.299687
679.000000	0.299864
680.000000	0.300042
681.000000	0.300145
682.000000	0.300277
683.000000	0.300404
684.000000	0.300593
685.000000	0.300775
686.000000	0.300958
687.000000	0.301116
688.000000	0.301241
689.000000	0.301363
690.000000	0.301536
691.000000	0.301717
692.000000	0.301905
693.000000	0.302136
694.000000	0.302300
695.000000	0.302476
696.000000	0.302647
697.000000	0.302770
698.000000	0.302922
699.000000	0.303086
700.000000	0.303231
701.000000	0.303306
702.000000	0.303452
703.000000	0.303662
704.000000	0.303782
705.000000	0.303924
706.000000	0.304069
707.000000	0.304246
708.000000	0.304417
709.000000	0.304535
710.000000	0.304599
711.000000	0.304659
712.000000	0.304729
713.000000	0.304848
714.000000	0.305043
715.000000	0.305209
716.000000	0.305361
717.000000	0.305538
718.000000	0.305686
719.000000	0.305839
720.000000	0.306026
721.000000	0.306135
722.000000	0.306203
723.000000	0.306302
724.000000	0.306363
725.000000	0.306359
726.000000	0.306406
727.000000	0.306501
728.000000	0.306535
729.000000	0.306588
730.000000	0.306688
731.000000	0.306846
732.000000	0.306990
733.000000	0.307133
734.000000	0.307271
735.000000	0.307392
736.000000	0.307569
737.000000	0.307651
738.000000	0.307684
739.000000	0.307793
740.000000	0.307879
741.000000	0.307937
742.000000	0.308003
743.000000	0.308068
744.000000	0.308160
745.000000	0.308243
746.000000	0.308361
747.000000	0.308473
748.000000	0.308578
749.000000	0.308698
750.000000	0.308814
751.000000	0.308927
752.000000	0.308994
753.000000	0.309015
754.000000	0.308998
755.000000	0.309017
756.000000	0.309065
757.000000	0.309079
758.000000	0.309166
759.000000	0.309308
760.000000	0.309411
761.000000	0.309518
762.000000	0.309620
763.000000	0.309676
764.000000	0.309712
765.000000	0.309722
766.000000	0.309705
767.000000	0.309670
768.000000	0.309687
769.000000	0.309753
770.000000	0.309842
771.000000	0.309889
772.000000	0.310010
773.000000	0.310125
774.000000	0.310208
775.000000	0.310213
776.000000	0.310199
777.000000	0.310202
778.000000	0.310210
779.000000	0.310232
780.000000	0.310285
781.000000	0.310372
782.000000	0.310442
783.000000	0.310540
784.000000	0.310557
785.000000	0.310579
786.000000	0.310645
787.000000	0.310727
788.000000	0.310686
789.000000	0.310593
790.000000	0.310486
791.000000	0.310442
792.000000	0.310484
793.000000	0.310561
794.000000	0.310634
795.000000	0.310747
796.000000	0.310824
797.000000	0.310834
798.000000	0.310804
799.000000	0.310808
800.000000	0.310849
801.000000	0.310904
802.000000	0.310953
803.000000	0.310913
804.000000	0.310808
805.000000	0.310722
806.000000	0.310660
807.000000	0.310714
808.000000	0.310838
809.000000	0.310877
810.000000	0.310874
811.000000	0.310867
812.000000	0.310806
813.000000	0.310735
814.000000	0.310681
815.000000	0.310672
816.000000	0.310712
817.000000	0.310814
818.000000	0.310891
819.000000	0.310947
820.000000	0.310955
821.000000	0.310870
822.000000	0.310777
823.000000	0.310785
824.000000	0.310818
825.000000	0.310856
826.000000	0.310876
827.000000	0.310858
828.000000	0.310832
829.000000	0.310770
830.000000	0.310708
831.000000	0.310703
832.000000	0.310660
833.000000	0.310715
834.000000	0.310714
835.000000	0.310579
836.000000	0.310429
837.000000	0.310267
838.000000	0.310143
839.000000	0.310099
840.000000	0.310111
841.000000	0.310136
842.000000	0.310107
843.000000	0.310096
844.000000	0.310086
845.000000	0.310045
846.000000	0.309999
847.000000	0.310025
848.000000	0.310028
849.000000	0.309939
850.000000	0.309858
851.000000	0.309827
852.000000	0.309877
853.000000	0.309912
854.000000	0.309825
855.000000	0.309735
856.000000	0.309623
857.000000	0.309404
858.000000	0.309330
859.000000	0.309368
860.000000	0.309242
861.000000	0.309178
862.000000	0.309232
863.000000	0.309304
864.000000	0.309353
865.000000	0.309300
866.000000	0.309132
867.000000	0.308851
868.000000	0.308675
869.000000	0.308567
870.000000	0.308498
871.000000	0.308464
872.000000	0.308364
873.000000	0.308126
874.000000	0.307956
875.000000	0.307847
876.000000	0.307789
877.000000	0.307687
878.000000	0.307508
879.000000	0.307340
880.000000	0.307112
881.000000	0.306920
882.000000	0.306731
883.000000	0.306539
884.000000	0.306301
885.000000	0.306214
886.000000	0.306046
887.000000	0.305736
888.000000	0.305512
889.000000	0.305314
890.000000	0.305045
891.000000	0.304836
892.000000	0.304792
893.000000	0.304698
894.000000	0.304567
895.000000	0.304406
896.000000	0.304217
897.000000	0.304068
898.000000	0.303992
899.000000	0.303729
900.000000	0.303399
901.000000	0.303082
902.000000	0.302901
903.000000	0.302673
904.000000	0.302495
905.000000	0.302397
906.000000	0.302386
907.000000	0.302232
908.000000	0.301960
909.000000	0.301697
910.000000	0.301461
911.000000	0.301231
912.000000	0.300978
913.000000	0.300591
914.000000	0.300248
915.000000	0.300075
916.000000	0.299966
917.000000	0.299720
918.000000	0.299505
919.000000	0.299415
920.000000	0.299241
921.000000	0.299121
922.000000	0.299075
923.000000	0.299018
924.000000	0.298780
925.000000	0.298568
926.000000	0.298481
927.000000	0.298241
928.000000	0.297974
929.000000	0.297708
930.000000	0.297432
931.000000	0.297084
932.000000	0.296710
933.000000	0.296391
934.000000	0.296133
935.000000	0.295855
936.000000	0.295609
937.000000	0.295348
938.000000	0.295071
939.000000	0.294738
940.000000	0.294379
941.000000	0.294207
942.000000	0.293936
943.000000	0.293750
944.000000	0.293634
945.000000	0.293554
946.000000	0.293294
947.000000	0.293043
948.000000	0.292958
949.000000	0.292678
950.000000	0.292348
951.000000	0.292016
952.000000	0.291732
953.000000	0.291506
954.000000	0.291250
955.000000	0.290888
956.000000	0.290685
957.000000	0.290657
958.000000	0.290626
959.000000	0.290481
960.000000	0.290284
961.000000	0.290000
962.000000	0.289647
963.000000	0.289369
964.000000	0.289007
965.000000	0.288768
966.000000	0.288668
967.000000	0.288458
968.000000	0.288199
969.000000	0.287886
970.000000	0.287615
971.000000	0.287350
972.000000	0.287105
973.000000	0.286839
974.000000	0.286628
975.000000	0.286395
976.000000	0.286196
977.000000	0.286036
978.000000	0.285702
979.000000	0.285581
980.000000	0.285398
981.000000	0.285132
982.000000	0.285020
983.000000	0.284809
984.000000	0.284540
985.000000	0.284439
986.000000	0.284319
987.000000	0.284257
988.000000	0.284151
989.000000	0.283792
990.000000	0.283516
991.000000	0.283329
992.000000	0.283190
993.000000	0.283203
994.000000	0.283159
995.000000	0.283139
996.000000	0.283049
997.000000	0.282885
998.000000	0.282652
999.000000	0.282536
1000.000000	0.282714
1001.000000	0.282637
1002.000000	0.282811
1003.000000	0.282454
1004.000000	0.281968
1005.000000	0.281193
1006.000000	0.280691
1007.000000	0.280008
1008.000000	0.279748
1009.000000	0.279778
1010.000000	0.279705
1011.000000	0.279982
1012.000000	0.280395
1013.000000	0.280549
1014.000000	0.280543
1015.000000	0.280555
1016.000000	0.280385
1017.000000	0.280027
1018.000000	0.280023
1019.000000	0.280011
1020.000000	0.280160
1021.000000	0.279923
1022.000000	0.279879
1023.000000	0.279840
1024.000000	0.279468
1025.000000	0.279278
1026.000000	0.279261
1027.000000	0.278902
1028.000000	0.278939
1029.000000	0.279144
1030.000000	0.278962
1031.000000	0.279198
1032.000000	0.279483
1033.000000	0.279493
1034.000000	0.279382
1035.000000	0.279053
1036.000000	0.278982
1037.000000	0.278844
1038.000000	0.278766
1039.000000	0.278874
1040.000000	0.279483
1041.000000	0.279500
1042.000000	0.279167
1043.000000	0.279570
1044.000000	0.279873
1045.000000	0.279899
1046.000000	0.280014
1047.000000	0.280107
1048.000000	0.279853
1049.000000	0.279726
1050.000000	0.279733
1051.000000	0.279864
1052.000000	0.279876
1053.000000	0.279874
1054.000000	0.280212
1055.000000	0.280564
1056.000000	0.280801
1057.000000	0.281305
1058.000000	0.281630
1059.000000	0.281618
1060.000000	0.281880
1061.000000	0.281848
1062.000000	0.281762
1063.000000	0.282178
1064.000000	0.282386
1065.000000	0.282297
1066.000000	0.282496
1067.000000	0.283091
1068.000000	0.283166
1069.000000	0.282751
1070.000000	0.282806
1071.000000	0.282930
1072.000000	0.283068
1073.000000	0.283359
1074.000000	0.284081
1075.000000	0.284617
1076.000000	0.284823
1077.000000	0.284962
1078.000000	0.285102
1079.000000	0.285270
1080.000000	0.285245
1081.000000	0.285399
1082.000000	0.285838
1083.000000	0.286147
1084.000000	0.286454
1085.000000	0.286721
1086.000000	0.287039
1087.000000	0.287270
1088.000000	0.287173
1089.000000	0.287295
1090.000000	0.287585
1091.000000	0.287650
1092.000000	0.287662
1093.000000	0.288140
1094.000000	0.288365
1095.000000	0.288438
1096.000000	0.288595
1097.000000	0.288824
1098.000000	0.289006
1099.000000	0.289057
1100.000000	0.289270
1101.000000	0.289531
1102.000000	0.289711
1103.000000	0.289885
1104.000000	0.290112
1105.000000	0.290271
1106.000000	0.290518
1107.000000	0.290943
1108.000000	0.291130
1109.000000	0.291243
1110.000000	0.291301
1111.000000	0.291518
1112.000000	0.291711
1113.000000	0.291910
1114.000000	0.292245
1115.000000	0.292534
1116.000000	0.292794
1117.000000	0.292946
1118.000000	0.293187
1119.000000	0.293191
1120.000000	0.292786
1121.000000	0.292737
1122.000000	0.292871
1123.000000	0.293137
1124.000000	0.293410
1125.000000	0.293695
1126.000000	0.294024
1127.000000	0.294166
1128.000000	0.294230
1129.000000	0.294282
1130.000000	0.294342
1131.000000	0.294167
1132.000000	0.294337
1133.000000	0.294836
1134.000000	0.295092
1135.000000	0.295449
1136.000000	0.295521
1137.000000	0.295198
1138.000000	0.295172
1139.000000	0.295216
1140.000000	0.295375
1141.000000	0.295733
1142.000000	0.295985
1143.000000	0.296176
1144.000000	0.296412
1145.000000	0.296493
1146.000000	0.296505
1147.000000	0.296526
1148.000000	0.296367
1149.000000	0.296398
1150.000000	0.296538
1151.000000	0.296607
1152.000000	0.296660
1153.000000	0.296728
1154.000000	0.296727
1155.000000	0.296730
1156.000000	0.296737
1157.000000	0.296783
1158.000000	0.296800
1159.000000	0.296799
1160.000000	0.296804
1161.000000	0.296827
1162.000000	0.296845
1163.000000	0.297008
1164.000000	0.297186
1165.000000	0.297258
1166.000000	0.297366
1167.000000	0.297415
1168.000000	0.297453
1169.000000	0.297518
1170.000000	0.297578
1171.000000	0.297664
1172.000000	0.297746
1173.000000	0.297786
1174.000000	0.297829
1175.000000	0.297826
1176.000000	0.297830
1177.000000	0.297939
1178.000000	0.297979
1179.000000	0.297978
1180.000000	0.297938
1181.000000	0.297914
1182.000000	0.297909
1183.000000	0.297912
1184.000000	0.297994
1185.000000	0.298024
1186.000000	0.298038
1187.000000	0.298036
1188.000000	0.298030
1189.000000	0.297997
1190.000000	0.297986
1191.000000	0.297984
1192.000000	0.298056
1193.000000	0.298174
1194.000000	0.298256
1195.000000	0.298275
1196.000000	0.298164
1197.000000	0.298140
1198.000000	0.298138
1199.000000	0.298139
1200.000000	0.298146
1201.000000	0.298233
1202.000000	0.298323
1203.000000	0.298270
1204.000000	0.298214
1205.000000	0.298239
1206.000000	0.298175
1207.000000	0.298125
1208.000000	0.298078
1209.000000	0.298070
1210.000000	0.298046
1211.000000	0.298021
1212.000000	0.297998
1213.000000	0.298053
1214.000000	0.298043
1215.000000	0.297970
1216.000000	0.297912
1217.000000	0.297753
1218.000000	0.297663
1219.000000	0.297642
1220.000000	0.297656
1221.000000	0.297699
1222.000000	0.297739
1223.000000	0.297668
1224.000000	0.297643
1225.000000	0.297611
1226.000000	0.297582
1227.000000	0.297631
1228.000000	0.297742
1229.000000	0.297733
1230.000000	0.297637
1231.000000	0.297536
1232.000000	0.297444
1233.000000	0.297517
1234.000000	0.297681
1235.000000	0.297755
1236.000000	0.297773
1237.000000	0.297856
1238.000000	0.297862
1239.000000	0.297885
1240.000000	0.297984
1241.000000	0.298054
1242.000000	0.297972
1243.000000	0.297905
1244.000000	0.297958
1245.000000	0.298076
1246.000000	0.298114
1247.000000	0.298158
1248.000000	0.298153
1249.000000	0.298080
1250.000000	0.298130
1251.000000	0.298209
1252.000000	0.298164
1253.000000	0.298073
1254.000000	0.297976
1255.000000	0.297760
1256.000000	0.297658
1257.000000	0.297627
1258.000000	0.297588
1259.000000	0.297484
1260.000000	0.297503
1261.000000	0.297573
1262.000000	0.297566
1263.000000	0.297587
1264.000000	0.297622
1265.000000	0.297576
1266.000000	0.297501
1267.000000	0.297558
1268.000000	0.297559
1269.000000	0.297503
1270.000000	0.297556
1271.000000	0.297564
1272.000000	0.297557
1273.000000	0.297580
1274.000000	0.297579
1275.000000	0.297551
1276.000000	0.297506
1277.000000	0.297530
1278.000000	0.297496
1279.000000	0.297464
1280.000000	0.297361
1281.000000	0.297304
1282.000000	0.297324
1283.000000	0.297367
1284.000000	0.297401
1285.000000	0.297420
1286.000000	0.297440
1287.000000	0.297359
1288.000000	0.297322
1289.000000	0.297263
1290.000000	0.297052
1291.000000	0.296927
1292.000000	0.296909
1293.000000	0.296808
1294.000000	0.296747
1295.000000	0.296775
1296.000000	0.296642
1297.000000	0.296526
1298.000000	0.296601
1299.000000	0.296567
1300.000000	0.296562
1301.000000	0.296625
1302.000000	0.296553
1303.000000	0.296456
1304.000000	0.296415
1305.000000	0.296451
1306.000000	0.296446
1307.000000	0.296518
1308.000000	0.296589
1309.000000	0.296624
1310.000000	0.296650
1311.000000	0.296707
1312.000000	0.296738
1313.000000	0.296817
1314.000000	0.296983
1315.000000	0.297090
1316.000000	0.297224
1317.000000	0.297288
1318.000000	0.297219
1319.000000	0.297160
1320.000000	0.297200
1321.000000	0.297259
1322.000000	0.297301
1323.000000	0.297305
1324.000000	0.297279
1325.000000	0.297207
1326.000000	0.297084
1327.000000	0.296995
1328.000000	0.297064
1329.000000	0.297032
1330.000000	0.296980
1331.000000	0.296957
1332.000000	0.296982
1333.000000	0.296938
1334.000000	0.296964
1335.000000	0.296962
1336.000000	0.296922
1337.000000	0.296853
1338.000000	0.296738
1339.000000	0.296514
1340.000000	0.296312
1341.000000	0.296203
1342.000000	0.296084
1343.000000	0.295998
1344.000000	0.295984
1345.000000	0.295900
1346.000000	0.295888
1347.000000	0.295898
1348.000000	0.295961
1349.000000	0.295906
1350.000000	0.295875
1351.000000	0.295914
1352.000000	0.295874
1353.000000	0.295878
1354.000000	0.295935
1355.000000	0.295912
1356.000000	0.295920
1357.000000	0.295819
1358.000000	0.295690
1359.000000	0.295570
1360.000000	0.295461
1361.000000	0.295422
1362.000000	0.295293
1363.000000	0.295060
1364.000000	0.294967
1365.000000	0.294837
1366.000000	0.294798
1367.000000	0.294894
1368.000000	0.294932
1369.000000	0.294918
1370.000000	0.294863
1371.000000	0.294823
1372.000000	0.294777
1373.000000	0.294719
1374.000000	0.294614
1375.000000	0.294441
1376.000000	0.294327
1377.000000	0.294254
1378.000000	0.294144
1379.000000	0.293872
1380.000000	0.293633
1381.000000	0.293375
1382.000000	0.293032
1383.000000	0.292771
1384.000000	0.292333
1385.000000	0.291916
1386.000000	0.291647
1387.000000	0.291336
1388.000000	0.291119
1389.000000	0.290994
1390.000000	0.290905
1391.000000	0.290860
1392.000000	0.290854
1393.000000	0.290909
1394.000000	0.291054
1395.000000	0.291242
1396.000000	0.291558
1397.000000	0.291706
1398.000000	0.291767
1399.000000	0.291790
1400.000000	0.291716
1401.000000	0.291648
1402.000000	0.291613
1403.000000	0.291522
1404.000000	0.291425
1405.000000	0.291303
1406.000000	0.291220
1407.000000	0.291123
1408.000000	0.290962
1409.000000	0.290912
1410.000000	0.290935
1411.000000	0.290882
1412.000000	0.290849
1413.000000	0.290875
1414.000000	0.290793
1415.000000	0.290757
1416.000000	0.290826
1417.000000	0.290818
1418.000000	0.290785
1419.000000	0.290891
1420.000000	0.290860
1421.000000	0.290882
1422.000000	0.290971
1423.000000	0.291054
1424.000000	0.291078
1425.000000	0.291162
1426.000000	0.291282
1427.000000	0.291382
1428.000000	0.291498
1429.000000	0.291637
1430.000000	0.291785
1431.000000	0.291876
1432.000000	0.291920
1433.000000	0.291991
1434.000000	0.292023
1435.000000	0.292042
1436.000000	0.292107
1437.000000	0.292190
1438.000000	0.292205
1439.000000	0.292244
1440.000000	0.292261
1441.000000	0.292279
1442.000000	0.292319
1443.000000	0.292308
1444.000000	0.292281
1445.000000	0.292242
1446.000000	0.292207
1447.000000	0.292204
1448.000000	0.292226
1449.000000	0.292304
1450.000000	0.292356
1451.000000	0.292353
1452.000000	0.292318
1453.000000	0.292272
1454.000000	0.292228
1455.000000	0.292238
1456.000000	0.292297
1457.000000	0.292354
1458.000000	0.292429
1459.000000	0.292519
1460.000000	0.292587
1461.000000	0.292603
1462.000000	0.292638
1463.000000	0.292611
1464.000000	0.292596
1465.000000	0.292773
1466.000000	0.292868
1467.000000	0.292870
1468.000000	0.292923
1469.000000	0.292911
1470.000000	0.292776
1471.000000	0.292748
1472.000000	0.292755
1473.000000	0.292802
1474.000000	0.292841
1475.000000	0.292836
1476.000000	0.292814
1477.000000	0.292825
1478.000000	0.292805
1479.000000	0.292794
1480.000000	0.292817
1481.000000	0.292789
1482.000000	0.292745
1483.000000	0.292768
1484.000000	0.292798
1485.000000	0.292824
1486.000000	0.292868
1487.000000	0.292946
1488.000000	0.293061
1489.000000	0.293181
1490.000000	0.293202
1491.000000	0.293309
1492.000000	0.293432
1493.000000	0.293526
1494.000000	0.293611
1495.000000	0.293675
1496.000000	0.293674
1497.000000	0.293716
1498.000000	0.293818
1499.000000	0.293881
1500.000000	0.293876
1501.000000	0.293843
1502.000000	0.293803
1503.000000	0.293767
1504.000000	0.293760
1505.000000	0.293764
1506.000000	0.293745
1507.000000	0.293735
1508.000000	0.293787
1509.000000	0.293806
1510.000000	0.293750
1511.000000	0.293744
1512.000000	0.293729
1513.000000	0.293690
1514.000000	0.293742
1515.000000	0.293738
1516.000000	0.293733
1517.000000	0.293730
1518.000000	0.293673
1519.000000	0.293616
1520.000000	0.293601
1521.000000	0.293547
1522.000000	0.293592
1523.000000	0.293672
1524.000000	0.293625
1525.000000	0.293600
1526.000000	0.293512
1527.000000	0.293442
1528.000000	0.293492
1529.000000	0.293530
1530.000000	0.293501
1531.000000	0.293488
1532.000000	0.293488
1533.000000	0.293435
1534.000000	0.293450
1535.000000	0.293509
1536.000000	0.293445
1537.000000	0.293445
1538.000000	0.293429
1539.000000	0.293352
1540.000000	0.293333
1541.000000	0.293387
1542.000000	0.293468
1543.000000	0.293532
1544.000000	0.293572
1545.000000	0.293646
1546.000000	0.293734
1547.000000	0.293740
1548.000000	0.293763
1549.000000	0.293745
1550.000000	0.293675
1551.000000	0.293738
1552.000000	0.293800
1553.000000	0.293800
1554.000000	0.293824
1555.000000	0.293850
1556.000000	0.293885
1557.000000	0.293926
1558.000000	0.293973
1559.000000	0.293958
1560.000000	0.293949
1561.000000	0.293988
1562.000000	0.293975
1563.000000	0.293962
1564.000000	0.293975
1565.000000	0.293977
1566.000000	0.293942
1567.000000	0.294009
1568.000000	0.294019
1569.000000	0.294045
1570.000000	0.294059
1571.000000	0.294022
1572.000000	0.294047
1573.000000	0.294147
1574.000000	0.294170
1575.000000	0.294206
1576.000000	0.294224
1577.000000	0.294115
1578.000000	0.294118
1579.000000	0.294289
1580.000000	0.294320
1581.000000	0.294400
1582.000000	0.294429
1583.000000	0.294350
1584.000000	0.294269
1585.000000	0.294252
1586.000000	0.294255
1587.000000	0.294269
1588.000000	0.294213
1589.000000	0.294147
1590.000000	0.294093
1591.000000	0.293979
1592.000000	0.293933
1593.000000	0.294033
1594.000000	0.294006
1595.000000	0.293946
1596.000000	0.293899
1597.000000	0.293836
1598.000000	0.293774
1599.000000	0.293776
1600.000000	0.293699
1601.000000	0.293622
1602.000000	0.293581
1603.000000	0.293567
1604.000000	0.293515
1605.000000	0.293492
1606.000000	0.293473
1607.000000	0.293473
1608.000000	0.293469
1609.000000	0.293554
1610.000000	0.293559
1611.000000	0.293526
1612.000000	0.293504
1613.000000	0.293568
1614.000000	0.293571
1615.000000	0.293615
1616.000000	0.293644
1617.000000	0.293591
1618.000000	0.293555
1619.000000	0.293484
1620.000000	0.293441
1621.000000	0.293441
1622.000000	0.293465
1623.000000	0.293477
1624.000000	0.293489
1625.000000	0.293368
1626.000000	0.293312
1627.000000	0.293325
1628.000000	0.293337
1629.000000	0.293345
1630.000000	0.293374
1631.000000	0.293357
1632.000000	0.293328
1633.000000	0.293307
1634.000000	0.293334
1635.000000	0.293411
1636.000000	0.293447
1637.000000	0.293545
1638.000000	0.293556
1639.000000	0.293529
1640.000000	0.293531
1641.000000	0.293605
1642.000000	0.293626
1643.000000	0.293676
1644.000000	0.293667
1645.000000	0.293606
1646.000000	0.293498
1647.000000	0.293384
1648.000000	0.293248
1649.000000	0.293114
1650.000000	0.293063
1651.000000	0.293082
1652.000000	0.293120
1653.000000	0.293198
1654.000000	0.293203
1655.000000	0.293123
1656.000000	0.293005
1657.000000	0.292903
1658.000000	0.292787
1659.000000	0.292756
1660.000000	0.292695
1661.000000	0.292503
1662.000000	0.292420
1663.000000	0.292349
1664.000000	0.292275
1665.000000	0.292230
1666.000000	0.292269
1667.000000	0.292268
1668.000000	0.292247
1669.000000	0.292272
1670.000000	0.292195
1671.000000	0.292116
1672.000000	0.292119
1673.000000	0.292106
1674.000000	0.292118
1675.000000	0.292171
1676.000000	0.292181
1677.000000	0.292169
1678.000000	0.292150
1679.000000	0.292189
1680.000000	0.292234
1681.000000	0.292290
1682.000000	0.292319
1683.000000	0.292352
1684.000000	0.292336
1685.000000	0.292283
1686.000000	0.292286
1687.000000	0.292237
1688.000000	0.292069
1689.000000	0.292001
1690.000000	0.291852
1691.000000	0.291796
1692.000000	0.291877
1693.000000	0.291860
1694.000000	0.291830
1695.000000	0.291838
1696.000000	0.291732
1697.000000	0.291660
1698.000000	0.291656
1699.000000	0.291677
1700.000000	0.291810
1701.000000	0.291879
1702.000000	0.291707
1703.000000	0.291606
1704.000000	0.291539
1705.000000	0.291482
1706.000000	0.291548
1707.000000	0.291570
1708.000000	0.291475
1709.000000	0.291436
1710.000000	0.291556
1711.000000	0.291625
1712.000000	0.291738
1713.000000	0.291807
1714.000000	0.291887
1715.000000	0.291923
1716.000000	0.291944
1717.000000	0.291948
1718.000000	0.291863
1719.000000	0.291804
1720.000000	0.291822
1721.000000	0.291762
1722.000000	0.291658
1723.000000	0.291589
1724.000000	0.291523
1725.000000	0.291468
1726.000000	0.291342
1727.000000	0.291273
1728.000000	0.291148
1729.000000	0.291033
1730.000000	0.291112
1731.000000	0.291063
1732.000000	0.290949
1733.000000	0.290956
1734.000000	0.290841
1735.000000	0.290812
1736.000000	0.290853
1737.000000	0.290831
1738.000000	0.290779
1739.000000	0.290826
1740.000000	0.290912
1741.000000	0.290922
1742.000000	0.290965
1743.000000	0.291042
1744.000000	0.291074
1745.000000	0.291038
1746.000000	0.291009
1747.000000	0.291016
1748.000000	0.290915
1749.000000	0.290849
1750.000000	0.290760
1751.000000	0.290648
1752.000000	0.290645
1753.000000	0.290580
1754.000000	0.290582
1755.000000	0.290658
1756.000000	0.290608
1757.000000	0.290487
1758.000000	0.290473
1759.000000	0.290397
1760.000000	0.290360
1761.000000	0.290409
1762.000000	0.290439
1763.000000	0.290447
1764.000000	0.290477
1765.000000	0.290538
1766.000000	0.290592
1767.000000	0.290541
1768.000000	0.290517
1769.000000	0.290644
1770.000000	0.290682
1771.000000	0.290603
1772.000000	0.290615
1773.000000	0.290562
1774.000000	0.290576
1775.000000	0.290754
1776.000000	0.290827
1777.000000	0.290835
1778.000000	0.290819
1779.000000	0.290762
1780.000000	0.290716
1781.000000	0.290602
1782.000000	0.290548
1783.000000	0.290543
1784.000000	0.290569
1785.000000	0.290570
1786.000000	0.290585
1787.000000	0.290730
1788.000000	0.290750
1789.000000	0.290611
1790.000000	0.290549
1791.000000	0.290446
1792.000000	0.290477
1793.000000	0.290468
1794.000000	0.290420
1795.000000	0.290390
1796.000000	0.290359
1797.000000	0.290316
1798.000000	0.290180
1799.000000	0.290153
1800.000000	0.290280
1801.000000	0.290157
1802.000000	0.290257
1803.000000	0.290200
1804.000000	0.290217
1805.000000	0.290072
1806.000000	0.290039
1807.000000	0.289958
1808.000000	0.290080
1809.000000	0.290332
1810.000000	0.290586
1811.000000	0.290804
1812.000000	0.291148
1813.000000	0.291356
1814.000000	0.291558
1815.000000	0.291646
1816.000000	0.291672
1817.000000	0.291562
1818.000000	0.291156
1819.000000	0.291252
1820.000000	0.291215
1821.000000	0.291148
1822.000000	0.290948
1823.000000	0.290400
1824.000000	0.290221
1825.000000	0.289902
1826.000000	0.290021
1827.000000	0.290539
1828.000000	0.290990
1829.000000	0.291432
1830.000000	0.291522
1831.000000	0.291441
1832.000000	0.290945
1833.000000	0.290798
1834.000000	0.290744
1835.000000	0.290485
1836.000000	0.289895
1837.000000	0.289767
1838.000000	0.289646
1839.000000	0.289374
1840.000000	0.289743
1841.000000	0.290183
1842.000000	0.290242
1843.000000	0.289924
1844.000000	0.289908
1845.000000	0.289697
1846.000000	0.289664
1847.000000	0.289497
1848.000000	0.289849
1849.000000	0.289801
1850.000000	0.289777
1851.000000	0.290079
1852.000000	0.290510
1853.000000	0.290812
1854.000000	0.291186
1855.000000	0.291313
1856.000000	0.291035
1857.000000	0.291232
1858.000000	0.291025
1859.000000	0.290869
1860.000000	0.290824
1861.000000	0.290123
1862.000000	0.289590
1863.000000	0.288892
1864.000000	0.288673
1865.000000	0.288652
1866.000000	0.288570
1867.000000	0.288597
1868.000000	0.288872
1869.000000	0.289000
1870.000000	0.288830
1871.000000	0.288902
1872.000000	0.289193
1873.000000	0.289173
1874.000000	0.288927
1875.000000	0.288832
1876.000000	0.288586
1877.000000	0.287827
1878.000000	0.287273
1879.000000	0.286565
1880.000000	0.285926
1881.000000	0.284991
1882.000000	0.284484
1883.000000	0.284300
1884.000000	0.283893
1885.000000	0.283602
1886.000000	0.283104
1887.000000	0.282405
1888.000000	0.281157
1889.000000	0.280495
1890.000000	0.279816
1891.000000	0.279424
1892.000000	0.279365
1893.000000	0.279030
1894.000000	0.278641
1895.000000	0.277984
1896.000000	0.277148
1897.000000	0.276397
1898.000000	0.275926
1899.000000	0.275527
1900.000000	0.275121
1901.000000	0.274522
1902.000000	0.273729
1903.000000	0.272977
1904.000000	0.272624
1905.000000	0.272436
1906.000000	0.272207
1907.000000	0.272063
1908.000000	0.272141
1909.000000	0.272102
1910.000000	0.272341
1911.000000	0.272898
1912.000000	0.273154
1913.000000	0.273620
1914.000000	0.274266
1915.000000	0.274811
1916.000000	0.275398
1917.000000	0.275722
1918.000000	0.276163
1919.000000	0.276159
1920.000000	0.275820
1921.000000	0.275767
1922.000000	0.275792
1923.000000	0.276066
1924.000000	0.276282
1925.000000	0.276264
1926.000000	0.276160
1927.000000	0.276176
1928.000000	0.276190
1929.000000	0.276328
1930.000000	0.276497
1931.000000	0.276902
1932.000000	0.277193
1933.000000	0.277184
1934.000000	0.277128
1935.000000	0.276965
1936.000000	0.276472
1937.000000	0.276326
1938.000000	0.276526
1939.000000	0.276757
1940.000000	0.277102
1941.000000	0.277628
1942.000000	0.278162
1943.000000	0.278542
1944.000000	0.278549
1945.000000	0.278393
1946.000000	0.278257
1947.000000	0.278244
1948.000000	0.278548
1949.000000	0.279436
1950.000000	0.280144
1951.000000	0.280245
1952.000000	0.280042
1953.000000	0.279604
1954.000000	0.278973
1955.000000	0.278765
1956.000000	0.279006
1957.000000	0.279489
1958.000000	0.279672
1959.000000	0.279297
1960.000000	0.279123
1961.000000	0.278984
1962.000000	0.278996
1963.000000	0.279227
1964.000000	0.279812
1965.000000	0.279961
1966.000000	0.279951
1967.000000	0.279837
1968.000000	0.279716
1969.000000	0.279838
1970.000000	0.279907
1971.000000	0.279988
1972.000000	0.280077
1973.000000	0.279928
1974.000000	0.279664
1975.000000	0.279611
1976.000000	0.279577
1977.000000	0.279596
1978.000000	0.279357
1979.000000	0.279330
1980.000000	0.279544
1981.000000	0.279683
1982.000000	0.280088
1983.000000	0.280555
1984.000000	0.280856
1985.000000	0.280939
1986.000000	0.281046
1987.000000	0.281284
1988.000000	0.281498
1989.000000	0.281220
1990.000000	0.281234
1991.000000	0.280883
1992.000000	0.280460
1993.000000	0.280505
1994.000000	0.280544
1995.000000	0.280766
1996.000000	0.281036
1997.000000	0.281123
1998.000000	0.281231
1999.000000	0.281200
2000.000000	0.280871
2001.000000	0.280788
2002.000000	0.281020
2003.000000	0.281011
2004.000000	0.281281
2005.000000	0.281146
2006.000000	0.280880
2007.000000	0.280918
2008.000000	0.281079
2009.000000	0.281651
2010.000000	0.281881
2011.000000	0.281838
2012.000000	0.281874
2013.000000	0.281704
2014.000000	0.281371
2015.000000	0.281680
2016.000000	0.282227
2017.000000	0.282798
2018.000000	0.283374
2019.000000	0.283470
2020.000000	0.283316
2021.000000	0.283256
2022.000000	0.282880
2023.000000	0.282750
2024.000000	0.282816
2025.000000	0.282898
2026.000000	0.282894
2027.000000	0.282904
2028.000000	0.283005
2029.000000	0.282918
2030.000000	0.282827
2031.000000	0.282629
2032.000000	0.282434
2033.000000	0.282559
2034.000000	0.282435
2035.000000	0.282255
2036.000000	0.282198
2037.000000	0.282352
2038.000000	0.282235
2039.000000	0.282153
2040.000000	0.282135
2041.000000	0.281932
2042.000000	0.282251
2043.000000	0.282545
2044.000000	0.282707
2045.000000	0.283009
2046.000000	0.282725
2047.000000	0.282735
2048.000000	0.282943
2049.000000	0.283178
2050.000000	0.283195
2051.000000	0.283009
2052.000000	0.282490
2053.000000	0.282127
2054.000000	0.281898
2055.000000	0.281554
2056.000000	0.281516
2057.000000	0.281663
2058.000000	0.281797
2059.000000	0.282281
2060.000000	0.282499
2061.000000	0.282882
2062.000000	0.282920
2063.000000	0.282598
2064.000000	0.282438
2065.000000	0.282542
2066.000000	0.282405
2067.000000	0.282421
2068.000000	0.282464
2069.000000	0.282497
2070.000000	0.282801
2071.000000	0.282965
2072.000000	0.282672
2073.000000	0.282075
2074.000000	0.281744
2075.000000	0.281570
2076.000000	0.281696
2077.000000	0.281572
2078.000000	0.281356
2079.000000	0.281182
2080.000000	0.280839
2081.000000	0.280852
2082.000000	0.281160
2083.000000	0.281618
2084.000000	0.281950
2085.000000	0.281772
2086.000000	0.281573
2087.000000	0.281477
2088.000000	0.281289
2089.000000	0.281380
2090.000000	0.281271
2091.000000	0.280864
2092.000000	0.280960
2093.000000	0.281454
2094.000000	0.281563
2095.000000	0.282093
2096.000000	0.282247
2097.000000	0.281746
2098.000000	0.281411
2099.000000	0.281508
2100.000000	0.280934
2101.000000	0.281215
2102.000000	0.281305
2103.000000	0.280980
2104.000000	0.281341
2105.000000	0.281427
2106.000000	0.281402
2107.000000	0.281344
2108.000000	0.281193
2109.000000	0.281177
2110.000000	0.280815
2111.000000	0.280717
2112.000000	0.280778
2113.000000	0.280863
2114.000000	0.280923
2115.000000	0.281096
2116.000000	0.281488
2117.000000	0.281556
2118.000000	0.281670
2119.000000	0.281706
2120.000000	0.281584
2121.000000	0.281069
2122.000000	0.281164
2123.000000	0.281471
2124.000000	0.281630
2125.000000	0.282220
2126.000000	0.282243
2127.000000	0.281591
2128.000000	0.281568
2129.000000	0.281477
2130.000000	0.281875
2131.000000	0.281886
2132.000000	0.282117
2133.000000	0.282032
2134.000000	0.281268
2135.000000	0.280884
2136.000000	0.280801
2137.000000	0.280726
2138.000000	0.280878
2139.000000	0.280904
2140.000000	0.280953
2141.000000	0.280887
2142.000000	0.280716
2143.000000	0.280282
2144.000000	0.279969
2145.000000	0.279638
2146.000000	0.278772
2147.000000	0.279012
2148.000000	0.279403
2149.000000	0.279640
2150.000000	0.280559
2151.000000	0.280920
2152.000000	0.280845
2153.000000	0.281066
2154.000000	0.280680
2155.000000	0.279629
2156.000000	0.279229
2157.000000	0.278665
2158.000000	0.278341
2159.000000	0.278439
2160.000000	0.278600
2161.000000	0.278830
2162.000000	0.279232
2163.000000	0.280147
2164.000000	0.280567
2165.000000	0.280781
2166.000000	0.280827
2167.000000	0.280697
2168.000000	0.280574
2169.000000	0.280635
2170.000000	0.280669
2171.000000	0.280641
2172.000000	0.280373
2173.000000	0.280570
2174.000000	0.281096
2175.000000	0.281349
2176.000000	0.281940
2177.000000	0.282209
2178.000000	0.282265
2179.000000	0.282144
2180.000000	0.281528
2181.000000	0.281609
2182.000000	0.281204
2183.000000	0.280991
2184.000000	0.281676
2185.000000	0.281879
2186.000000	0.281552
2187.000000	0.280803
2188.000000	0.280011
2189.000000	0.280215
2190.000000	0.280754
2191.000000	0.281871
2192.000000	0.282411
2193.000000	0.282804
2194.000000	0.282889
2195.000000	0.282461
2196.000000	0.282562
2197.000000	0.283054
2198.000000	0.282878
2199.000000	0.282585
2200.000000	0.282321
2201.000000	0.280926
2202.000000	0.280400
2203.000000	0.280385
2204.000000	0.280575
2205.000000	0.280441
2206.000000	0.281077
2207.000000	0.281111
2208.000000	0.281740
2209.000000	0.282486
2210.000000	0.283899
2211.000000	0.284403
2212.000000	0.284972
2213.000000	0.284936
2214.000000	0.283872
2215.000000	0.282790
2216.000000	0.280966
2217.000000	0.280124
2218.000000	0.279273
2219.000000	0.279293
2220.000000	0.280726
2221.000000	0.281525
2222.000000	0.282490
2223.000000	0.283136
2224.000000	0.283434
2225.000000	0.283968
2226.000000	0.283594
2227.000000	0.283243
2228.000000	0.284013
2229.000000	0.283345
2230.000000	0.284417
2231.000000	0.285096
2232.000000	0.284322
2233.000000	0.284064
2234.000000	0.282119
2235.000000	0.282117
2236.000000	0.281645
2237.000000	0.281160
2238.000000	0.280751
2239.000000	0.280428
2240.000000	0.279984
2241.000000	0.279253
2242.000000	0.279495
2243.000000	0.280862
2244.000000	0.281395
2245.000000	0.281932
2246.000000	0.282399
2247.000000	0.281809
2248.000000	0.281639
2249.000000	0.281894
2250.000000	0.282752
2251.000000	0.281811
2252.000000	0.281968
2253.000000	0.280948
2254.000000	0.278919
2255.000000	0.277821
2256.000000	0.277639
2257.000000	0.277768
2258.000000	0.279150
2259.000000	0.280754
2260.000000	0.280461
2261.000000	0.280856
2262.000000	0.281071
2263.000000	0.280988
2264.000000	0.280889
2265.000000	0.281175
2266.000000	0.281617
2267.000000	0.281596
2268.000000	0.281806
2269.000000	0.281491
2270.000000	0.280231
2271.000000	0.279305
2272.000000	0.278044
2273.000000	0.277787
2274.000000	0.277510
2275.000000	0.277935
2276.000000	0.279973
2277.000000	0.280874
2278.000000	0.280611
2279.000000	0.280590
2280.000000	0.278978
2281.000000	0.277374
2282.000000	0.276274
2283.000000	0.275192
2284.000000	0.274489
2285.000000	0.273998
2286.000000	0.274038
2287.000000	0.273825
2288.000000	0.274596
2289.000000	0.275659
2290.000000	0.275709
2291.000000	0.276846
2292.000000	0.276777
2293.000000	0.275063
2294.000000	0.274242
2295.000000	0.272842
2296.000000	0.272507
2297.000000	0.272831
2298.000000	0.273715
2299.000000	0.276975
2300.000000	0.277055
2301.000000	0.275526
2302.000000	0.274251
2303.000000	0.270008
2304.000000	0.268423
2305.000000	0.269394
2306.000000	0.269003
2307.000000	0.268411
2308.000000	0.268773
2309.000000	0.267985
2310.000000	0.267112
2311.000000	0.267944
2312.000000	0.267792
2313.000000	0.267497
2314.000000	0.268110
2315.000000	0.269112
2316.000000	0.270795
2317.000000	0.271979
2318.000000	0.272943
2319.000000	0.273456
2320.000000	0.273107
2321.000000	0.272848
2322.000000	0.271487
2323.000000	0.270615
2324.000000	0.270071
2325.000000	0.269616
2326.000000	0.271929
2327.000000	0.272928
2328.000000	0.273096
2329.000000	0.274426
2330.000000	0.273170
2331.000000	0.273008
2332.000000	0.274452
2333.000000	0.274630
2334.000000	0.276152
2335.000000	0.276786
2336.000000	0.275727
2337.000000	0.275077
2338.000000	0.273706
2339.000000	0.273513
2340.000000	0.274160
2341.000000	0.274705
2342.000000	0.276906
2343.000000	0.277335
2344.000000	0.276667
2345.000000	0.276618
2346.000000	0.275278
2347.000000	0.274678
2348.000000	0.275478
2349.000000	0.273767
2350.000000	0.272390
2351.000000	0.272939
2352.000000	0.271318
2353.000000	0.271443
2354.000000	0.271299
2355.000000	0.269977
2356.000000	0.270948
2357.000000	0.271279
2358.000000	0.271781
2359.000000	0.273721
2360.000000	0.273971
2361.000000	0.275487
2362.000000	0.277477
2363.000000	0.277654
2364.000000	0.277745
2365.000000	0.275807
2366.000000	0.273334
2367.000000	0.271840
2368.000000	0.270447
2369.000000	0.270624
2370.000000	0.270109
2371.000000	0.269924
2372.000000	0.270961
2373.000000	0.271625
2374.000000	0.272466
2375.000000	0.273649
2376.000000	0.275509
2377.000000	0.276862
2378.000000	0.278469
2379.000000	0.280670
2380.000000	0.279924
2381.000000	0.277544
2382.000000	0.275201
2383.000000	0.270357
2384.000000	0.267922
2385.000000	0.268413
2386.000000	0.266586
2387.000000	0.266933
2388.000000	0.267874
2389.000000	0.268260
2390.000000	0.270163
2391.000000	0.268558
2392.000000	0.265706
2393.000000	0.261949
2394.000000	0.258700
2395.000000	0.261283
2396.000000	0.262300
2397.000000	0.258415
2398.000000	0.257465
2399.000000	0.255661
2400.000000	0.253377
2401.000000	0.258028
2402.000000	0.261920
2403.000000	0.266263
2404.000000	0.269235
2405.000000	0.269022
2406.000000	0.270882
2407.000000	0.266526
2408.000000	0.265242
2409.000000	0.266119
2410.000000	0.262997
2411.000000	0.263151
2412.000000	0.267535
2413.000000	0.275566
2414.000000	0.276699
2415.000000	0.277293
2416.000000	0.274763
2417.000000	0.267309
2418.000000	0.265239
2419.000000	0.262838
2420.000000	0.265337
2421.000000	0.265146
2422.000000	0.264431
2423.000000	0.265433
2424.000000	0.262377
2425.000000	0.268063
2426.000000	0.272690
2427.000000	0.275095
2428.000000	0.282114
2429.000000	0.279765
2430.000000	0.270272
2431.000000	0.266197
2432.000000	0.264850
2433.000000	0.262073
2434.000000	0.267097
2435.000000	0.273386
2436.000000	0.271811
2437.000000	0.273589
2438.000000	0.275789
2439.000000	0.273506
2440.000000	0.270749
2441.000000	0.269985
2442.000000	0.269005
2443.000000	0.267620
2444.000000	0.264878
2445.000000	0.260286
2446.000000	0.257912
2447.000000	0.258960
2448.000000	0.271534
2449.000000	0.281167
2450.000000	0.282055
2451.000000	0.284264
2452.000000	0.275657
2453.000000	0.266846
2454.000000	0.262500
2455.000000	0.255169
2456.000000	0.250388
2457.000000	0.241463
2458.000000	0.233998
2459.000000	0.232939
2460.000000	0.233306
2461.000000	0.246716
2462.000000	0.265798
2463.000000	0.277676
2464.000000	0.281381
2465.000000	0.269419
2466.000000	0.256416
2467.000000	0.245639
2468.000000	0.239969
2469.000000	0.248554
2470.000000	0.253482
2471.000000	0.256571
2472.000000	0.259733
2473.000000	0.262576
2474.000000	0.262183
2475.000000	0.256941
2476.000000	0.260042
2477.000000	0.256704
2478.000000	0.254570
2479.000000	0.258556
2480.000000	0.257606
2481.000000	0.252469
2482.000000	0.239704
2483.000000	0.242229
2484.000000	0.226892
2485.000000	0.211716
2486.000000	0.224949
2487.000000	0.207945
2488.000000	0.199408
2489.000000	0.201008
2490.000000	0.195567
2491.000000	0.245541
2492.000000	0.260271
2493.000000	0.277177
2494.000000	0.291666
2495.000000	0.266102
2496.000000	0.257017
2497.000000	0.253981
2498.000000	0.263973
2499.000000	0.305946
2500.000000	0.304304
