# Wavelength	SM1200H-10_HEX-80_FV7-10_00000.asd.rts.txt
350.000000	0.405077
351.000000	0.391935
352.000000	0.375331
353.000000	0.377834
354.000000	0.399842
355.000000	0.386975
356.000000	0.384646
357.000000	0.397562
358.000000	0.396730
359.000000	0.393141
360.000000	0.391081
361.000000	0.392656
362.000000	0.402570
363.000000	0.404776
364.000000	0.394287
365.000000	0.398877
366.000000	0.399011
367.000000	0.392543
368.000000	0.392364
369.000000	0.393728
370.000000	0.395759
371.000000	0.398349
372.000000	0.400728
373.000000	0.402899
374.000000	0.405260
375.000000	0.405439
376.000000	0.406197
377.000000	0.406989
378.000000	0.404289
379.000000	0.405443
380.000000	0.407243
381.000000	0.405417
382.000000	0.404036
383.000000	0.404774
384.000000	0.407949
385.000000	0.410192
386.000000	0.411062
387.000000	0.411099
388.000000	0.411248
389.000000	0.412099
390.000000	0.413390
391.000000	0.413947
392.000000	0.412815
393.000000	0.411150
394.000000	0.410641
395.000000	0.414456
396.000000	0.416587
397.000000	0.415657
398.000000	0.416326
399.000000	0.417070
400.000000	0.417904
401.000000	0.419019
402.000000	0.419705
403.000000	0.419983
404.000000	0.420091
405.000000	0.418983
406.000000	0.418697
407.000000	0.419861
408.000000	0.420531
409.000000	0.421225
410.000000	0.421975
411.000000	0.422543
412.000000	0.423437
413.000000	0.424367
414.000000	0.424929
415.000000	0.424783
416.000000	0.424722
417.000000	0.425292
418.000000	0.426637
419.000000	0.427040
420.000000	0.426476
421.000000	0.426317
422.000000	0.426683
423.000000	0.427290
424.000000	0.427806
425.000000	0.427990
426.000000	0.428116
427.000000	0.428396
428.000000	0.428768
429.000000	0.429254
430.000000	0.429724
431.000000	0.429731
432.000000	0.430087
433.000000	0.430652
434.000000	0.431030
435.000000	0.431118
436.000000	0.431127
437.000000	0.431257
438.000000	0.431497
439.000000	0.431753
440.000000	0.432085
441.000000	0.432222
442.000000	0.432642
443.000000	0.433038
444.000000	0.432814
445.000000	0.433152
446.000000	0.433923
447.000000	0.434332
448.000000	0.434409
449.000000	0.434469
450.000000	0.434731
451.000000	0.434977
452.000000	0.435354
453.000000	0.435722
454.000000	0.435998
455.000000	0.436364
456.000000	0.436919
457.000000	0.437400
458.000000	0.437790
459.000000	0.438035
460.000000	0.438217
461.000000	0.438514
462.000000	0.438894
463.000000	0.439079
464.000000	0.439272
465.000000	0.439468
466.000000	0.439654
467.000000	0.440039
468.000000	0.440167
469.000000	0.440216
470.000000	0.440701
471.000000	0.440798
472.000000	0.440934
473.000000	0.441398
474.000000	0.441607
475.000000	0.441649
476.000000	0.441857
477.000000	0.442284
478.000000	0.442390
479.000000	0.442567
480.000000	0.442933
481.000000	0.443063
482.000000	0.443357
483.000000	0.443784
484.000000	0.444109
485.000000	0.444279
486.000000	0.444603
487.000000	0.445051
488.000000	0.445320
489.000000	0.445510
490.000000	0.445962
491.000000	0.446165
492.000000	0.446373
493.000000	0.446728
494.000000	0.446965
495.000000	0.447255
496.000000	0.447623
497.000000	0.447888
498.000000	0.448077
499.000000	0.448383
500.000000	0.448906
501.000000	0.449304
502.000000	0.449616
503.000000	0.449896
504.000000	0.450101
505.000000	0.450303
506.000000	0.450569
507.000000	0.450786
508.000000	0.451098
509.000000	0.451487
510.000000	0.451843
511.000000	0.452142
512.000000	0.452467
513.000000	0.452900
514.000000	0.453216
515.000000	0.453471
516.000000	0.453700
517.000000	0.454017
518.000000	0.454381
519.000000	0.454629
520.000000	0.454988
521.000000	0.455317
522.000000	0.455582
523.000000	0.455874
524.000000	0.456157
525.000000	0.456411
526.000000	0.456700
527.000000	0.456942
528.000000	0.457160
529.000000	0.457480
530.000000	0.457804
531.000000	0.458151
532.000000	0.458411
533.000000	0.458722
534.000000	0.459016
535.000000	0.459272
536.000000	0.459589
537.000000	0.459850
538.000000	0.460075
539.000000	0.460317
540.000000	0.460589
541.000000	0.460867
542.000000	0.461172
543.000000	0.461413
544.000000	0.461722
545.000000	0.462032
546.000000	0.462291
547.000000	0.462614
548.000000	0.463044
549.000000	0.463414
550.000000	0.463598
551.000000	0.463794
552.000000	0.464167
553.000000	0.464545
554.000000	0.464865
555.000000	0.465137
556.000000	0.465529
557.000000	0.465875
558.000000	0.466269
559.000000	0.466488
560.000000	0.466737
561.000000	0.467115
562.000000	0.467422
563.000000	0.467752
564.000000	0.468111
565.000000	0.468336
566.000000	0.468680
567.000000	0.469044
568.000000	0.469333
569.000000	0.469650
570.000000	0.469935
571.000000	0.470175
572.000000	0.470433
573.000000	0.470747
574.000000	0.471035
575.000000	0.471287
576.000000	0.471635
577.000000	0.471990
578.000000	0.472363
579.000000	0.472705
580.000000	0.472980
581.000000	0.473196
582.000000	0.473432
583.000000	0.473764
584.000000	0.474144
585.000000	0.474444
586.000000	0.474688
587.000000	0.474924
588.000000	0.475199
589.000000	0.475470
590.000000	0.475767
591.000000	0.476076
592.000000	0.476237
593.000000	0.476493
594.000000	0.476840
595.000000	0.477031
596.000000	0.477260
597.000000	0.477582
598.000000	0.477838
599.000000	0.478012
600.000000	0.478235
601.000000	0.478476
602.000000	0.478683
603.000000	0.478829
604.000000	0.478955
605.000000	0.479187
606.000000	0.479370
607.000000	0.479496
608.000000	0.479643
609.000000	0.479780
610.000000	0.479936
611.000000	0.480133
612.000000	0.480268
613.000000	0.480406
614.000000	0.480623
615.000000	0.480735
616.000000	0.480860
617.000000	0.480995
618.000000	0.481193
619.000000	0.481454
620.000000	0.481689
621.000000	0.481874
622.000000	0.481974
623.000000	0.482035
624.000000	0.482116
625.000000	0.482293
626.000000	0.482468
627.000000	0.482615
628.000000	0.482833
629.000000	0.483122
630.000000	0.483258
631.000000	0.483359
632.000000	0.483480
633.000000	0.483628
634.000000	0.483769
635.000000	0.483912
636.000000	0.484117
637.000000	0.484353
638.000000	0.484491
639.000000	0.484597
640.000000	0.484766
641.000000	0.484863
642.000000	0.484895
643.000000	0.484966
644.000000	0.485189
645.000000	0.485348
646.000000	0.485517
647.000000	0.485705
648.000000	0.485804
649.000000	0.485897
650.000000	0.486012
651.000000	0.486216
652.000000	0.486321
653.000000	0.486402
654.000000	0.486511
655.000000	0.486629
656.000000	0.486791
657.000000	0.486948
658.000000	0.487216
659.000000	0.487424
660.000000	0.487516
661.000000	0.487741
662.000000	0.487936
663.000000	0.488125
664.000000	0.488259
665.000000	0.488454
666.000000	0.488647
667.000000	0.488723
668.000000	0.488875
669.000000	0.489047
670.000000	0.489211
671.000000	0.489423
672.000000	0.489588
673.000000	0.489687
674.000000	0.489787
675.000000	0.489950
676.000000	0.490147
677.000000	0.490346
678.000000	0.490536
679.000000	0.490684
680.000000	0.490798
681.000000	0.490918
682.000000	0.491121
683.000000	0.491269
684.000000	0.491352
685.000000	0.491522
686.000000	0.491756
687.000000	0.491887
688.000000	0.492055
689.000000	0.492219
690.000000	0.492393
691.000000	0.492566
692.000000	0.492742
693.000000	0.492994
694.000000	0.493172
695.000000	0.493351
696.000000	0.493516
697.000000	0.493634
698.000000	0.493751
699.000000	0.493922
700.000000	0.494163
701.000000	0.494271
702.000000	0.494402
703.000000	0.494559
704.000000	0.494607
705.000000	0.494759
706.000000	0.494934
707.000000	0.495081
708.000000	0.495227
709.000000	0.495363
710.000000	0.495518
711.000000	0.495697
712.000000	0.495872
713.000000	0.496052
714.000000	0.496215
715.000000	0.496287
716.000000	0.496334
717.000000	0.496440
718.000000	0.496594
719.000000	0.496755
720.000000	0.496909
721.000000	0.497032
722.000000	0.497108
723.000000	0.497239
724.000000	0.497389
725.000000	0.497557
726.000000	0.497766
727.000000	0.497792
728.000000	0.497830
729.000000	0.497891
730.000000	0.497893
731.000000	0.498001
732.000000	0.498152
733.000000	0.498325
734.000000	0.498358
735.000000	0.498385
736.000000	0.498574
737.000000	0.498690
738.000000	0.498728
739.000000	0.498835
740.000000	0.498862
741.000000	0.498987
742.000000	0.499117
743.000000	0.499201
744.000000	0.499373
745.000000	0.499445
746.000000	0.499548
747.000000	0.499727
748.000000	0.499901
749.000000	0.500054
750.000000	0.500130
751.000000	0.500156
752.000000	0.500228
753.000000	0.500341
754.000000	0.500353
755.000000	0.500328
756.000000	0.500320
757.000000	0.500308
758.000000	0.500379
759.000000	0.500494
760.000000	0.500540
761.000000	0.500724
762.000000	0.500822
763.000000	0.500851
764.000000	0.501088
765.000000	0.501125
766.000000	0.501090
767.000000	0.501148
768.000000	0.501208
769.000000	0.501248
770.000000	0.501274
771.000000	0.501307
772.000000	0.501441
773.000000	0.501552
774.000000	0.501654
775.000000	0.501767
776.000000	0.501901
777.000000	0.502023
778.000000	0.502115
779.000000	0.502207
780.000000	0.502295
781.000000	0.502304
782.000000	0.502323
783.000000	0.502436
784.000000	0.502427
785.000000	0.502381
786.000000	0.502336
787.000000	0.502301
788.000000	0.502255
789.000000	0.502267
790.000000	0.502319
791.000000	0.502418
792.000000	0.502490
793.000000	0.502540
794.000000	0.502585
795.000000	0.502572
796.000000	0.502589
797.000000	0.502666
798.000000	0.502791
799.000000	0.502937
800.000000	0.503052
801.000000	0.503089
802.000000	0.503035
803.000000	0.503007
804.000000	0.503093
805.000000	0.503090
806.000000	0.503013
807.000000	0.502985
808.000000	0.502939
809.000000	0.502928
810.000000	0.502945
811.000000	0.502949
812.000000	0.502917
813.000000	0.502952
814.000000	0.503043
815.000000	0.503107
816.000000	0.503071
817.000000	0.503035
818.000000	0.502986
819.000000	0.503043
820.000000	0.503102
821.000000	0.503061
822.000000	0.503087
823.000000	0.503140
824.000000	0.503118
825.000000	0.503109
826.000000	0.503152
827.000000	0.503187
828.000000	0.503239
829.000000	0.503278
830.000000	0.503223
831.000000	0.503175
832.000000	0.503065
833.000000	0.502978
834.000000	0.502954
835.000000	0.503016
836.000000	0.502922
837.000000	0.502803
838.000000	0.502722
839.000000	0.502621
840.000000	0.502592
841.000000	0.502633
842.000000	0.502656
843.000000	0.502713
844.000000	0.502760
845.000000	0.502728
846.000000	0.502652
847.000000	0.502592
848.000000	0.502525
849.000000	0.502453
850.000000	0.502250
851.000000	0.502174
852.000000	0.502315
853.000000	0.502332
854.000000	0.502306
855.000000	0.502420
856.000000	0.502526
857.000000	0.502375
858.000000	0.502257
859.000000	0.502165
860.000000	0.501949
861.000000	0.501813
862.000000	0.501817
863.000000	0.501822
864.000000	0.501774
865.000000	0.501654
866.000000	0.501520
867.000000	0.501429
868.000000	0.501394
869.000000	0.501243
870.000000	0.500964
871.000000	0.500811
872.000000	0.500678
873.000000	0.500473
874.000000	0.500584
875.000000	0.500620
876.000000	0.500549
877.000000	0.500382
878.000000	0.500185
879.000000	0.500043
880.000000	0.499795
881.000000	0.499629
882.000000	0.499404
883.000000	0.499201
884.000000	0.499070
885.000000	0.499016
886.000000	0.498866
887.000000	0.498631
888.000000	0.498538
889.000000	0.498554
890.000000	0.498447
891.000000	0.498292
892.000000	0.498007
893.000000	0.497795
894.000000	0.497844
895.000000	0.497617
896.000000	0.497365
897.000000	0.497183
898.000000	0.497100
899.000000	0.497000
900.000000	0.496910
901.000000	0.496805
902.000000	0.496794
903.000000	0.496536
904.000000	0.496235
905.000000	0.496024
906.000000	0.495966
907.000000	0.495833
908.000000	0.495647
909.000000	0.495423
910.000000	0.495075
911.000000	0.494770
912.000000	0.494664
913.000000	0.494537
914.000000	0.494392
915.000000	0.494279
916.000000	0.494026
917.000000	0.493890
918.000000	0.493770
919.000000	0.493547
920.000000	0.493364
921.000000	0.493141
922.000000	0.492925
923.000000	0.492759
924.000000	0.492514
925.000000	0.492131
926.000000	0.491778
927.000000	0.491828
928.000000	0.491433
929.000000	0.490928
930.000000	0.490879
931.000000	0.490640
932.000000	0.490385
933.000000	0.490225
934.000000	0.489991
935.000000	0.489659
936.000000	0.489433
937.000000	0.489281
938.000000	0.489027
939.000000	0.488830
940.000000	0.488628
941.000000	0.488469
942.000000	0.488039
943.000000	0.487778
944.000000	0.487695
945.000000	0.487575
946.000000	0.487245
947.000000	0.486932
948.000000	0.486782
949.000000	0.486449
950.000000	0.486166
951.000000	0.485897
952.000000	0.485545
953.000000	0.485176
954.000000	0.484953
955.000000	0.484835
956.000000	0.484737
957.000000	0.484409
958.000000	0.483917
959.000000	0.483639
960.000000	0.483330
961.000000	0.483170
962.000000	0.483048
963.000000	0.482603
964.000000	0.482373
965.000000	0.482249
966.000000	0.481917
967.000000	0.481797
968.000000	0.481456
969.000000	0.480923
970.000000	0.480629
971.000000	0.480324
972.000000	0.480169
973.000000	0.480066
974.000000	0.479892
975.000000	0.479496
976.000000	0.479044
977.000000	0.478715
978.000000	0.478532
979.000000	0.478578
980.000000	0.478408
981.000000	0.478203
982.000000	0.478103
983.000000	0.477832
984.000000	0.477560
985.000000	0.477654
986.000000	0.477678
987.000000	0.477504
988.000000	0.477050
989.000000	0.476865
990.000000	0.476624
991.000000	0.476297
992.000000	0.476059
993.000000	0.476139
994.000000	0.475878
995.000000	0.475570
996.000000	0.475565
997.000000	0.475975
998.000000	0.476185
999.000000	0.476024
1000.000000	0.475704
1001.000000	0.475454
1002.000000	0.475829
1003.000000	0.476628
1004.000000	0.476832
1005.000000	0.476759
1006.000000	0.476410
1007.000000	0.475770
1008.000000	0.475241
1009.000000	0.474386
1010.000000	0.473995
1011.000000	0.474557
1012.000000	0.474264
1013.000000	0.474027
1014.000000	0.473961
1015.000000	0.473661
1016.000000	0.474140
1017.000000	0.474634
1018.000000	0.475327
1019.000000	0.475581
1020.000000	0.475639
1021.000000	0.475037
1022.000000	0.474223
1023.000000	0.474128
1024.000000	0.473626
1025.000000	0.474012
1026.000000	0.474626
1027.000000	0.473789
1028.000000	0.473627
1029.000000	0.473987
1030.000000	0.474224
1031.000000	0.474734
1032.000000	0.474669
1033.000000	0.474717
1034.000000	0.474922
1035.000000	0.475314
1036.000000	0.475454
1037.000000	0.475748
1038.000000	0.475697
1039.000000	0.475431
1040.000000	0.475282
1041.000000	0.475295
1042.000000	0.475189
1043.000000	0.475572
1044.000000	0.476193
1045.000000	0.476335
1046.000000	0.476104
1047.000000	0.476204
1048.000000	0.475935
1049.000000	0.475940
1050.000000	0.476528
1051.000000	0.476693
1052.000000	0.476285
1053.000000	0.476238
1054.000000	0.476594
1055.000000	0.476902
1056.000000	0.477388
1057.000000	0.477939
1058.000000	0.478260
1059.000000	0.478182
1060.000000	0.477934
1061.000000	0.478063
1062.000000	0.477903
1063.000000	0.478149
1064.000000	0.478548
1065.000000	0.479226
1066.000000	0.479543
1067.000000	0.479826
1068.000000	0.479982
1069.000000	0.479899
1070.000000	0.479881
1071.000000	0.479892
1072.000000	0.480085
1073.000000	0.480592
1074.000000	0.480571
1075.000000	0.480909
1076.000000	0.481108
1077.000000	0.480755
1078.000000	0.480776
1079.000000	0.480989
1080.000000	0.481494
1081.000000	0.481735
1082.000000	0.482264
1083.000000	0.482586
1084.000000	0.482763
1085.000000	0.482942
1086.000000	0.482932
1087.000000	0.483216
1088.000000	0.483602
1089.000000	0.483671
1090.000000	0.483456
1091.000000	0.483823
1092.000000	0.483786
1093.000000	0.483597
1094.000000	0.483769
1095.000000	0.484175
1096.000000	0.484491
1097.000000	0.484919
1098.000000	0.485232
1099.000000	0.485438
1100.000000	0.485738
1101.000000	0.485930
1102.000000	0.486140
1103.000000	0.486293
1104.000000	0.486626
1105.000000	0.487271
1106.000000	0.487481
1107.000000	0.487477
1108.000000	0.487422
1109.000000	0.487004
1110.000000	0.486664
1111.000000	0.486768
1112.000000	0.487219
1113.000000	0.487520
1114.000000	0.488150
1115.000000	0.488389
1116.000000	0.488463
1117.000000	0.488497
1118.000000	0.488429
1119.000000	0.488190
1120.000000	0.487403
1121.000000	0.487389
1122.000000	0.488063
1123.000000	0.488487
1124.000000	0.488925
1125.000000	0.489268
1126.000000	0.488978
1127.000000	0.488871
1128.000000	0.488847
1129.000000	0.489041
1130.000000	0.489282
1131.000000	0.489693
1132.000000	0.489739
1133.000000	0.489949
1134.000000	0.489889
1135.000000	0.489257
1136.000000	0.489007
1137.000000	0.488839
1138.000000	0.488640
1139.000000	0.488621
1140.000000	0.488706
1141.000000	0.488852
1142.000000	0.488871
1143.000000	0.488781
1144.000000	0.488872
1145.000000	0.488682
1146.000000	0.488351
1147.000000	0.488286
1148.000000	0.488236
1149.000000	0.488171
1150.000000	0.488244
1151.000000	0.488244
1152.000000	0.488145
1153.000000	0.488003
1154.000000	0.487757
1155.000000	0.487530
1156.000000	0.487255
1157.000000	0.487003
1158.000000	0.486682
1159.000000	0.486428
1160.000000	0.486108
1161.000000	0.485866
1162.000000	0.485768
1163.000000	0.485926
1164.000000	0.485793
1165.000000	0.485655
1166.000000	0.485594
1167.000000	0.485407
1168.000000	0.485274
1169.000000	0.485316
1170.000000	0.485244
1171.000000	0.485140
1172.000000	0.485153
1173.000000	0.485183
1174.000000	0.485131
1175.000000	0.485064
1176.000000	0.484872
1177.000000	0.484638
1178.000000	0.484485
1179.000000	0.484348
1180.000000	0.484142
1181.000000	0.484152
1182.000000	0.483870
1183.000000	0.483824
1184.000000	0.483968
1185.000000	0.483989
1186.000000	0.484136
1187.000000	0.484066
1188.000000	0.483852
1189.000000	0.483601
1190.000000	0.483323
1191.000000	0.483116
1192.000000	0.482933
1193.000000	0.483023
1194.000000	0.483177
1195.000000	0.483218
1196.000000	0.483265
1197.000000	0.483246
1198.000000	0.483138
1199.000000	0.483052
1200.000000	0.482912
1201.000000	0.482826
1202.000000	0.482876
1203.000000	0.482804
1204.000000	0.482787
1205.000000	0.482965
1206.000000	0.482919
1207.000000	0.482953
1208.000000	0.482787
1209.000000	0.482526
1210.000000	0.482370
1211.000000	0.482107
1212.000000	0.481984
1213.000000	0.482046
1214.000000	0.482110
1215.000000	0.482290
1216.000000	0.482283
1217.000000	0.482158
1218.000000	0.482052
1219.000000	0.481885
1220.000000	0.481722
1221.000000	0.481707
1222.000000	0.481596
1223.000000	0.481393
1224.000000	0.481314
1225.000000	0.481334
1226.000000	0.481444
1227.000000	0.481503
1228.000000	0.481572
1229.000000	0.481472
1230.000000	0.481128
1231.000000	0.480877
1232.000000	0.480742
1233.000000	0.480760
1234.000000	0.480795
1235.000000	0.480858
1236.000000	0.480904
1237.000000	0.481008
1238.000000	0.481182
1239.000000	0.481201
1240.000000	0.481180
1241.000000	0.481062
1242.000000	0.480955
1243.000000	0.480809
1244.000000	0.480777
1245.000000	0.480974
1246.000000	0.480938
1247.000000	0.480960
1248.000000	0.481047
1249.000000	0.481076
1250.000000	0.481143
1251.000000	0.481119
1252.000000	0.481169
1253.000000	0.481247
1254.000000	0.481269
1255.000000	0.481386
1256.000000	0.481411
1257.000000	0.481346
1258.000000	0.481359
1259.000000	0.481168
1260.000000	0.481275
1261.000000	0.481515
1262.000000	0.481612
1263.000000	0.481866
1264.000000	0.482014
1265.000000	0.481899
1266.000000	0.481648
1267.000000	0.481418
1268.000000	0.481322
1269.000000	0.481257
1270.000000	0.481272
1271.000000	0.481225
1272.000000	0.481256
1273.000000	0.481441
1274.000000	0.481484
1275.000000	0.481394
1276.000000	0.481271
1277.000000	0.481264
1278.000000	0.480934
1279.000000	0.480913
1280.000000	0.481096
1281.000000	0.481105
1282.000000	0.481205
1283.000000	0.481277
1284.000000	0.481174
1285.000000	0.481182
1286.000000	0.481135
1287.000000	0.481147
1288.000000	0.481412
1289.000000	0.481544
1290.000000	0.481369
1291.000000	0.481239
1292.000000	0.481169
1293.000000	0.480970
1294.000000	0.480963
1295.000000	0.481032
1296.000000	0.480942
1297.000000	0.480941
1298.000000	0.481026
1299.000000	0.481163
1300.000000	0.481122
1301.000000	0.480831
1302.000000	0.480608
1303.000000	0.480443
1304.000000	0.480196
1305.000000	0.480167
1306.000000	0.480038
1307.000000	0.479866
1308.000000	0.479719
1309.000000	0.479581
1310.000000	0.479359
1311.000000	0.479123
1312.000000	0.478787
1313.000000	0.478418
1314.000000	0.478252
1315.000000	0.478063
1316.000000	0.477912
1317.000000	0.477789
1318.000000	0.477516
1319.000000	0.477185
1320.000000	0.476921
1321.000000	0.476646
1322.000000	0.476447
1323.000000	0.476213
1324.000000	0.475973
1325.000000	0.475760
1326.000000	0.475434
1327.000000	0.475024
1328.000000	0.474725
1329.000000	0.474341
1330.000000	0.473888
1331.000000	0.473587
1332.000000	0.473508
1333.000000	0.473133
1334.000000	0.472779
1335.000000	0.472455
1336.000000	0.471882
1337.000000	0.471559
1338.000000	0.471412
1339.000000	0.471057
1340.000000	0.470593
1341.000000	0.470166
1342.000000	0.469572
1343.000000	0.468858
1344.000000	0.468292
1345.000000	0.467776
1346.000000	0.467292
1347.000000	0.466827
1348.000000	0.466391
1349.000000	0.465651
1350.000000	0.465079
1351.000000	0.464633
1352.000000	0.464108
1353.000000	0.463759
1354.000000	0.463515
1355.000000	0.463084
1356.000000	0.462563
1357.000000	0.461882
1358.000000	0.461089
1359.000000	0.460450
1360.000000	0.459883
1361.000000	0.459497
1362.000000	0.459060
1363.000000	0.458710
1364.000000	0.458233
1365.000000	0.457678
1366.000000	0.457195
1367.000000	0.456715
1368.000000	0.456010
1369.000000	0.455680
1370.000000	0.455272
1371.000000	0.454572
1372.000000	0.453892
1373.000000	0.453069
1374.000000	0.452065
1375.000000	0.451219
1376.000000	0.450486
1377.000000	0.449552
1378.000000	0.448576
1379.000000	0.447381
1380.000000	0.446129
1381.000000	0.444872
1382.000000	0.443308
1383.000000	0.441725
1384.000000	0.439995
1385.000000	0.438141
1386.000000	0.436534
1387.000000	0.434991
1388.000000	0.433480
1389.000000	0.432060
1390.000000	0.430674
1391.000000	0.429409
1392.000000	0.428332
1393.000000	0.427263
1394.000000	0.426474
1395.000000	0.425487
1396.000000	0.424501
1397.000000	0.423261
1398.000000	0.421793
1399.000000	0.420351
1400.000000	0.418893
1401.000000	0.417174
1402.000000	0.415410
1403.000000	0.413457
1404.000000	0.411435
1405.000000	0.409167
1406.000000	0.406977
1407.000000	0.404890
1408.000000	0.402576
1409.000000	0.400387
1410.000000	0.398346
1411.000000	0.396111
1412.000000	0.393767
1413.000000	0.391543
1414.000000	0.389232
1415.000000	0.386952
1416.000000	0.384770
1417.000000	0.382534
1418.000000	0.380280
1419.000000	0.378131
1420.000000	0.375984
1421.000000	0.373907
1422.000000	0.371763
1423.000000	0.369704
1424.000000	0.367559
1425.000000	0.365494
1426.000000	0.363580
1427.000000	0.361714
1428.000000	0.360023
1429.000000	0.358414
1430.000000	0.356771
1431.000000	0.355168
1432.000000	0.353596
1433.000000	0.352035
1434.000000	0.350511
1435.000000	0.349158
1436.000000	0.347803
1437.000000	0.346438
1438.000000	0.345108
1439.000000	0.343883
1440.000000	0.342592
1441.000000	0.341271
1442.000000	0.340091
1443.000000	0.338860
1444.000000	0.337769
1445.000000	0.336762
1446.000000	0.335692
1447.000000	0.334609
1448.000000	0.333659
1449.000000	0.332821
1450.000000	0.331927
1451.000000	0.331096
1452.000000	0.330278
1453.000000	0.329517
1454.000000	0.328883
1455.000000	0.328348
1456.000000	0.327884
1457.000000	0.327412
1458.000000	0.326953
1459.000000	0.326509
1460.000000	0.326138
1461.000000	0.325775
1462.000000	0.325515
1463.000000	0.325276
1464.000000	0.324992
1465.000000	0.324777
1466.000000	0.324407
1467.000000	0.323956
1468.000000	0.323634
1469.000000	0.323514
1470.000000	0.323383
1471.000000	0.323422
1472.000000	0.323581
1473.000000	0.323657
1474.000000	0.323818
1475.000000	0.324153
1476.000000	0.324546
1477.000000	0.325097
1478.000000	0.325672
1479.000000	0.326194
1480.000000	0.326742
1481.000000	0.327278
1482.000000	0.327813
1483.000000	0.328452
1484.000000	0.329169
1485.000000	0.329880
1486.000000	0.330663
1487.000000	0.331335
1488.000000	0.331956
1489.000000	0.332658
1490.000000	0.333178
1491.000000	0.333857
1492.000000	0.334647
1493.000000	0.335380
1494.000000	0.336090
1495.000000	0.336767
1496.000000	0.337383
1497.000000	0.338037
1498.000000	0.338714
1499.000000	0.339377
1500.000000	0.340014
1501.000000	0.340662
1502.000000	0.341148
1503.000000	0.341638
1504.000000	0.342236
1505.000000	0.342855
1506.000000	0.343527
1507.000000	0.344164
1508.000000	0.344860
1509.000000	0.345407
1510.000000	0.345781
1511.000000	0.346251
1512.000000	0.346581
1513.000000	0.346879
1514.000000	0.347272
1515.000000	0.347586
1516.000000	0.347943
1517.000000	0.348248
1518.000000	0.348526
1519.000000	0.348809
1520.000000	0.349100
1521.000000	0.349317
1522.000000	0.349533
1523.000000	0.349813
1524.000000	0.350056
1525.000000	0.350328
1526.000000	0.350580
1527.000000	0.350794
1528.000000	0.350999
1529.000000	0.351131
1530.000000	0.351274
1531.000000	0.351538
1532.000000	0.351784
1533.000000	0.352033
1534.000000	0.352240
1535.000000	0.352389
1536.000000	0.352532
1537.000000	0.352758
1538.000000	0.352935
1539.000000	0.352945
1540.000000	0.352985
1541.000000	0.353041
1542.000000	0.353058
1543.000000	0.353198
1544.000000	0.353281
1545.000000	0.353296
1546.000000	0.353293
1547.000000	0.353281
1548.000000	0.353333
1549.000000	0.353397
1550.000000	0.353468
1551.000000	0.353455
1552.000000	0.353447
1553.000000	0.353432
1554.000000	0.353430
1555.000000	0.353565
1556.000000	0.353625
1557.000000	0.353631
1558.000000	0.353666
1559.000000	0.353584
1560.000000	0.353544
1561.000000	0.353626
1562.000000	0.353556
1563.000000	0.353405
1564.000000	0.353453
1565.000000	0.353583
1566.000000	0.353475
1567.000000	0.353504
1568.000000	0.353444
1569.000000	0.353158
1570.000000	0.353136
1571.000000	0.353336
1572.000000	0.353315
1573.000000	0.353278
1574.000000	0.353260
1575.000000	0.353149
1576.000000	0.353128
1577.000000	0.353178
1578.000000	0.353187
1579.000000	0.353264
1580.000000	0.353279
1581.000000	0.353342
1582.000000	0.353377
1583.000000	0.353353
1584.000000	0.353326
1585.000000	0.353436
1586.000000	0.353431
1587.000000	0.353334
1588.000000	0.353256
1589.000000	0.353109
1590.000000	0.353108
1591.000000	0.353226
1592.000000	0.353302
1593.000000	0.353502
1594.000000	0.353546
1595.000000	0.353502
1596.000000	0.353561
1597.000000	0.353660
1598.000000	0.353694
1599.000000	0.353797
1600.000000	0.353852
1601.000000	0.353938
1602.000000	0.353981
1603.000000	0.354018
1604.000000	0.354048
1605.000000	0.354043
1606.000000	0.354110
1607.000000	0.354313
1608.000000	0.354474
1609.000000	0.354748
1610.000000	0.354866
1611.000000	0.354910
1612.000000	0.354982
1613.000000	0.355046
1614.000000	0.355165
1615.000000	0.355427
1616.000000	0.355693
1617.000000	0.355934
1618.000000	0.356162
1619.000000	0.356404
1620.000000	0.356618
1621.000000	0.356805
1622.000000	0.357147
1623.000000	0.357512
1624.000000	0.357785
1625.000000	0.357968
1626.000000	0.358141
1627.000000	0.358209
1628.000000	0.358473
1629.000000	0.358884
1630.000000	0.359192
1631.000000	0.359375
1632.000000	0.359674
1633.000000	0.359990
1634.000000	0.360324
1635.000000	0.360853
1636.000000	0.361263
1637.000000	0.361567
1638.000000	0.361995
1639.000000	0.362586
1640.000000	0.362994
1641.000000	0.363443
1642.000000	0.363884
1643.000000	0.364236
1644.000000	0.364613
1645.000000	0.365042
1646.000000	0.365453
1647.000000	0.365872
1648.000000	0.366252
1649.000000	0.366786
1650.000000	0.367194
1651.000000	0.367498
1652.000000	0.367944
1653.000000	0.368384
1654.000000	0.368825
1655.000000	0.369297
1656.000000	0.369540
1657.000000	0.369730
1658.000000	0.369979
1659.000000	0.370231
1660.000000	0.370632
1661.000000	0.371010
1662.000000	0.371470
1663.000000	0.372040
1664.000000	0.372469
1665.000000	0.372900
1666.000000	0.373370
1667.000000	0.373659
1668.000000	0.374076
1669.000000	0.374575
1670.000000	0.374918
1671.000000	0.375330
1672.000000	0.375704
1673.000000	0.375988
1674.000000	0.376323
1675.000000	0.376684
1676.000000	0.376998
1677.000000	0.377226
1678.000000	0.377567
1679.000000	0.378009
1680.000000	0.378406
1681.000000	0.378711
1682.000000	0.378919
1683.000000	0.379103
1684.000000	0.379223
1685.000000	0.379486
1686.000000	0.379861
1687.000000	0.380144
1688.000000	0.380433
1689.000000	0.380782
1690.000000	0.381014
1691.000000	0.381203
1692.000000	0.381405
1693.000000	0.381656
1694.000000	0.381744
1695.000000	0.382035
1696.000000	0.382211
1697.000000	0.382287
1698.000000	0.382318
1699.000000	0.382474
1700.000000	0.382662
1701.000000	0.382949
1702.000000	0.383145
1703.000000	0.383331
1704.000000	0.383654
1705.000000	0.383897
1706.000000	0.384171
1707.000000	0.384435
1708.000000	0.384658
1709.000000	0.384735
1710.000000	0.384789
1711.000000	0.384980
1712.000000	0.385158
1713.000000	0.385343
1714.000000	0.385754
1715.000000	0.386063
1716.000000	0.386321
1717.000000	0.386516
1718.000000	0.386538
1719.000000	0.386759
1720.000000	0.387129
1721.000000	0.387386
1722.000000	0.387776
1723.000000	0.388053
1724.000000	0.388164
1725.000000	0.388411
1726.000000	0.388588
1727.000000	0.388878
1728.000000	0.389181
1729.000000	0.389385
1730.000000	0.389808
1731.000000	0.390113
1732.000000	0.390348
1733.000000	0.390615
1734.000000	0.390704
1735.000000	0.390916
1736.000000	0.391101
1737.000000	0.391243
1738.000000	0.391424
1739.000000	0.391666
1740.000000	0.391839
1741.000000	0.392072
1742.000000	0.392444
1743.000000	0.392804
1744.000000	0.393132
1745.000000	0.393344
1746.000000	0.393524
1747.000000	0.393806
1748.000000	0.394001
1749.000000	0.394436
1750.000000	0.394633
1751.000000	0.394693
1752.000000	0.394904
1753.000000	0.394889
1754.000000	0.394959
1755.000000	0.395085
1756.000000	0.395144
1757.000000	0.395078
1758.000000	0.395235
1759.000000	0.395491
1760.000000	0.395719
1761.000000	0.396069
1762.000000	0.396334
1763.000000	0.396561
1764.000000	0.396745
1765.000000	0.396870
1766.000000	0.397012
1767.000000	0.396865
1768.000000	0.397006
1769.000000	0.397533
1770.000000	0.397837
1771.000000	0.398186
1772.000000	0.398369
1773.000000	0.398170
1774.000000	0.398288
1775.000000	0.398666
1776.000000	0.398806
1777.000000	0.398879
1778.000000	0.398988
1779.000000	0.398863
1780.000000	0.399091
1781.000000	0.399553
1782.000000	0.399841
1783.000000	0.400255
1784.000000	0.400695
1785.000000	0.400752
1786.000000	0.400906
1787.000000	0.401282
1788.000000	0.401344
1789.000000	0.401449
1790.000000	0.401771
1791.000000	0.401998
1792.000000	0.402518
1793.000000	0.402907
1794.000000	0.403179
1795.000000	0.403486
1796.000000	0.403754
1797.000000	0.404001
1798.000000	0.404298
1799.000000	0.404433
1800.000000	0.404390
1801.000000	0.403492
1802.000000	0.404310
1803.000000	0.405319
1804.000000	0.405918
1805.000000	0.406176
1806.000000	0.406443
1807.000000	0.406383
1808.000000	0.406520
1809.000000	0.406286
1810.000000	0.406948
1811.000000	0.407078
1812.000000	0.407235
1813.000000	0.407346
1814.000000	0.407221
1815.000000	0.407300
1816.000000	0.407327
1817.000000	0.407596
1818.000000	0.408232
1819.000000	0.409122
1820.000000	0.409273
1821.000000	0.409522
1822.000000	0.409260
1823.000000	0.407834
1824.000000	0.407319
1825.000000	0.406784
1826.000000	0.406553
1827.000000	0.406339
1828.000000	0.406612
1829.000000	0.407535
1830.000000	0.408308
1831.000000	0.407855
1832.000000	0.406907
1833.000000	0.406139
1834.000000	0.403764
1835.000000	0.402914
1836.000000	0.403329
1837.000000	0.403094
1838.000000	0.402775
1839.000000	0.402470
1840.000000	0.401834
1841.000000	0.401159
1842.000000	0.400783
1843.000000	0.400593
1844.000000	0.400226
1845.000000	0.400055
1846.000000	0.399533
1847.000000	0.398336
1848.000000	0.397386
1849.000000	0.396968
1850.000000	0.395859
1851.000000	0.395396
1852.000000	0.395630
1853.000000	0.395233
1854.000000	0.394569
1855.000000	0.393852
1856.000000	0.393182
1857.000000	0.391472
1858.000000	0.389768
1859.000000	0.387516
1860.000000	0.384818
1861.000000	0.382219
1862.000000	0.379971
1863.000000	0.378319
1864.000000	0.376412
1865.000000	0.374653
1866.000000	0.372626
1867.000000	0.370599
1868.000000	0.367733
1869.000000	0.365403
1870.000000	0.363008
1871.000000	0.359876
1872.000000	0.356783
1873.000000	0.353214
1874.000000	0.348803
1875.000000	0.344724
1876.000000	0.340284
1877.000000	0.335723
1878.000000	0.331567
1879.000000	0.326743
1880.000000	0.322610
1881.000000	0.318204
1882.000000	0.313270
1883.000000	0.308959
1884.000000	0.304243
1885.000000	0.298984
1886.000000	0.293976
1887.000000	0.289021
1888.000000	0.283615
1889.000000	0.278399
1890.000000	0.272729
1891.000000	0.267277
1892.000000	0.262027
1893.000000	0.256694
1894.000000	0.251154
1895.000000	0.245505
1896.000000	0.239706
1897.000000	0.234066
1898.000000	0.228803
1899.000000	0.223976
1900.000000	0.219609
1901.000000	0.214859
1902.000000	0.209373
1903.000000	0.204690
1904.000000	0.200350
1905.000000	0.195819
1906.000000	0.191495
1907.000000	0.187735
1908.000000	0.183575
1909.000000	0.179118
1910.000000	0.175075
1911.000000	0.171506
1912.000000	0.168311
1913.000000	0.165400
1914.000000	0.162510
1915.000000	0.159262
1916.000000	0.156231
1917.000000	0.153630
1918.000000	0.151279
1919.000000	0.149447
1920.000000	0.148074
1921.000000	0.146457
1922.000000	0.144835
1923.000000	0.143471
1924.000000	0.142073
1925.000000	0.141180
1926.000000	0.140445
1927.000000	0.139790
1928.000000	0.139558
1929.000000	0.139840
1930.000000	0.139998
1931.000000	0.140160
1932.000000	0.140577
1933.000000	0.140336
1934.000000	0.139688
1935.000000	0.139030
1936.000000	0.138774
1937.000000	0.139032
1938.000000	0.138926
1939.000000	0.138816
1940.000000	0.138947
1941.000000	0.138730
1942.000000	0.138226
1943.000000	0.138668
1944.000000	0.138884
1945.000000	0.138306
1946.000000	0.137409
1947.000000	0.136284
1948.000000	0.135574
1949.000000	0.135411
1950.000000	0.135659
1951.000000	0.135420
1952.000000	0.135110
1953.000000	0.134378
1954.000000	0.133701
1955.000000	0.132823
1956.000000	0.132450
1957.000000	0.132364
1958.000000	0.132019
1959.000000	0.131641
1960.000000	0.130961
1961.000000	0.130271
1962.000000	0.129768
1963.000000	0.129373
1964.000000	0.129025
1965.000000	0.129036
1966.000000	0.129317
1967.000000	0.129472
1968.000000	0.129697
1969.000000	0.129843
1970.000000	0.129302
1971.000000	0.128605
1972.000000	0.128347
1973.000000	0.128027
1974.000000	0.127632
1975.000000	0.127770
1976.000000	0.128370
1977.000000	0.128517
1978.000000	0.129270
1979.000000	0.129711
1980.000000	0.129938
1981.000000	0.130508
1982.000000	0.130856
1983.000000	0.131481
1984.000000	0.132080
1985.000000	0.132750
1986.000000	0.133413
1987.000000	0.134091
1988.000000	0.134983
1989.000000	0.135782
1990.000000	0.136676
1991.000000	0.138136
1992.000000	0.138994
1993.000000	0.139514
1994.000000	0.140298
1995.000000	0.140683
1996.000000	0.141245
1997.000000	0.142019
1998.000000	0.143174
1999.000000	0.144164
2000.000000	0.145321
2001.000000	0.146298
2002.000000	0.146634
2003.000000	0.147595
2004.000000	0.148942
2005.000000	0.149632
2006.000000	0.150798
2007.000000	0.152285
2008.000000	0.153419
2009.000000	0.154142
2010.000000	0.155036
2011.000000	0.155652
2012.000000	0.156720
2013.000000	0.157687
2014.000000	0.159046
2015.000000	0.161068
2016.000000	0.163539
2017.000000	0.165427
2018.000000	0.166827
2019.000000	0.168110
2020.000000	0.168915
2021.000000	0.170010
2022.000000	0.171057
2023.000000	0.172388
2024.000000	0.173925
2025.000000	0.175323
2026.000000	0.176655
2027.000000	0.178325
2028.000000	0.179322
2029.000000	0.180617
2030.000000	0.182257
2031.000000	0.182909
2032.000000	0.183998
2033.000000	0.185507
2034.000000	0.186619
2035.000000	0.187654
2036.000000	0.188692
2037.000000	0.189731
2038.000000	0.190593
2039.000000	0.191343
2040.000000	0.191972
2041.000000	0.193124
2042.000000	0.194758
2043.000000	0.196335
2044.000000	0.198288
2045.000000	0.199780
2046.000000	0.200358
2047.000000	0.201386
2048.000000	0.202546
2049.000000	0.203483
2050.000000	0.203845
2051.000000	0.204758
2052.000000	0.205564
2053.000000	0.206382
2054.000000	0.207461
2055.000000	0.209304
2056.000000	0.210716
2057.000000	0.212075
2058.000000	0.213191
2059.000000	0.214267
2060.000000	0.215393
2061.000000	0.216240
2062.000000	0.217264
2063.000000	0.218619
2064.000000	0.219517
2065.000000	0.220335
2066.000000	0.221250
2067.000000	0.222255
2068.000000	0.223384
2069.000000	0.224517
2070.000000	0.225182
2071.000000	0.225929
2072.000000	0.226619
2073.000000	0.227597
2074.000000	0.228657
2075.000000	0.229541
2076.000000	0.230388
2077.000000	0.231402
2078.000000	0.232248
2079.000000	0.233338
2080.000000	0.234615
2081.000000	0.235964
2082.000000	0.237621
2083.000000	0.238971
2084.000000	0.240415
2085.000000	0.241892
2086.000000	0.243152
2087.000000	0.244966
2088.000000	0.246356
2089.000000	0.247887
2090.000000	0.249257
2091.000000	0.250414
2092.000000	0.251562
2093.000000	0.252689
2094.000000	0.253829
2095.000000	0.254977
2096.000000	0.255944
2097.000000	0.256865
2098.000000	0.257628
2099.000000	0.257914
2100.000000	0.259108
2101.000000	0.260552
2102.000000	0.261533
2103.000000	0.262534
2104.000000	0.262966
2105.000000	0.263637
2106.000000	0.264131
2107.000000	0.264783
2108.000000	0.265460
2109.000000	0.266412
2110.000000	0.266919
2111.000000	0.267896
2112.000000	0.269422
2113.000000	0.270760
2114.000000	0.271916
2115.000000	0.273446
2116.000000	0.274503
2117.000000	0.275179
2118.000000	0.275523
2119.000000	0.275889
2120.000000	0.276289
2121.000000	0.276025
2122.000000	0.276987
2123.000000	0.278943
2124.000000	0.279985
2125.000000	0.281855
2126.000000	0.282647
2127.000000	0.282101
2128.000000	0.282200
2129.000000	0.281966
2130.000000	0.281925
2131.000000	0.282531
2132.000000	0.282794
2133.000000	0.283203
2134.000000	0.283659
2135.000000	0.283555
2136.000000	0.283388
2137.000000	0.283829
2138.000000	0.284686
2139.000000	0.285370
2140.000000	0.286820
2141.000000	0.287373
2142.000000	0.287285
2143.000000	0.287178
2144.000000	0.286423
2145.000000	0.286598
2146.000000	0.287071
2147.000000	0.288356
2148.000000	0.290129
2149.000000	0.290941
2150.000000	0.291019
2151.000000	0.290884
2152.000000	0.290572
2153.000000	0.290551
2154.000000	0.290810
2155.000000	0.291693
2156.000000	0.292087
2157.000000	0.292680
2158.000000	0.292899
2159.000000	0.292904
2160.000000	0.292963
2161.000000	0.292789
2162.000000	0.292647
2163.000000	0.292105
2164.000000	0.291897
2165.000000	0.291781
2166.000000	0.291520
2167.000000	0.292485
2168.000000	0.294136
2169.000000	0.294959
2170.000000	0.295860
2171.000000	0.295740
2172.000000	0.293897
2173.000000	0.293411
2174.000000	0.292879
2175.000000	0.292836
2176.000000	0.293750
2177.000000	0.294209
2178.000000	0.294911
2179.000000	0.295326
2180.000000	0.295206
2181.000000	0.295460
2182.000000	0.295615
2183.000000	0.294972
2184.000000	0.294394
2185.000000	0.293895
2186.000000	0.293236
2187.000000	0.294476
2188.000000	0.295324
2189.000000	0.296404
2190.000000	0.296501
2191.000000	0.294691
2192.000000	0.293678
2193.000000	0.291902
2194.000000	0.290849
2195.000000	0.289815
2196.000000	0.289869
2197.000000	0.290918
2198.000000	0.291784
2199.000000	0.295233
2200.000000	0.296158
2201.000000	0.294750
2202.000000	0.294151
2203.000000	0.292584
2204.000000	0.289824
2205.000000	0.289653
2206.000000	0.288769
2207.000000	0.288479
2208.000000	0.290843
2209.000000	0.292058
2210.000000	0.295154
2211.000000	0.296579
2212.000000	0.294262
2213.000000	0.294006
2214.000000	0.292855
2215.000000	0.293132
2216.000000	0.294687
2217.000000	0.296628
2218.000000	0.299591
2219.000000	0.301034
2220.000000	0.303060
2221.000000	0.303916
2222.000000	0.303266
2223.000000	0.302341
2224.000000	0.300535
2225.000000	0.299098
2226.000000	0.297745
2227.000000	0.298352
2228.000000	0.299989
2229.000000	0.300168
2230.000000	0.299003
2231.000000	0.297351
2232.000000	0.296336
2233.000000	0.294768
2234.000000	0.294208
2235.000000	0.295485
2236.000000	0.295838
2237.000000	0.296200
2238.000000	0.296248
2239.000000	0.295714
2240.000000	0.296085
2241.000000	0.297645
2242.000000	0.298255
2243.000000	0.299256
2244.000000	0.298796
2245.000000	0.295942
2246.000000	0.294903
2247.000000	0.293689
2248.000000	0.293486
2249.000000	0.295299
2250.000000	0.295173
2251.000000	0.296755
2252.000000	0.298426
2253.000000	0.297825
2254.000000	0.299550
2255.000000	0.298353
2256.000000	0.296324
2257.000000	0.297306
2258.000000	0.296381
2259.000000	0.296733
2260.000000	0.297417
2261.000000	0.296655
2262.000000	0.294700
2263.000000	0.293903
2264.000000	0.292219
2265.000000	0.291952
2266.000000	0.292639
2267.000000	0.293420
2268.000000	0.296412
2269.000000	0.296714
2270.000000	0.295452
2271.000000	0.294548
2272.000000	0.291914
2273.000000	0.290034
2274.000000	0.288863
2275.000000	0.288305
2276.000000	0.287532
2277.000000	0.287382
2278.000000	0.288549
2279.000000	0.288855
2280.000000	0.288455
2281.000000	0.286999
2282.000000	0.285752
2283.000000	0.283341
2284.000000	0.281031
2285.000000	0.279078
2286.000000	0.277009
2287.000000	0.276581
2288.000000	0.276038
2289.000000	0.275543
2290.000000	0.276117
2291.000000	0.276821
2292.000000	0.276908
2293.000000	0.276809
2294.000000	0.275735
2295.000000	0.272393
2296.000000	0.269957
2297.000000	0.267493
2298.000000	0.265760
2299.000000	0.263749
2300.000000	0.263432
2301.000000	0.265457
2302.000000	0.265155
2303.000000	0.264863
2304.000000	0.263613
2305.000000	0.259909
2306.000000	0.257527
2307.000000	0.255154
2308.000000	0.254028
2309.000000	0.253029
2310.000000	0.251162
2311.000000	0.250373
2312.000000	0.249426
2313.000000	0.246738
2314.000000	0.244228
2315.000000	0.241069
2316.000000	0.236941
2317.000000	0.235070
2318.000000	0.236301
2319.000000	0.238226
2320.000000	0.239809
2321.000000	0.241407
2322.000000	0.240529
2323.000000	0.239544
2324.000000	0.241323
2325.000000	0.240770
2326.000000	0.239897
2327.000000	0.237715
2328.000000	0.231915
2329.000000	0.229200
2330.000000	0.226505
2331.000000	0.224170
2332.000000	0.225300
2333.000000	0.224241
2334.000000	0.223622
2335.000000	0.224308
2336.000000	0.225733
2337.000000	0.226222
2338.000000	0.229163
2339.000000	0.227946
2340.000000	0.224172
2341.000000	0.220588
2342.000000	0.213081
2343.000000	0.208332
2344.000000	0.204340
2345.000000	0.201364
2346.000000	0.201295
2347.000000	0.200161
2348.000000	0.198584
2349.000000	0.197976
2350.000000	0.199287
2351.000000	0.195786
2352.000000	0.195170
2353.000000	0.196122
2354.000000	0.194979
2355.000000	0.195140
2356.000000	0.194710
2357.000000	0.195465
2358.000000	0.192668
2359.000000	0.188063
2360.000000	0.184675
2361.000000	0.176629
2362.000000	0.172568
2363.000000	0.173127
2364.000000	0.172233
2365.000000	0.176687
2366.000000	0.178430
2367.000000	0.177574
2368.000000	0.179704
2369.000000	0.175924
2370.000000	0.172307
2371.000000	0.170510
2372.000000	0.163765
2373.000000	0.158272
2374.000000	0.155419
2375.000000	0.153885
2376.000000	0.158731
2377.000000	0.167374
2378.000000	0.171207
2379.000000	0.168882
2380.000000	0.163380
2381.000000	0.155902
2382.000000	0.153212
2383.000000	0.155467
2384.000000	0.154742
2385.000000	0.154075
2386.000000	0.153168
2387.000000	0.150750
2388.000000	0.149922
2389.000000	0.147630
2390.000000	0.142548
2391.000000	0.138258
2392.000000	0.138134
2393.000000	0.142335
2394.000000	0.145732
2395.000000	0.147063
2396.000000	0.146306
2397.000000	0.143023
2398.000000	0.139991
2399.000000	0.140472
2400.000000	0.142672
2401.000000	0.138876
2402.000000	0.134944
2403.000000	0.129911
2404.000000	0.123856
2405.000000	0.124516
2406.000000	0.127439
2407.000000	0.126648
2408.000000	0.122526
2409.000000	0.119454
2410.000000	0.113425
2411.000000	0.113039
2412.000000	0.124462
2413.000000	0.135804
2414.000000	0.144858
2415.000000	0.152810
2416.000000	0.156761
2417.000000	0.150741
2418.000000	0.142752
2419.000000	0.134244
2420.000000	0.117185
2421.000000	0.106377
2422.000000	0.099554
2423.000000	0.102790
2424.000000	0.115053
2425.000000	0.117494
2426.000000	0.116719
2427.000000	0.107346
2428.000000	0.094902
2429.000000	0.096710
2430.000000	0.107971
2431.000000	0.117365
2432.000000	0.130978
2433.000000	0.128283
2434.000000	0.107195
2435.000000	0.102850
2436.000000	0.094680
2437.000000	0.089956
2438.000000	0.097901
2439.000000	0.095264
2440.000000	0.091587
2441.000000	0.096598
2442.000000	0.111209
2443.000000	0.123222
2444.000000	0.124672
2445.000000	0.127200
2446.000000	0.127331
2447.000000	0.125240
2448.000000	0.130615
2449.000000	0.152109
2450.000000	0.155102
2451.000000	0.138132
2452.000000	0.148664
2453.000000	0.137490
2454.000000	0.117469
2455.000000	0.119301
2456.000000	0.092838
2457.000000	0.067298
2458.000000	0.062009
2459.000000	0.073423
2460.000000	0.081602
2461.000000	0.073877
2462.000000	0.071830
2463.000000	0.051493
2464.000000	0.049179
2465.000000	0.067454
2466.000000	0.071910
2467.000000	0.095024
2468.000000	0.102453
2469.000000	0.087293
2470.000000	0.095649
2471.000000	0.089889
2472.000000	0.077744
2473.000000	0.089964
2474.000000	0.069377
2475.000000	0.060389
2476.000000	0.077469
2477.000000	0.074428
2478.000000	0.105400
2479.000000	0.104761
2480.000000	0.071626
2481.000000	0.054050
2482.000000	0.032435
2483.000000	0.024808
2484.000000	0.032238
2485.000000	0.049513
2486.000000	0.062157
2487.000000	0.087408
2488.000000	0.103698
2489.000000	0.111104
2490.000000	0.138910
2491.000000	0.149280
2492.000000	0.137386
2493.000000	0.108263
2494.000000	0.080509
2495.000000	0.015311
2496.000000	-0.013928
2497.000000	-0.034188
2498.000000	-0.038532
2499.000000	-0.006437
2500.000000	0.007310
