# Wavelength	SM1200H-75-100_00001.asd.rts.txt
350.000000	0.578344
351.000000	0.567848
352.000000	0.554992
353.000000	0.550559
354.000000	0.560009
355.000000	0.564240
356.000000	0.568889
357.000000	0.575980
358.000000	0.575444
359.000000	0.573216
360.000000	0.572075
361.000000	0.572824
362.000000	0.576598
363.000000	0.578996
364.000000	0.577902
365.000000	0.583671
366.000000	0.583860
367.000000	0.578947
368.000000	0.581955
369.000000	0.586666
370.000000	0.591816
371.000000	0.596998
372.000000	0.599158
373.000000	0.601201
374.000000	0.605651
375.000000	0.607568
376.000000	0.607132
377.000000	0.606000
378.000000	0.608216
379.000000	0.611235
380.000000	0.613403
381.000000	0.615572
382.000000	0.617170
383.000000	0.618674
384.000000	0.620706
385.000000	0.621193
386.000000	0.623043
387.000000	0.626497
388.000000	0.627910
389.000000	0.629559
390.000000	0.631045
391.000000	0.630696
392.000000	0.632563
393.000000	0.634457
394.000000	0.634660
395.000000	0.635792
396.000000	0.637156
397.000000	0.638360
398.000000	0.639820
399.000000	0.640953
400.000000	0.642260
401.000000	0.644207
402.000000	0.644835
403.000000	0.645242
404.000000	0.646771
405.000000	0.647464
406.000000	0.648051
407.000000	0.648996
408.000000	0.649821
409.000000	0.650588
410.000000	0.651175
411.000000	0.651268
412.000000	0.651867
413.000000	0.653029
414.000000	0.654523
415.000000	0.655582
416.000000	0.656315
417.000000	0.656984
418.000000	0.658037
419.000000	0.658790
420.000000	0.659495
421.000000	0.661217
422.000000	0.662617
423.000000	0.663493
424.000000	0.664314
425.000000	0.665873
426.000000	0.667323
427.000000	0.668057
428.000000	0.668968
429.000000	0.670201
430.000000	0.671682
431.000000	0.672972
432.000000	0.674407
433.000000	0.675652
434.000000	0.676430
435.000000	0.677705
436.000000	0.679218
437.000000	0.680506
438.000000	0.681768
439.000000	0.682786
440.000000	0.683797
441.000000	0.685027
442.000000	0.686235
443.000000	0.687340
444.000000	0.688832
445.000000	0.689916
446.000000	0.690980
447.000000	0.692139
448.000000	0.693137
449.000000	0.694330
450.000000	0.695829
451.000000	0.696777
452.000000	0.697719
453.000000	0.698737
454.000000	0.700085
455.000000	0.701115
456.000000	0.702049
457.000000	0.702931
458.000000	0.703607
459.000000	0.704384
460.000000	0.705523
461.000000	0.705954
462.000000	0.706610
463.000000	0.707414
464.000000	0.707905
465.000000	0.708257
466.000000	0.708537
467.000000	0.709170
468.000000	0.709958
469.000000	0.710592
470.000000	0.711251
471.000000	0.711869
472.000000	0.712341
473.000000	0.712736
474.000000	0.713244
475.000000	0.713614
476.000000	0.714136
477.000000	0.714684
478.000000	0.715079
479.000000	0.715829
480.000000	0.716670
481.000000	0.717190
482.000000	0.717928
483.000000	0.718750
484.000000	0.719606
485.000000	0.720187
486.000000	0.720873
487.000000	0.721619
488.000000	0.722357
489.000000	0.723147
490.000000	0.724072
491.000000	0.724952
492.000000	0.725847
493.000000	0.726516
494.000000	0.727390
495.000000	0.728385
496.000000	0.729280
497.000000	0.730159
498.000000	0.731061
499.000000	0.732146
500.000000	0.733187
501.000000	0.734072
502.000000	0.734986
503.000000	0.735996
504.000000	0.736976
505.000000	0.737934
506.000000	0.738897
507.000000	0.739744
508.000000	0.740698
509.000000	0.741743
510.000000	0.742787
511.000000	0.743750
512.000000	0.744704
513.000000	0.745684
514.000000	0.746638
515.000000	0.747616
516.000000	0.748507
517.000000	0.749383
518.000000	0.750328
519.000000	0.751152
520.000000	0.751911
521.000000	0.752735
522.000000	0.753664
523.000000	0.754562
524.000000	0.755501
525.000000	0.756402
526.000000	0.757237
527.000000	0.758094
528.000000	0.758851
529.000000	0.759548
530.000000	0.760337
531.000000	0.761261
532.000000	0.762081
533.000000	0.762888
534.000000	0.763807
535.000000	0.764763
536.000000	0.765589
537.000000	0.766322
538.000000	0.767058
539.000000	0.767880
540.000000	0.768713
541.000000	0.769480
542.000000	0.770248
543.000000	0.771102
544.000000	0.772028
545.000000	0.772835
546.000000	0.773713
547.000000	0.774558
548.000000	0.775414
549.000000	0.776150
550.000000	0.777028
551.000000	0.778010
552.000000	0.778833
553.000000	0.779633
554.000000	0.780439
555.000000	0.781288
556.000000	0.782241
557.000000	0.783038
558.000000	0.783912
559.000000	0.784665
560.000000	0.785287
561.000000	0.786037
562.000000	0.786867
563.000000	0.787490
564.000000	0.788169
565.000000	0.788896
566.000000	0.789681
567.000000	0.790499
568.000000	0.791262
569.000000	0.791974
570.000000	0.792698
571.000000	0.793381
572.000000	0.793929
573.000000	0.794602
574.000000	0.795256
575.000000	0.795805
576.000000	0.796481
577.000000	0.797124
578.000000	0.797765
579.000000	0.798444
580.000000	0.799048
581.000000	0.799554
582.000000	0.800107
583.000000	0.800655
584.000000	0.801197
585.000000	0.801764
586.000000	0.802368
587.000000	0.802936
588.000000	0.803406
589.000000	0.803887
590.000000	0.804343
591.000000	0.804756
592.000000	0.805174
593.000000	0.805543
594.000000	0.805871
595.000000	0.806258
596.000000	0.806562
597.000000	0.806894
598.000000	0.807171
599.000000	0.807358
600.000000	0.807657
601.000000	0.807998
602.000000	0.808317
603.000000	0.808560
604.000000	0.808764
605.000000	0.809036
606.000000	0.809248
607.000000	0.809391
608.000000	0.809516
609.000000	0.809709
610.000000	0.809971
611.000000	0.810281
612.000000	0.810693
613.000000	0.811140
614.000000	0.811677
615.000000	0.812288
616.000000	0.812907
617.000000	0.813468
618.000000	0.814193
619.000000	0.814868
620.000000	0.815401
621.000000	0.815925
622.000000	0.816468
623.000000	0.816986
624.000000	0.817418
625.000000	0.817710
626.000000	0.818001
627.000000	0.818384
628.000000	0.818893
629.000000	0.819458
630.000000	0.819800
631.000000	0.820330
632.000000	0.820795
633.000000	0.821168
634.000000	0.821414
635.000000	0.821507
636.000000	0.821557
637.000000	0.821563
638.000000	0.821449
639.000000	0.821350
640.000000	0.821388
641.000000	0.821216
642.000000	0.821146
643.000000	0.821195
644.000000	0.821295
645.000000	0.821387
646.000000	0.821529
647.000000	0.821675
648.000000	0.821753
649.000000	0.821923
650.000000	0.822172
651.000000	0.822442
652.000000	0.822605
653.000000	0.822798
654.000000	0.823034
655.000000	0.823288
656.000000	0.823581
657.000000	0.823777
658.000000	0.823939
659.000000	0.824176
660.000000	0.824436
661.000000	0.824511
662.000000	0.824610
663.000000	0.824845
664.000000	0.824983
665.000000	0.825150
666.000000	0.825331
667.000000	0.825423
668.000000	0.825592
669.000000	0.825801
670.000000	0.826014
671.000000	0.826151
672.000000	0.826302
673.000000	0.826488
674.000000	0.826739
675.000000	0.826908
676.000000	0.827029
677.000000	0.827218
678.000000	0.827362
679.000000	0.827479
680.000000	0.827613
681.000000	0.827719
682.000000	0.827919
683.000000	0.828043
684.000000	0.828254
685.000000	0.828412
686.000000	0.828586
687.000000	0.828751
688.000000	0.828861
689.000000	0.828957
690.000000	0.829162
691.000000	0.829413
692.000000	0.829580
693.000000	0.829807
694.000000	0.830062
695.000000	0.830366
696.000000	0.830592
697.000000	0.830592
698.000000	0.830662
699.000000	0.830807
700.000000	0.830979
701.000000	0.831010
702.000000	0.831128
703.000000	0.831316
704.000000	0.831365
705.000000	0.831537
706.000000	0.831702
707.000000	0.831834
708.000000	0.831977
709.000000	0.832122
710.000000	0.832293
711.000000	0.832383
712.000000	0.832476
713.000000	0.832648
714.000000	0.832796
715.000000	0.832899
716.000000	0.833013
717.000000	0.833154
718.000000	0.833301
719.000000	0.833380
720.000000	0.833392
721.000000	0.833439
722.000000	0.833402
723.000000	0.833390
724.000000	0.833321
725.000000	0.833109
726.000000	0.833023
727.000000	0.833023
728.000000	0.833131
729.000000	0.833327
730.000000	0.833452
731.000000	0.833666
732.000000	0.833787
733.000000	0.833862
734.000000	0.833908
735.000000	0.833828
736.000000	0.833996
737.000000	0.834218
738.000000	0.834123
739.000000	0.834166
740.000000	0.834263
741.000000	0.834519
742.000000	0.834801
743.000000	0.834967
744.000000	0.835088
745.000000	0.835202
746.000000	0.835424
747.000000	0.835592
748.000000	0.835769
749.000000	0.835950
750.000000	0.836038
751.000000	0.836080
752.000000	0.836148
753.000000	0.836317
754.000000	0.836601
755.000000	0.836826
756.000000	0.836977
757.000000	0.836977
758.000000	0.837030
759.000000	0.837161
760.000000	0.837216
761.000000	0.837486
762.000000	0.837688
763.000000	0.837760
764.000000	0.837981
765.000000	0.838215
766.000000	0.838438
767.000000	0.838616
768.000000	0.838676
769.000000	0.838648
770.000000	0.838625
771.000000	0.838757
772.000000	0.838964
773.000000	0.839065
774.000000	0.839203
775.000000	0.839274
776.000000	0.839333
777.000000	0.839400
778.000000	0.839530
779.000000	0.839722
780.000000	0.839950
781.000000	0.840099
782.000000	0.840240
783.000000	0.840493
784.000000	0.840515
785.000000	0.840641
786.000000	0.840763
787.000000	0.840806
788.000000	0.840872
789.000000	0.840943
790.000000	0.840949
791.000000	0.840930
792.000000	0.840938
793.000000	0.841008
794.000000	0.841155
795.000000	0.841286
796.000000	0.841386
797.000000	0.841401
798.000000	0.841266
799.000000	0.841187
800.000000	0.841204
801.000000	0.841294
802.000000	0.841340
803.000000	0.841384
804.000000	0.841521
805.000000	0.841546
806.000000	0.841584
807.000000	0.841817
808.000000	0.842019
809.000000	0.842178
810.000000	0.842333
811.000000	0.842467
812.000000	0.842540
813.000000	0.842602
814.000000	0.842648
815.000000	0.842686
816.000000	0.842593
817.000000	0.842491
818.000000	0.842323
819.000000	0.842363
820.000000	0.842506
821.000000	0.842552
822.000000	0.842605
823.000000	0.842636
824.000000	0.842505
825.000000	0.842397
826.000000	0.842398
827.000000	0.842276
828.000000	0.842101
829.000000	0.842228
830.000000	0.842304
831.000000	0.842361
832.000000	0.842171
833.000000	0.841990
834.000000	0.841892
835.000000	0.841935
836.000000	0.841835
837.000000	0.841716
838.000000	0.841649
839.000000	0.841541
840.000000	0.841509
841.000000	0.841667
842.000000	0.841906
843.000000	0.841867
844.000000	0.841894
845.000000	0.842011
846.000000	0.842100
847.000000	0.842233
848.000000	0.842346
849.000000	0.842445
850.000000	0.842466
851.000000	0.842397
852.000000	0.842360
853.000000	0.842347
854.000000	0.842204
855.000000	0.842273
856.000000	0.842444
857.000000	0.842447
858.000000	0.842625
859.000000	0.842877
860.000000	0.843000
861.000000	0.843170
862.000000	0.843379
863.000000	0.843355
864.000000	0.843293
865.000000	0.843335
866.000000	0.843515
867.000000	0.843441
868.000000	0.843378
869.000000	0.843255
870.000000	0.843209
871.000000	0.843249
872.000000	0.843184
873.000000	0.842838
874.000000	0.842703
875.000000	0.842496
876.000000	0.842436
877.000000	0.842671
878.000000	0.842750
879.000000	0.842807
880.000000	0.842614
881.000000	0.842527
882.000000	0.842548
883.000000	0.842728
884.000000	0.842883
885.000000	0.842780
886.000000	0.842622
887.000000	0.842608
888.000000	0.842602
889.000000	0.842576
890.000000	0.842294
891.000000	0.842133
892.000000	0.842179
893.000000	0.842287
894.000000	0.842576
895.000000	0.842500
896.000000	0.842458
897.000000	0.842608
898.000000	0.842945
899.000000	0.843028
900.000000	0.843043
901.000000	0.843021
902.000000	0.843103
903.000000	0.843102
904.000000	0.843132
905.000000	0.843068
906.000000	0.843079
907.000000	0.843023
908.000000	0.843051
909.000000	0.843136
910.000000	0.843210
911.000000	0.843227
912.000000	0.843191
913.000000	0.842992
914.000000	0.842815
915.000000	0.842869
916.000000	0.842876
917.000000	0.842651
918.000000	0.842566
919.000000	0.842772
920.000000	0.842860
921.000000	0.842790
922.000000	0.842616
923.000000	0.842376
924.000000	0.842099
925.000000	0.841877
926.000000	0.841781
927.000000	0.841506
928.000000	0.841268
929.000000	0.841026
930.000000	0.840701
931.000000	0.840429
932.000000	0.840163
933.000000	0.839940
934.000000	0.839588
935.000000	0.839019
936.000000	0.838425
937.000000	0.837685
938.000000	0.836817
939.000000	0.836015
940.000000	0.834832
941.000000	0.832905
942.000000	0.830051
943.000000	0.826678
944.000000	0.822802
945.000000	0.818717
946.000000	0.815230
947.000000	0.813199
948.000000	0.812972
949.000000	0.813868
950.000000	0.815853
951.000000	0.818384
952.000000	0.820766
953.000000	0.822565
954.000000	0.823495
955.000000	0.823404
956.000000	0.823026
957.000000	0.822440
958.000000	0.821831
959.000000	0.821681
960.000000	0.821609
961.000000	0.821782
962.000000	0.822165
963.000000	0.822623
964.000000	0.823081
965.000000	0.823574
966.000000	0.823839
967.000000	0.824073
968.000000	0.824509
969.000000	0.825037
970.000000	0.825694
971.000000	0.826051
972.000000	0.826458
973.000000	0.826872
974.000000	0.827229
975.000000	0.827495
976.000000	0.827931
977.000000	0.828605
978.000000	0.828934
979.000000	0.829738
980.000000	0.830257
981.000000	0.830577
982.000000	0.831125
983.000000	0.831447
984.000000	0.831725
985.000000	0.832388
986.000000	0.832999
987.000000	0.833641
988.000000	0.834076
989.000000	0.834313
990.000000	0.834883
991.000000	0.835439
992.000000	0.835683
993.000000	0.836455
994.000000	0.836837
995.000000	0.837145
996.000000	0.837479
997.000000	0.838031
998.000000	0.838600
999.000000	0.839185
1000.000000	0.839437
1001.000000	0.838750
1002.000000	0.839246
1003.000000	0.839224
1004.000000	0.839336
1005.000000	0.839068
1006.000000	0.838844
1007.000000	0.838581
1008.000000	0.839095
1009.000000	0.839746
1010.000000	0.839406
1011.000000	0.839793
1012.000000	0.840736
1013.000000	0.840478
1014.000000	0.840308
1015.000000	0.840403
1016.000000	0.840669
1017.000000	0.841260
1018.000000	0.842186
1019.000000	0.842764
1020.000000	0.843661
1021.000000	0.843400
1022.000000	0.842843
1023.000000	0.843266
1024.000000	0.843239
1025.000000	0.844137
1026.000000	0.845124
1027.000000	0.844774
1028.000000	0.844573
1029.000000	0.844954
1030.000000	0.844935
1031.000000	0.845533
1032.000000	0.846225
1033.000000	0.845744
1034.000000	0.845853
1035.000000	0.846039
1036.000000	0.846289
1037.000000	0.846976
1038.000000	0.847065
1039.000000	0.847043
1040.000000	0.847344
1041.000000	0.847226
1042.000000	0.847023
1043.000000	0.847815
1044.000000	0.848284
1045.000000	0.848353
1046.000000	0.848666
1047.000000	0.849008
1048.000000	0.848975
1049.000000	0.848914
1050.000000	0.849114
1051.000000	0.849127
1052.000000	0.848535
1053.000000	0.848338
1054.000000	0.849012
1055.000000	0.849405
1056.000000	0.849935
1057.000000	0.850264
1058.000000	0.850286
1059.000000	0.849873
1060.000000	0.849685
1061.000000	0.849852
1062.000000	0.849945
1063.000000	0.850360
1064.000000	0.850841
1065.000000	0.851373
1066.000000	0.851700
1067.000000	0.852224
1068.000000	0.852186
1069.000000	0.851358
1070.000000	0.851075
1071.000000	0.850950
1072.000000	0.850818
1073.000000	0.850935
1074.000000	0.851339
1075.000000	0.851416
1076.000000	0.851213
1077.000000	0.851235
1078.000000	0.851081
1079.000000	0.850919
1080.000000	0.850862
1081.000000	0.850701
1082.000000	0.850595
1083.000000	0.850534
1084.000000	0.850632
1085.000000	0.850652
1086.000000	0.850592
1087.000000	0.850607
1088.000000	0.850255
1089.000000	0.850111
1090.000000	0.850028
1091.000000	0.849952
1092.000000	0.849890
1093.000000	0.850262
1094.000000	0.850091
1095.000000	0.849357
1096.000000	0.849383
1097.000000	0.849604
1098.000000	0.849639
1099.000000	0.849869
1100.000000	0.850094
1101.000000	0.850113
1102.000000	0.849869
1103.000000	0.849403
1104.000000	0.849323
1105.000000	0.848989
1106.000000	0.848875
1107.000000	0.849420
1108.000000	0.849372
1109.000000	0.849135
1110.000000	0.848700
1111.000000	0.848421
1112.000000	0.848042
1113.000000	0.847735
1114.000000	0.847531
1115.000000	0.847317
1116.000000	0.847144
1117.000000	0.846806
1118.000000	0.846398
1119.000000	0.845915
1120.000000	0.845316
1121.000000	0.844695
1122.000000	0.844254
1123.000000	0.844273
1124.000000	0.843991
1125.000000	0.843542
1126.000000	0.843016
1127.000000	0.842264
1128.000000	0.841302
1129.000000	0.840026
1130.000000	0.839045
1131.000000	0.838274
1132.000000	0.837006
1133.000000	0.835774
1134.000000	0.834421
1135.000000	0.832669
1136.000000	0.830896
1137.000000	0.829274
1138.000000	0.827149
1139.000000	0.824715
1140.000000	0.822680
1141.000000	0.820391
1142.000000	0.818286
1143.000000	0.816290
1144.000000	0.814526
1145.000000	0.812387
1146.000000	0.810149
1147.000000	0.808303
1148.000000	0.806222
1149.000000	0.804810
1150.000000	0.803849
1151.000000	0.803000
1152.000000	0.802267
1153.000000	0.801807
1154.000000	0.801421
1155.000000	0.801213
1156.000000	0.801343
1157.000000	0.801473
1158.000000	0.801473
1159.000000	0.801757
1160.000000	0.802121
1161.000000	0.802655
1162.000000	0.803591
1163.000000	0.804908
1164.000000	0.805700
1165.000000	0.806392
1166.000000	0.807251
1167.000000	0.807878
1168.000000	0.808495
1169.000000	0.809402
1170.000000	0.810083
1171.000000	0.810596
1172.000000	0.811275
1173.000000	0.812004
1174.000000	0.812529
1175.000000	0.812950
1176.000000	0.813180
1177.000000	0.813438
1178.000000	0.813612
1179.000000	0.813547
1180.000000	0.813503
1181.000000	0.813615
1182.000000	0.813687
1183.000000	0.814080
1184.000000	0.814451
1185.000000	0.814614
1186.000000	0.814735
1187.000000	0.814756
1188.000000	0.814536
1189.000000	0.814438
1190.000000	0.814518
1191.000000	0.814494
1192.000000	0.814628
1193.000000	0.815000
1194.000000	0.815173
1195.000000	0.815347
1196.000000	0.815449
1197.000000	0.815593
1198.000000	0.815718
1199.000000	0.815931
1200.000000	0.816208
1201.000000	0.816534
1202.000000	0.816829
1203.000000	0.817045
1204.000000	0.817201
1205.000000	0.817522
1206.000000	0.817622
1207.000000	0.817860
1208.000000	0.817944
1209.000000	0.818011
1210.000000	0.818180
1211.000000	0.818429
1212.000000	0.818563
1213.000000	0.818755
1214.000000	0.819019
1215.000000	0.819253
1216.000000	0.819400
1217.000000	0.819533
1218.000000	0.819587
1219.000000	0.819519
1220.000000	0.819572
1221.000000	0.819797
1222.000000	0.820054
1223.000000	0.820310
1224.000000	0.820509
1225.000000	0.820611
1226.000000	0.820666
1227.000000	0.820601
1228.000000	0.820717
1229.000000	0.820674
1230.000000	0.820456
1231.000000	0.820312
1232.000000	0.820489
1233.000000	0.820739
1234.000000	0.821063
1235.000000	0.821180
1236.000000	0.820983
1237.000000	0.821041
1238.000000	0.820992
1239.000000	0.820926
1240.000000	0.820985
1241.000000	0.820922
1242.000000	0.820721
1243.000000	0.820686
1244.000000	0.820722
1245.000000	0.820935
1246.000000	0.821106
1247.000000	0.821316
1248.000000	0.821509
1249.000000	0.821606
1250.000000	0.821559
1251.000000	0.821504
1252.000000	0.821479
1253.000000	0.821521
1254.000000	0.821449
1255.000000	0.821372
1256.000000	0.821284
1257.000000	0.821163
1258.000000	0.821126
1259.000000	0.821024
1260.000000	0.820963
1261.000000	0.820776
1262.000000	0.820498
1263.000000	0.820271
1264.000000	0.819853
1265.000000	0.819425
1266.000000	0.818935
1267.000000	0.818315
1268.000000	0.817620
1269.000000	0.816666
1270.000000	0.815892
1271.000000	0.815212
1272.000000	0.814659
1273.000000	0.814338
1274.000000	0.814001
1275.000000	0.813676
1276.000000	0.813447
1277.000000	0.813423
1278.000000	0.813247
1279.000000	0.813141
1280.000000	0.813013
1281.000000	0.812869
1282.000000	0.812878
1283.000000	0.813059
1284.000000	0.813292
1285.000000	0.813326
1286.000000	0.813297
1287.000000	0.813083
1288.000000	0.812892
1289.000000	0.812394
1290.000000	0.811686
1291.000000	0.811057
1292.000000	0.810374
1293.000000	0.809686
1294.000000	0.809057
1295.000000	0.808592
1296.000000	0.808010
1297.000000	0.807406
1298.000000	0.807010
1299.000000	0.806449
1300.000000	0.806051
1301.000000	0.805679
1302.000000	0.805124
1303.000000	0.804866
1304.000000	0.804342
1305.000000	0.803881
1306.000000	0.803247
1307.000000	0.802599
1308.000000	0.801947
1309.000000	0.801203
1310.000000	0.800390
1311.000000	0.799640
1312.000000	0.798631
1313.000000	0.797593
1314.000000	0.796483
1315.000000	0.795305
1316.000000	0.794296
1317.000000	0.793167
1318.000000	0.791930
1319.000000	0.790528
1320.000000	0.789061
1321.000000	0.787505
1322.000000	0.785942
1323.000000	0.784496
1324.000000	0.783093
1325.000000	0.781528
1326.000000	0.779788
1327.000000	0.778008
1328.000000	0.776367
1329.000000	0.774560
1330.000000	0.772749
1331.000000	0.770982
1332.000000	0.769313
1333.000000	0.767577
1334.000000	0.765961
1335.000000	0.764417
1336.000000	0.762857
1337.000000	0.761260
1338.000000	0.759556
1339.000000	0.757949
1340.000000	0.756327
1341.000000	0.754717
1342.000000	0.753198
1343.000000	0.751739
1344.000000	0.750279
1345.000000	0.748738
1346.000000	0.747455
1347.000000	0.745987
1348.000000	0.744580
1349.000000	0.743287
1350.000000	0.741938
1351.000000	0.740548
1352.000000	0.739218
1353.000000	0.737817
1354.000000	0.736454
1355.000000	0.734928
1356.000000	0.733503
1357.000000	0.731974
1358.000000	0.730282
1359.000000	0.728657
1360.000000	0.726790
1361.000000	0.724762
1362.000000	0.722663
1363.000000	0.720456
1364.000000	0.718077
1365.000000	0.715664
1366.000000	0.712889
1367.000000	0.709868
1368.000000	0.706478
1369.000000	0.702966
1370.000000	0.698780
1371.000000	0.694067
1372.000000	0.688786
1373.000000	0.682783
1374.000000	0.676157
1375.000000	0.668501
1376.000000	0.659706
1377.000000	0.649537
1378.000000	0.637407
1379.000000	0.623836
1380.000000	0.608768
1381.000000	0.591745
1382.000000	0.574033
1383.000000	0.555682
1384.000000	0.536828
1385.000000	0.518869
1386.000000	0.502131
1387.000000	0.487329
1388.000000	0.475050
1389.000000	0.465510
1390.000000	0.458885
1391.000000	0.454790
1392.000000	0.453072
1393.000000	0.452769
1394.000000	0.455433
1395.000000	0.457399
1396.000000	0.460960
1397.000000	0.463019
1398.000000	0.465063
1399.000000	0.465926
1400.000000	0.466037
1401.000000	0.465252
1402.000000	0.463698
1403.000000	0.461331
1404.000000	0.458580
1405.000000	0.455565
1406.000000	0.452548
1407.000000	0.449809
1408.000000	0.447250
1409.000000	0.445145
1410.000000	0.443556
1411.000000	0.442266
1412.000000	0.441324
1413.000000	0.440809
1414.000000	0.440670
1415.000000	0.440890
1416.000000	0.441455
1417.000000	0.442341
1418.000000	0.443402
1419.000000	0.444848
1420.000000	0.446400
1421.000000	0.448195
1422.000000	0.450183
1423.000000	0.452162
1424.000000	0.454079
1425.000000	0.456156
1426.000000	0.458213
1427.000000	0.460393
1428.000000	0.462657
1429.000000	0.464759
1430.000000	0.466864
1431.000000	0.468923
1432.000000	0.470922
1433.000000	0.472966
1434.000000	0.474973
1435.000000	0.477094
1436.000000	0.479025
1437.000000	0.480896
1438.000000	0.482586
1439.000000	0.484163
1440.000000	0.485675
1441.000000	0.487155
1442.000000	0.488544
1443.000000	0.489730
1444.000000	0.490897
1445.000000	0.491988
1446.000000	0.492908
1447.000000	0.493707
1448.000000	0.494380
1449.000000	0.494946
1450.000000	0.495398
1451.000000	0.495807
1452.000000	0.496104
1453.000000	0.496275
1454.000000	0.496323
1455.000000	0.496362
1456.000000	0.496515
1457.000000	0.496702
1458.000000	0.496952
1459.000000	0.497308
1460.000000	0.497722
1461.000000	0.498179
1462.000000	0.498850
1463.000000	0.499623
1464.000000	0.500554
1465.000000	0.501817
1466.000000	0.503123
1467.000000	0.504586
1468.000000	0.506316
1469.000000	0.508133
1470.000000	0.509973
1471.000000	0.512030
1472.000000	0.514041
1473.000000	0.516152
1474.000000	0.518348
1475.000000	0.520575
1476.000000	0.522870
1477.000000	0.525141
1478.000000	0.527358
1479.000000	0.529543
1480.000000	0.531674
1481.000000	0.533791
1482.000000	0.535996
1483.000000	0.538204
1484.000000	0.540425
1485.000000	0.542570
1486.000000	0.544693
1487.000000	0.546749
1488.000000	0.548755
1489.000000	0.550752
1490.000000	0.552465
1491.000000	0.554351
1492.000000	0.556199
1493.000000	0.558088
1494.000000	0.559977
1495.000000	0.561824
1496.000000	0.563655
1497.000000	0.565459
1498.000000	0.567253
1499.000000	0.569101
1500.000000	0.570899
1501.000000	0.572627
1502.000000	0.574386
1503.000000	0.576156
1504.000000	0.577891
1505.000000	0.579593
1506.000000	0.581275
1507.000000	0.582867
1508.000000	0.584519
1509.000000	0.586176
1510.000000	0.587681
1511.000000	0.589226
1512.000000	0.590726
1513.000000	0.592160
1514.000000	0.593727
1515.000000	0.595211
1516.000000	0.596686
1517.000000	0.598117
1518.000000	0.599455
1519.000000	0.600725
1520.000000	0.602041
1521.000000	0.603290
1522.000000	0.604703
1523.000000	0.606236
1524.000000	0.607636
1525.000000	0.609101
1526.000000	0.610416
1527.000000	0.611616
1528.000000	0.612933
1529.000000	0.614165
1530.000000	0.615217
1531.000000	0.616493
1532.000000	0.617747
1533.000000	0.618893
1534.000000	0.620173
1535.000000	0.621361
1536.000000	0.622436
1537.000000	0.623679
1538.000000	0.624906
1539.000000	0.626050
1540.000000	0.627248
1541.000000	0.628476
1542.000000	0.629673
1543.000000	0.630910
1544.000000	0.632125
1545.000000	0.633390
1546.000000	0.634699
1547.000000	0.635888
1548.000000	0.637036
1549.000000	0.638130
1550.000000	0.639078
1551.000000	0.640099
1552.000000	0.641213
1553.000000	0.642229
1554.000000	0.643228
1555.000000	0.644232
1556.000000	0.645198
1557.000000	0.646111
1558.000000	0.647059
1559.000000	0.647952
1560.000000	0.648753
1561.000000	0.649579
1562.000000	0.650281
1563.000000	0.650946
1564.000000	0.651652
1565.000000	0.652300
1566.000000	0.652885
1567.000000	0.653668
1568.000000	0.654345
1569.000000	0.655126
1570.000000	0.655802
1571.000000	0.656353
1572.000000	0.656948
1573.000000	0.657534
1574.000000	0.658099
1575.000000	0.658755
1576.000000	0.659383
1577.000000	0.659883
1578.000000	0.660433
1579.000000	0.661151
1580.000000	0.661738
1581.000000	0.662453
1582.000000	0.663085
1583.000000	0.663582
1584.000000	0.664076
1585.000000	0.664714
1586.000000	0.665328
1587.000000	0.665931
1588.000000	0.666512
1589.000000	0.667123
1590.000000	0.667707
1591.000000	0.668293
1592.000000	0.668899
1593.000000	0.669581
1594.000000	0.670141
1595.000000	0.670821
1596.000000	0.671354
1597.000000	0.671820
1598.000000	0.672261
1599.000000	0.672628
1600.000000	0.672993
1601.000000	0.673528
1602.000000	0.673949
1603.000000	0.674395
1604.000000	0.674811
1605.000000	0.675235
1606.000000	0.675579
1607.000000	0.676019
1608.000000	0.676334
1609.000000	0.676660
1610.000000	0.676902
1611.000000	0.677075
1612.000000	0.677288
1613.000000	0.677661
1614.000000	0.677947
1615.000000	0.678366
1616.000000	0.678804
1617.000000	0.679140
1618.000000	0.679438
1619.000000	0.679671
1620.000000	0.679976
1621.000000	0.680331
1622.000000	0.680771
1623.000000	0.681253
1624.000000	0.681642
1625.000000	0.681717
1626.000000	0.681823
1627.000000	0.681899
1628.000000	0.682162
1629.000000	0.682462
1630.000000	0.682791
1631.000000	0.683125
1632.000000	0.683337
1633.000000	0.683510
1634.000000	0.683729
1635.000000	0.684004
1636.000000	0.684222
1637.000000	0.684499
1638.000000	0.684641
1639.000000	0.684835
1640.000000	0.684955
1641.000000	0.685115
1642.000000	0.685262
1643.000000	0.685437
1644.000000	0.685583
1645.000000	0.685702
1646.000000	0.685764
1647.000000	0.685889
1648.000000	0.685926
1649.000000	0.686095
1650.000000	0.686267
1651.000000	0.686476
1652.000000	0.686718
1653.000000	0.686906
1654.000000	0.687117
1655.000000	0.687226
1656.000000	0.687155
1657.000000	0.687128
1658.000000	0.687160
1659.000000	0.687363
1660.000000	0.687566
1661.000000	0.687646
1662.000000	0.687801
1663.000000	0.687878
1664.000000	0.688027
1665.000000	0.688300
1666.000000	0.688581
1667.000000	0.688702
1668.000000	0.688783
1669.000000	0.688759
1670.000000	0.688769
1671.000000	0.688955
1672.000000	0.689182
1673.000000	0.689442
1674.000000	0.689650
1675.000000	0.689856
1676.000000	0.689941
1677.000000	0.689863
1678.000000	0.689656
1679.000000	0.689497
1680.000000	0.689301
1681.000000	0.689235
1682.000000	0.689274
1683.000000	0.689291
1684.000000	0.689249
1685.000000	0.689202
1686.000000	0.689067
1687.000000	0.688970
1688.000000	0.688832
1689.000000	0.688702
1690.000000	0.688495
1691.000000	0.688332
1692.000000	0.688013
1693.000000	0.687727
1694.000000	0.687457
1695.000000	0.687200
1696.000000	0.687078
1697.000000	0.686769
1698.000000	0.686457
1699.000000	0.686265
1700.000000	0.686045
1701.000000	0.686008
1702.000000	0.685725
1703.000000	0.685459
1704.000000	0.685451
1705.000000	0.685327
1706.000000	0.685302
1707.000000	0.685219
1708.000000	0.684957
1709.000000	0.684639
1710.000000	0.684523
1711.000000	0.684346
1712.000000	0.684167
1713.000000	0.683920
1714.000000	0.683726
1715.000000	0.683469
1716.000000	0.683185
1717.000000	0.682852
1718.000000	0.682349
1719.000000	0.681917
1720.000000	0.681619
1721.000000	0.681224
1722.000000	0.680861
1723.000000	0.680439
1724.000000	0.679989
1725.000000	0.679550
1726.000000	0.678889
1727.000000	0.678352
1728.000000	0.677717
1729.000000	0.676999
1730.000000	0.676577
1731.000000	0.676030
1732.000000	0.675421
1733.000000	0.674944
1734.000000	0.674222
1735.000000	0.673615
1736.000000	0.672997
1737.000000	0.672348
1738.000000	0.671716
1739.000000	0.671181
1740.000000	0.670668
1741.000000	0.670006
1742.000000	0.669388
1743.000000	0.668837
1744.000000	0.668143
1745.000000	0.667452
1746.000000	0.666851
1747.000000	0.666073
1748.000000	0.665238
1749.000000	0.664494
1750.000000	0.663630
1751.000000	0.662942
1752.000000	0.662348
1753.000000	0.661409
1754.000000	0.660594
1755.000000	0.659730
1756.000000	0.658870
1757.000000	0.658117
1758.000000	0.657311
1759.000000	0.656418
1760.000000	0.655547
1761.000000	0.654538
1762.000000	0.653616
1763.000000	0.652833
1764.000000	0.651958
1765.000000	0.650968
1766.000000	0.650105
1767.000000	0.649011
1768.000000	0.648090
1769.000000	0.647567
1770.000000	0.646966
1771.000000	0.646321
1772.000000	0.645678
1773.000000	0.644877
1774.000000	0.644259
1775.000000	0.643880
1776.000000	0.643380
1777.000000	0.642855
1778.000000	0.642285
1779.000000	0.641562
1780.000000	0.641063
1781.000000	0.640595
1782.000000	0.640123
1783.000000	0.639827
1784.000000	0.639586
1785.000000	0.639103
1786.000000	0.638814
1787.000000	0.638754
1788.000000	0.638532
1789.000000	0.638254
1790.000000	0.637837
1791.000000	0.637436
1792.000000	0.637260
1793.000000	0.636987
1794.000000	0.636806
1795.000000	0.636555
1796.000000	0.636086
1797.000000	0.635735
1798.000000	0.635386
1799.000000	0.635068
1800.000000	0.634939
1801.000000	0.634720
1802.000000	0.634942
1803.000000	0.635731
1804.000000	0.635867
1805.000000	0.635990
1806.000000	0.636166
1807.000000	0.636106
1808.000000	0.635889
1809.000000	0.635546
1810.000000	0.635560
1811.000000	0.635359
1812.000000	0.634811
1813.000000	0.634603
1814.000000	0.635003
1815.000000	0.634671
1816.000000	0.633767
1817.000000	0.633095
1818.000000	0.632328
1819.000000	0.631956
1820.000000	0.631630
1821.000000	0.630982
1822.000000	0.630447
1823.000000	0.629583
1824.000000	0.628702
1825.000000	0.627704
1826.000000	0.627023
1827.000000	0.625919
1828.000000	0.625225
1829.000000	0.624738
1830.000000	0.624605
1831.000000	0.624166
1832.000000	0.623562
1833.000000	0.623011
1834.000000	0.622590
1835.000000	0.621840
1836.000000	0.621096
1837.000000	0.619958
1838.000000	0.618153
1839.000000	0.616123
1840.000000	0.614340
1841.000000	0.613065
1842.000000	0.611850
1843.000000	0.611191
1844.000000	0.610180
1845.000000	0.608905
1846.000000	0.607735
1847.000000	0.606483
1848.000000	0.604852
1849.000000	0.603240
1850.000000	0.600916
1851.000000	0.598878
1852.000000	0.596676
1853.000000	0.594318
1854.000000	0.591756
1855.000000	0.588849
1856.000000	0.585271
1857.000000	0.581845
1858.000000	0.578582
1859.000000	0.575042
1860.000000	0.571315
1861.000000	0.567029
1862.000000	0.562230
1863.000000	0.556736
1864.000000	0.551446
1865.000000	0.546127
1866.000000	0.540247
1867.000000	0.534263
1868.000000	0.527548
1869.000000	0.519915
1870.000000	0.511666
1871.000000	0.503191
1872.000000	0.494894
1873.000000	0.486263
1874.000000	0.477918
1875.000000	0.468545
1876.000000	0.458469
1877.000000	0.447316
1878.000000	0.435804
1879.000000	0.424148
1880.000000	0.412205
1881.000000	0.400410
1882.000000	0.388600
1883.000000	0.376426
1884.000000	0.364152
1885.000000	0.351407
1886.000000	0.338517
1887.000000	0.325114
1888.000000	0.311982
1889.000000	0.298706
1890.000000	0.286078
1891.000000	0.274502
1892.000000	0.263301
1893.000000	0.252630
1894.000000	0.242830
1895.000000	0.233443
1896.000000	0.224708
1897.000000	0.216212
1898.000000	0.208314
1899.000000	0.201629
1900.000000	0.195622
1901.000000	0.190455
1902.000000	0.186467
1903.000000	0.183393
1904.000000	0.181372
1905.000000	0.179766
1906.000000	0.178734
1907.000000	0.178425
1908.000000	0.178892
1909.000000	0.179343
1910.000000	0.180502
1911.000000	0.182181
1912.000000	0.184071
1913.000000	0.186395
1914.000000	0.189157
1915.000000	0.192076
1916.000000	0.194810
1917.000000	0.197481
1918.000000	0.200262
1919.000000	0.202734
1920.000000	0.205473
1921.000000	0.208081
1922.000000	0.210120
1923.000000	0.212540
1924.000000	0.214503
1925.000000	0.216432
1926.000000	0.218902
1927.000000	0.221503
1928.000000	0.223788
1929.000000	0.226036
1930.000000	0.228153
1931.000000	0.230461
1932.000000	0.232290
1933.000000	0.234055
1934.000000	0.235603
1935.000000	0.236788
1936.000000	0.238712
1937.000000	0.240317
1938.000000	0.241709
1939.000000	0.243078
1940.000000	0.244410
1941.000000	0.244999
1942.000000	0.246124
1943.000000	0.247618
1944.000000	0.249059
1945.000000	0.250505
1946.000000	0.251909
1947.000000	0.253083
1948.000000	0.253952
1949.000000	0.254853
1950.000000	0.255680
1951.000000	0.256410
1952.000000	0.257086
1953.000000	0.257886
1954.000000	0.258831
1955.000000	0.259873
1956.000000	0.261050
1957.000000	0.262348
1958.000000	0.263673
1959.000000	0.265003
1960.000000	0.266471
1961.000000	0.267803
1962.000000	0.269076
1963.000000	0.270318
1964.000000	0.271731
1965.000000	0.272859
1966.000000	0.274228
1967.000000	0.276033
1968.000000	0.277738
1969.000000	0.279527
1970.000000	0.281235
1971.000000	0.282566
1972.000000	0.283670
1973.000000	0.284708
1974.000000	0.285568
1975.000000	0.286777
1976.000000	0.288034
1977.000000	0.289530
1978.000000	0.291273
1979.000000	0.292892
1980.000000	0.294867
1981.000000	0.296902
1982.000000	0.298937
1983.000000	0.301106
1984.000000	0.303076
1985.000000	0.305117
1986.000000	0.306788
1987.000000	0.308164
1988.000000	0.309861
1989.000000	0.311330
1990.000000	0.313177
1991.000000	0.315520
1992.000000	0.317508
1993.000000	0.319862
1994.000000	0.321973
1995.000000	0.323545
1996.000000	0.325384
1997.000000	0.327291
1998.000000	0.329288
1999.000000	0.331222
2000.000000	0.333275
2001.000000	0.335220
2002.000000	0.337189
2003.000000	0.339391
2004.000000	0.341741
2005.000000	0.343794
2006.000000	0.346001
2007.000000	0.347803
2008.000000	0.349827
2009.000000	0.352009
2010.000000	0.354254
2011.000000	0.356445
2012.000000	0.358382
2013.000000	0.360202
2014.000000	0.361727
2015.000000	0.363227
2016.000000	0.365384
2017.000000	0.367517
2018.000000	0.369632
2019.000000	0.371538
2020.000000	0.372760
2021.000000	0.374570
2022.000000	0.376560
2023.000000	0.378356
2024.000000	0.380497
2025.000000	0.382489
2026.000000	0.384140
2027.000000	0.385431
2028.000000	0.387136
2029.000000	0.388934
2030.000000	0.390581
2031.000000	0.392471
2032.000000	0.394608
2033.000000	0.396434
2034.000000	0.397999
2035.000000	0.399554
2036.000000	0.400873
2037.000000	0.401768
2038.000000	0.403210
2039.000000	0.405014
2040.000000	0.406798
2041.000000	0.408417
2042.000000	0.410133
2043.000000	0.411586
2044.000000	0.412625
2045.000000	0.413922
2046.000000	0.415112
2047.000000	0.416189
2048.000000	0.416912
2049.000000	0.418327
2050.000000	0.419581
2051.000000	0.420670
2052.000000	0.421943
2053.000000	0.422874
2054.000000	0.423638
2055.000000	0.424513
2056.000000	0.426100
2057.000000	0.427560
2058.000000	0.429192
2059.000000	0.430908
2060.000000	0.432262
2061.000000	0.433621
2062.000000	0.434425
2063.000000	0.434812
2064.000000	0.435110
2065.000000	0.434795
2066.000000	0.435164
2067.000000	0.436153
2068.000000	0.437535
2069.000000	0.438967
2070.000000	0.440643
2071.000000	0.441869
2072.000000	0.443154
2073.000000	0.444043
2074.000000	0.444797
2075.000000	0.445386
2076.000000	0.445449
2077.000000	0.445785
2078.000000	0.446222
2079.000000	0.446513
2080.000000	0.446699
2081.000000	0.447220
2082.000000	0.447952
2083.000000	0.448455
2084.000000	0.449124
2085.000000	0.449911
2086.000000	0.450301
2087.000000	0.450821
2088.000000	0.451144
2089.000000	0.451830
2090.000000	0.452729
2091.000000	0.453893
2092.000000	0.454943
2093.000000	0.456597
2094.000000	0.457562
2095.000000	0.458049
2096.000000	0.458896
2097.000000	0.459812
2098.000000	0.459989
2099.000000	0.460388
2100.000000	0.461352
2101.000000	0.461629
2102.000000	0.462048
2103.000000	0.462970
2104.000000	0.463678
2105.000000	0.464564
2106.000000	0.465735
2107.000000	0.466767
2108.000000	0.467722
2109.000000	0.468765
2110.000000	0.469641
2111.000000	0.470529
2112.000000	0.471584
2113.000000	0.471744
2114.000000	0.472113
2115.000000	0.472169
2116.000000	0.472183
2117.000000	0.472378
2118.000000	0.472792
2119.000000	0.473664
2120.000000	0.474413
2121.000000	0.475433
2122.000000	0.476200
2123.000000	0.476720
2124.000000	0.477508
2125.000000	0.478263
2126.000000	0.479145
2127.000000	0.480363
2128.000000	0.481621
2129.000000	0.482813
2130.000000	0.484164
2131.000000	0.485167
2132.000000	0.485871
2133.000000	0.486736
2134.000000	0.487733
2135.000000	0.488443
2136.000000	0.489244
2137.000000	0.489659
2138.000000	0.489411
2139.000000	0.489718
2140.000000	0.490013
2141.000000	0.490521
2142.000000	0.491612
2143.000000	0.491761
2144.000000	0.491946
2145.000000	0.492114
2146.000000	0.492094
2147.000000	0.491999
2148.000000	0.492001
2149.000000	0.492678
2150.000000	0.493144
2151.000000	0.494170
2152.000000	0.494665
2153.000000	0.494477
2154.000000	0.494718
2155.000000	0.494775
2156.000000	0.494689
2157.000000	0.494844
2158.000000	0.495005
2159.000000	0.494870
2160.000000	0.495207
2161.000000	0.496137
2162.000000	0.496727
2163.000000	0.497173
2164.000000	0.497236
2165.000000	0.496966
2166.000000	0.496590
2167.000000	0.496744
2168.000000	0.496317
2169.000000	0.496338
2170.000000	0.496717
2171.000000	0.496636
2172.000000	0.496360
2173.000000	0.496352
2174.000000	0.496198
2175.000000	0.496144
2176.000000	0.496315
2177.000000	0.496177
2178.000000	0.496038
2179.000000	0.496021
2180.000000	0.495671
2181.000000	0.495959
2182.000000	0.495797
2183.000000	0.495407
2184.000000	0.495651
2185.000000	0.495337
2186.000000	0.494439
2187.000000	0.494338
2188.000000	0.493223
2189.000000	0.491973
2190.000000	0.491478
2191.000000	0.491088
2192.000000	0.490700
2193.000000	0.490989
2194.000000	0.490468
2195.000000	0.489209
2196.000000	0.488743
2197.000000	0.488072
2198.000000	0.488125
2199.000000	0.489914
2200.000000	0.490359
2201.000000	0.491043
2202.000000	0.490428
2203.000000	0.487524
2204.000000	0.485424
2205.000000	0.482842
2206.000000	0.478819
2207.000000	0.476173
2208.000000	0.474516
2209.000000	0.473699
2210.000000	0.475241
2211.000000	0.476312
2212.000000	0.477088
2213.000000	0.476484
2214.000000	0.474305
2215.000000	0.472435
2216.000000	0.469623
2217.000000	0.467702
2218.000000	0.465713
2219.000000	0.464474
2220.000000	0.463497
2221.000000	0.463077
2222.000000	0.464410
2223.000000	0.463781
2224.000000	0.461748
2225.000000	0.462004
2226.000000	0.460238
2227.000000	0.457459
2228.000000	0.456616
2229.000000	0.453851
2230.000000	0.450556
2231.000000	0.448874
2232.000000	0.447785
2233.000000	0.447742
2234.000000	0.447617
2235.000000	0.446686
2236.000000	0.445525
2237.000000	0.442889
2238.000000	0.441915
2239.000000	0.441114
2240.000000	0.441352
2241.000000	0.443307
2242.000000	0.443887
2243.000000	0.445018
2244.000000	0.445371
2245.000000	0.444477
2246.000000	0.443816
2247.000000	0.441695
2248.000000	0.441466
2249.000000	0.442771
2250.000000	0.443226
2251.000000	0.443971
2252.000000	0.445003
2253.000000	0.442474
2254.000000	0.440342
2255.000000	0.440861
2256.000000	0.441125
2257.000000	0.442198
2258.000000	0.443286
2259.000000	0.441487
2260.000000	0.438987
2261.000000	0.436566
2262.000000	0.433301
2263.000000	0.430749
2264.000000	0.428279
2265.000000	0.426430
2266.000000	0.424884
2267.000000	0.423550
2268.000000	0.423363
2269.000000	0.421371
2270.000000	0.419474
2271.000000	0.416059
2272.000000	0.410415
2273.000000	0.406393
2274.000000	0.401671
2275.000000	0.397455
2276.000000	0.395160
2277.000000	0.390159
2278.000000	0.385065
2279.000000	0.381550
2280.000000	0.374862
2281.000000	0.369295
2282.000000	0.362957
2283.000000	0.354680
2284.000000	0.348053
2285.000000	0.340951
2286.000000	0.334878
2287.000000	0.330123
2288.000000	0.325880
2289.000000	0.322602
2290.000000	0.319009
2291.000000	0.316203
2292.000000	0.313763
2293.000000	0.311035
2294.000000	0.308995
2295.000000	0.308066
2296.000000	0.305850
2297.000000	0.303019
2298.000000	0.300750
2299.000000	0.298338
2300.000000	0.295611
2301.000000	0.293812
2302.000000	0.290602
2303.000000	0.286757
2304.000000	0.281670
2305.000000	0.274360
2306.000000	0.268609
2307.000000	0.262728
2308.000000	0.256471
2309.000000	0.252051
2310.000000	0.248856
2311.000000	0.245857
2312.000000	0.243368
2313.000000	0.241073
2314.000000	0.239823
2315.000000	0.238961
2316.000000	0.240993
2317.000000	0.245463
2318.000000	0.250138
2319.000000	0.257120
2320.000000	0.261761
2321.000000	0.265585
2322.000000	0.271132
2323.000000	0.275498
2324.000000	0.281647
2325.000000	0.288457
2326.000000	0.295392
2327.000000	0.302824
2328.000000	0.307846
2329.000000	0.312266
2330.000000	0.315748
2331.000000	0.317134
2332.000000	0.319482
2333.000000	0.322988
2334.000000	0.325465
2335.000000	0.327939
2336.000000	0.330670
2337.000000	0.331972
2338.000000	0.331604
2339.000000	0.331911
2340.000000	0.331850
2341.000000	0.331217
2342.000000	0.330421
2343.000000	0.329656
2344.000000	0.327453
2345.000000	0.327407
2346.000000	0.329177
2347.000000	0.329768
2348.000000	0.331399
2349.000000	0.331436
2350.000000	0.328835
2351.000000	0.327205
2352.000000	0.324278
2353.000000	0.322345
2354.000000	0.321600
2355.000000	0.320635
2356.000000	0.320332
2357.000000	0.319714
2358.000000	0.318420
2359.000000	0.316067
2360.000000	0.313860
2361.000000	0.311610
2362.000000	0.309157
2363.000000	0.308050
2364.000000	0.307241
2365.000000	0.307656
2366.000000	0.308581
2367.000000	0.308734
2368.000000	0.308463
2369.000000	0.305045
2370.000000	0.300059
2371.000000	0.295207
2372.000000	0.290025
2373.000000	0.287118
2374.000000	0.285468
2375.000000	0.283209
2376.000000	0.280115
2377.000000	0.278018
2378.000000	0.276810
2379.000000	0.276816
2380.000000	0.277357
2381.000000	0.274992
2382.000000	0.270184
2383.000000	0.265071
2384.000000	0.259488
2385.000000	0.253932
2386.000000	0.253974
2387.000000	0.253799
2388.000000	0.251332
2389.000000	0.251950
2390.000000	0.248520
2391.000000	0.244724
2392.000000	0.245843
2393.000000	0.247026
2394.000000	0.248651
2395.000000	0.251804
2396.000000	0.255107
2397.000000	0.257279
2398.000000	0.256876
2399.000000	0.254839
2400.000000	0.252228
2401.000000	0.248812
2402.000000	0.247778
2403.000000	0.253000
2404.000000	0.258125
2405.000000	0.260473
2406.000000	0.266089
2407.000000	0.265219
2408.000000	0.260557
2409.000000	0.259866
2410.000000	0.256216
2411.000000	0.254908
2412.000000	0.255340
2413.000000	0.257194
2414.000000	0.263126
2415.000000	0.266508
2416.000000	0.266121
2417.000000	0.264671
2418.000000	0.264475
2419.000000	0.263934
2420.000000	0.267606
2421.000000	0.267031
2422.000000	0.254125
2423.000000	0.245694
2424.000000	0.234530
2425.000000	0.225520
2426.000000	0.230824
2427.000000	0.231988
2428.000000	0.235662
2429.000000	0.241740
2430.000000	0.240634
2431.000000	0.243751
2432.000000	0.240432
2433.000000	0.233271
2434.000000	0.231872
2435.000000	0.226898
2436.000000	0.225979
2437.000000	0.225306
2438.000000	0.221048
2439.000000	0.214155
2440.000000	0.207022
2441.000000	0.213001
2442.000000	0.225896
2443.000000	0.235731
2444.000000	0.240026
2445.000000	0.235753
2446.000000	0.227830
2447.000000	0.222854
2448.000000	0.217087
2449.000000	0.212779
2450.000000	0.208626
2451.000000	0.200162
2452.000000	0.198152
2453.000000	0.194916
2454.000000	0.190697
2455.000000	0.190364
2456.000000	0.186356
2457.000000	0.188767
2458.000000	0.195298
2459.000000	0.203919
2460.000000	0.210780
2461.000000	0.203848
2462.000000	0.192124
2463.000000	0.177386
2464.000000	0.171981
2465.000000	0.177467
2466.000000	0.177951
2467.000000	0.181189
2468.000000	0.181866
2469.000000	0.183192
2470.000000	0.191671
2471.000000	0.192262
2472.000000	0.191330
2473.000000	0.196598
2474.000000	0.193908
2475.000000	0.186651
2476.000000	0.185418
2477.000000	0.177117
2478.000000	0.165401
2479.000000	0.174067
2480.000000	0.188682
2481.000000	0.203105
2482.000000	0.219354
2483.000000	0.217675
2484.000000	0.205682
2485.000000	0.180856
2486.000000	0.160276
2487.000000	0.175061
2488.000000	0.195036
2489.000000	0.218189
2490.000000	0.239152
2491.000000	0.221194
2492.000000	0.206451
2493.000000	0.191658
2494.000000	0.182350
2495.000000	0.166019
2496.000000	0.146552
2497.000000	0.119017
2498.000000	0.113392
2499.000000	0.133700
2500.000000	0.138564
