# Wavelength	SM1200H-80_FV7-20_00001.asd.rts.txt
350.000000	0.372653
351.000000	0.377600
352.000000	0.373587
353.000000	0.369391
354.000000	0.372155
355.000000	0.373175
356.000000	0.374722
357.000000	0.377630
358.000000	0.375473
359.000000	0.372872
360.000000	0.371912
361.000000	0.373053
362.000000	0.375537
363.000000	0.377472
364.000000	0.377309
365.000000	0.377373
366.000000	0.378004
367.000000	0.378947
368.000000	0.380458
369.000000	0.381379
370.000000	0.381537
371.000000	0.381306
372.000000	0.382357
373.000000	0.384229
374.000000	0.386435
375.000000	0.385648
376.000000	0.386031
377.000000	0.387670
378.000000	0.387177
379.000000	0.388111
380.000000	0.389253
381.000000	0.389520
382.000000	0.390187
383.000000	0.390259
384.000000	0.389808
385.000000	0.391061
386.000000	0.392314
387.000000	0.393059
388.000000	0.393380
389.000000	0.393478
390.000000	0.393928
391.000000	0.394873
392.000000	0.395943
393.000000	0.396622
394.000000	0.396827
395.000000	0.398013
396.000000	0.398489
397.000000	0.398009
398.000000	0.398492
399.000000	0.398654
400.000000	0.398865
401.000000	0.399837
402.000000	0.400369
403.000000	0.400457
404.000000	0.400599
405.000000	0.401064
406.000000	0.401828
407.000000	0.402727
408.000000	0.403152
409.000000	0.403246
410.000000	0.403313
411.000000	0.403718
412.000000	0.403950
413.000000	0.403974
414.000000	0.404007
415.000000	0.404819
416.000000	0.405647
417.000000	0.406012
418.000000	0.406184
419.000000	0.406331
420.000000	0.406608
421.000000	0.407164
422.000000	0.407772
423.000000	0.408171
424.000000	0.408314
425.000000	0.408819
426.000000	0.409245
427.000000	0.409304
428.000000	0.409694
429.000000	0.410154
430.000000	0.410527
431.000000	0.410716
432.000000	0.411172
433.000000	0.411707
434.000000	0.412015
435.000000	0.412139
436.000000	0.412259
437.000000	0.412489
438.000000	0.412696
439.000000	0.413022
440.000000	0.413553
441.000000	0.413655
442.000000	0.413772
443.000000	0.413963
444.000000	0.414324
445.000000	0.414611
446.000000	0.414897
447.000000	0.415061
448.000000	0.415336
449.000000	0.415723
450.000000	0.416175
451.000000	0.416527
452.000000	0.416767
453.000000	0.416883
454.000000	0.417257
455.000000	0.417542
456.000000	0.417876
457.000000	0.418267
458.000000	0.418577
459.000000	0.418856
460.000000	0.419231
461.000000	0.419551
462.000000	0.419895
463.000000	0.420059
464.000000	0.420174
465.000000	0.420360
466.000000	0.420591
467.000000	0.420967
468.000000	0.421264
469.000000	0.421363
470.000000	0.421488
471.000000	0.421770
472.000000	0.421922
473.000000	0.421888
474.000000	0.422115
475.000000	0.422282
476.000000	0.422495
477.000000	0.422728
478.000000	0.422794
479.000000	0.423039
480.000000	0.423408
481.000000	0.423556
482.000000	0.423811
483.000000	0.424126
484.000000	0.424490
485.000000	0.424645
486.000000	0.424801
487.000000	0.425030
488.000000	0.425252
489.000000	0.425515
490.000000	0.425915
491.000000	0.426177
492.000000	0.426420
493.000000	0.426623
494.000000	0.426835
495.000000	0.427175
496.000000	0.427599
497.000000	0.427904
498.000000	0.428121
499.000000	0.428404
500.000000	0.428753
501.000000	0.429087
502.000000	0.429438
503.000000	0.429742
504.000000	0.430099
505.000000	0.430438
506.000000	0.430697
507.000000	0.430939
508.000000	0.431267
509.000000	0.431632
510.000000	0.431902
511.000000	0.432220
512.000000	0.432615
513.000000	0.432930
514.000000	0.433221
515.000000	0.433551
516.000000	0.433871
517.000000	0.434156
518.000000	0.434496
519.000000	0.434814
520.000000	0.435115
521.000000	0.435400
522.000000	0.435685
523.000000	0.435983
524.000000	0.436289
525.000000	0.436572
526.000000	0.436867
527.000000	0.437142
528.000000	0.437384
529.000000	0.437669
530.000000	0.437965
531.000000	0.438293
532.000000	0.438528
533.000000	0.438716
534.000000	0.439001
535.000000	0.439378
536.000000	0.439765
537.000000	0.440078
538.000000	0.440337
539.000000	0.440592
540.000000	0.440848
541.000000	0.441125
542.000000	0.441470
543.000000	0.441727
544.000000	0.442006
545.000000	0.442251
546.000000	0.442478
547.000000	0.442734
548.000000	0.443068
549.000000	0.443376
550.000000	0.443744
551.000000	0.444142
552.000000	0.444433
553.000000	0.444712
554.000000	0.444990
555.000000	0.445279
556.000000	0.445600
557.000000	0.445835
558.000000	0.446129
559.000000	0.446372
560.000000	0.446634
561.000000	0.447027
562.000000	0.447439
563.000000	0.447788
564.000000	0.448142
565.000000	0.448421
566.000000	0.448720
567.000000	0.449038
568.000000	0.449337
569.000000	0.449633
570.000000	0.449913
571.000000	0.450171
572.000000	0.450454
573.000000	0.450727
574.000000	0.450965
575.000000	0.451242
576.000000	0.451564
577.000000	0.451868
578.000000	0.452193
579.000000	0.452471
580.000000	0.452764
581.000000	0.453073
582.000000	0.453308
583.000000	0.453545
584.000000	0.453804
585.000000	0.454087
586.000000	0.454339
587.000000	0.454555
588.000000	0.454759
589.000000	0.455072
590.000000	0.455359
591.000000	0.455556
592.000000	0.455813
593.000000	0.456059
594.000000	0.456285
595.000000	0.456558
596.000000	0.456799
597.000000	0.457066
598.000000	0.457309
599.000000	0.457487
600.000000	0.457709
601.000000	0.457926
602.000000	0.458074
603.000000	0.458193
604.000000	0.458333
605.000000	0.458497
606.000000	0.458701
607.000000	0.458924
608.000000	0.459117
609.000000	0.459338
610.000000	0.459545
611.000000	0.459687
612.000000	0.459837
613.000000	0.460013
614.000000	0.460237
615.000000	0.460320
616.000000	0.460378
617.000000	0.460415
618.000000	0.460491
619.000000	0.460562
620.000000	0.460597
621.000000	0.460661
622.000000	0.460696
623.000000	0.460762
624.000000	0.460897
625.000000	0.461013
626.000000	0.461112
627.000000	0.461211
628.000000	0.461329
629.000000	0.461512
630.000000	0.461588
631.000000	0.461709
632.000000	0.461845
633.000000	0.461995
634.000000	0.462134
635.000000	0.462251
636.000000	0.462385
637.000000	0.462532
638.000000	0.462687
639.000000	0.462827
640.000000	0.463005
641.000000	0.463083
642.000000	0.463178
643.000000	0.463320
644.000000	0.463506
645.000000	0.463626
646.000000	0.463771
647.000000	0.463954
648.000000	0.464067
649.000000	0.464167
650.000000	0.464260
651.000000	0.464385
652.000000	0.464513
653.000000	0.464677
654.000000	0.464803
655.000000	0.464906
656.000000	0.465021
657.000000	0.465108
658.000000	0.465281
659.000000	0.465465
660.000000	0.465601
661.000000	0.465756
662.000000	0.465838
663.000000	0.465921
664.000000	0.466016
665.000000	0.466146
666.000000	0.466292
667.000000	0.466389
668.000000	0.466535
669.000000	0.466645
670.000000	0.466697
671.000000	0.466792
672.000000	0.466935
673.000000	0.467077
674.000000	0.467153
675.000000	0.467265
676.000000	0.467414
677.000000	0.467583
678.000000	0.467671
679.000000	0.467744
680.000000	0.467870
681.000000	0.468011
682.000000	0.468166
683.000000	0.468239
684.000000	0.468391
685.000000	0.468543
686.000000	0.468701
687.000000	0.468815
688.000000	0.468908
689.000000	0.469003
690.000000	0.469153
691.000000	0.469283
692.000000	0.469373
693.000000	0.469509
694.000000	0.469628
695.000000	0.469777
696.000000	0.469939
697.000000	0.470079
698.000000	0.470188
699.000000	0.470301
700.000000	0.470456
701.000000	0.470635
702.000000	0.470823
703.000000	0.470951
704.000000	0.470936
705.000000	0.471017
706.000000	0.471130
707.000000	0.471230
708.000000	0.471387
709.000000	0.471536
710.000000	0.471642
711.000000	0.471709
712.000000	0.471800
713.000000	0.471948
714.000000	0.472051
715.000000	0.472149
716.000000	0.472276
717.000000	0.472415
718.000000	0.472493
719.000000	0.472523
720.000000	0.472563
721.000000	0.472673
722.000000	0.472784
723.000000	0.472933
724.000000	0.473009
725.000000	0.473033
726.000000	0.473114
727.000000	0.473145
728.000000	0.473205
729.000000	0.473300
730.000000	0.473340
731.000000	0.473359
732.000000	0.473381
733.000000	0.473456
734.000000	0.473484
735.000000	0.473465
736.000000	0.473576
737.000000	0.473666
738.000000	0.473720
739.000000	0.473856
740.000000	0.473905
741.000000	0.473986
742.000000	0.474137
743.000000	0.474282
744.000000	0.474357
745.000000	0.474329
746.000000	0.474318
747.000000	0.474332
748.000000	0.474383
749.000000	0.474478
750.000000	0.474552
751.000000	0.474575
752.000000	0.474536
753.000000	0.474502
754.000000	0.474570
755.000000	0.474727
756.000000	0.474928
757.000000	0.475048
758.000000	0.475073
759.000000	0.475110
760.000000	0.475124
761.000000	0.475204
762.000000	0.475297
763.000000	0.475385
764.000000	0.475586
765.000000	0.475713
766.000000	0.475774
767.000000	0.475795
768.000000	0.475745
769.000000	0.475712
770.000000	0.475726
771.000000	0.475706
772.000000	0.475742
773.000000	0.475747
774.000000	0.475767
775.000000	0.475788
776.000000	0.475841
777.000000	0.475907
778.000000	0.475910
779.000000	0.475969
780.000000	0.476076
781.000000	0.476073
782.000000	0.476079
783.000000	0.476214
784.000000	0.476301
785.000000	0.476347
786.000000	0.476375
787.000000	0.476390
788.000000	0.476388
789.000000	0.476364
790.000000	0.476284
791.000000	0.476173
792.000000	0.476080
793.000000	0.476035
794.000000	0.476051
795.000000	0.476071
796.000000	0.476047
797.000000	0.475971
798.000000	0.475891
799.000000	0.475898
800.000000	0.475954
801.000000	0.475991
802.000000	0.476022
803.000000	0.476019
804.000000	0.476021
805.000000	0.476002
806.000000	0.475905
807.000000	0.475883
808.000000	0.475943
809.000000	0.476010
810.000000	0.476067
811.000000	0.476089
812.000000	0.476084
813.000000	0.476022
814.000000	0.475942
815.000000	0.475974
816.000000	0.475968
817.000000	0.475935
818.000000	0.475804
819.000000	0.475724
820.000000	0.475700
821.000000	0.475680
822.000000	0.475781
823.000000	0.475886
824.000000	0.475881
825.000000	0.475858
826.000000	0.475812
827.000000	0.475759
828.000000	0.475765
829.000000	0.475750
830.000000	0.475714
831.000000	0.475702
832.000000	0.475538
833.000000	0.475483
834.000000	0.475463
835.000000	0.475420
836.000000	0.475293
837.000000	0.475163
838.000000	0.475111
839.000000	0.475144
840.000000	0.475082
841.000000	0.475015
842.000000	0.474988
843.000000	0.474988
844.000000	0.474949
845.000000	0.474837
846.000000	0.474775
847.000000	0.474710
848.000000	0.474643
849.000000	0.474621
850.000000	0.474545
851.000000	0.474434
852.000000	0.474374
853.000000	0.474370
854.000000	0.474284
855.000000	0.474259
856.000000	0.474213
857.000000	0.474122
858.000000	0.474048
859.000000	0.473914
860.000000	0.473786
861.000000	0.473696
862.000000	0.473670
863.000000	0.473594
864.000000	0.473427
865.000000	0.473213
866.000000	0.473047
867.000000	0.472974
868.000000	0.472957
869.000000	0.472895
870.000000	0.472830
871.000000	0.472655
872.000000	0.472452
873.000000	0.472221
874.000000	0.472110
875.000000	0.471962
876.000000	0.471828
877.000000	0.471726
878.000000	0.471604
879.000000	0.471556
880.000000	0.471380
881.000000	0.471030
882.000000	0.470708
883.000000	0.470575
884.000000	0.470627
885.000000	0.470670
886.000000	0.470567
887.000000	0.470334
888.000000	0.470096
889.000000	0.469927
890.000000	0.469686
891.000000	0.469508
892.000000	0.469403
893.000000	0.469230
894.000000	0.469090
895.000000	0.468890
896.000000	0.468658
897.000000	0.468474
898.000000	0.468400
899.000000	0.468281
900.000000	0.468182
901.000000	0.468089
902.000000	0.468085
903.000000	0.467866
904.000000	0.467576
905.000000	0.467296
906.000000	0.467127
907.000000	0.466879
908.000000	0.466581
909.000000	0.466238
910.000000	0.465894
911.000000	0.465653
912.000000	0.465578
913.000000	0.465443
914.000000	0.465220
915.000000	0.465015
916.000000	0.464786
917.000000	0.464598
918.000000	0.464472
919.000000	0.464348
920.000000	0.464137
921.000000	0.463817
922.000000	0.463488
923.000000	0.463254
924.000000	0.463030
925.000000	0.462812
926.000000	0.462597
927.000000	0.462169
928.000000	0.461927
929.000000	0.461770
930.000000	0.461494
931.000000	0.461329
932.000000	0.461177
933.000000	0.461028
934.000000	0.460814
935.000000	0.460615
936.000000	0.460407
937.000000	0.460020
938.000000	0.459594
939.000000	0.459326
940.000000	0.459093
941.000000	0.458813
942.000000	0.458273
943.000000	0.457808
944.000000	0.457402
945.000000	0.456943
946.000000	0.456355
947.000000	0.455959
948.000000	0.455926
949.000000	0.455675
950.000000	0.455456
951.000000	0.455282
952.000000	0.455097
953.000000	0.454968
954.000000	0.454922
955.000000	0.454829
956.000000	0.454618
957.000000	0.454504
958.000000	0.454363
959.000000	0.454141
960.000000	0.453864
961.000000	0.453608
962.000000	0.453384
963.000000	0.453211
964.000000	0.452993
965.000000	0.452747
966.000000	0.452391
967.000000	0.452285
968.000000	0.452166
969.000000	0.451910
970.000000	0.451686
971.000000	0.451572
972.000000	0.451447
973.000000	0.451212
974.000000	0.451102
975.000000	0.450822
976.000000	0.450552
977.000000	0.450440
978.000000	0.450281
979.000000	0.450233
980.000000	0.449937
981.000000	0.449606
982.000000	0.449307
983.000000	0.449029
984.000000	0.448907
985.000000	0.448966
986.000000	0.448825
987.000000	0.448759
988.000000	0.448733
989.000000	0.448353
990.000000	0.448062
991.000000	0.447821
992.000000	0.447549
993.000000	0.447431
994.000000	0.447199
995.000000	0.447043
996.000000	0.446901
997.000000	0.446951
998.000000	0.446988
999.000000	0.446998
1000.000000	0.446922
1001.000000	0.447590
1002.000000	0.446872
1003.000000	0.446446
1004.000000	0.446149
1005.000000	0.445739
1006.000000	0.445324
1007.000000	0.445016
1008.000000	0.445134
1009.000000	0.445132
1010.000000	0.444813
1011.000000	0.444926
1012.000000	0.444935
1013.000000	0.444582
1014.000000	0.444572
1015.000000	0.444690
1016.000000	0.444881
1017.000000	0.444738
1018.000000	0.444766
1019.000000	0.444774
1020.000000	0.444846
1021.000000	0.444315
1022.000000	0.443790
1023.000000	0.443813
1024.000000	0.443509
1025.000000	0.443741
1026.000000	0.444148
1027.000000	0.444097
1028.000000	0.444096
1029.000000	0.444197
1030.000000	0.444083
1031.000000	0.444043
1032.000000	0.444018
1033.000000	0.444021
1034.000000	0.444067
1035.000000	0.444290
1036.000000	0.444411
1037.000000	0.444621
1038.000000	0.444506
1039.000000	0.444290
1040.000000	0.444433
1041.000000	0.444215
1042.000000	0.443853
1043.000000	0.444013
1044.000000	0.444367
1045.000000	0.444639
1046.000000	0.444881
1047.000000	0.445182
1048.000000	0.445377
1049.000000	0.445412
1050.000000	0.445570
1051.000000	0.445466
1052.000000	0.444759
1053.000000	0.444524
1054.000000	0.444752
1055.000000	0.445004
1056.000000	0.445525
1057.000000	0.445999
1058.000000	0.446248
1059.000000	0.445815
1060.000000	0.445853
1061.000000	0.446158
1062.000000	0.446281
1063.000000	0.446770
1064.000000	0.446960
1065.000000	0.446689
1066.000000	0.446840
1067.000000	0.447114
1068.000000	0.447304
1069.000000	0.447664
1070.000000	0.447725
1071.000000	0.447533
1072.000000	0.447599
1073.000000	0.447558
1074.000000	0.447956
1075.000000	0.448431
1076.000000	0.448916
1077.000000	0.449189
1078.000000	0.449147
1079.000000	0.449280
1080.000000	0.449313
1081.000000	0.449538
1082.000000	0.450192
1083.000000	0.450422
1084.000000	0.450518
1085.000000	0.450742
1086.000000	0.450816
1087.000000	0.450902
1088.000000	0.450898
1089.000000	0.450993
1090.000000	0.450984
1091.000000	0.450994
1092.000000	0.451149
1093.000000	0.451775
1094.000000	0.451998
1095.000000	0.451953
1096.000000	0.452234
1097.000000	0.452599
1098.000000	0.452853
1099.000000	0.453163
1100.000000	0.453497
1101.000000	0.453678
1102.000000	0.453828
1103.000000	0.453999
1104.000000	0.454185
1105.000000	0.454212
1106.000000	0.454341
1107.000000	0.454544
1108.000000	0.454683
1109.000000	0.454934
1110.000000	0.455045
1111.000000	0.455187
1112.000000	0.455296
1113.000000	0.455500
1114.000000	0.455751
1115.000000	0.455941
1116.000000	0.456254
1117.000000	0.456350
1118.000000	0.456183
1119.000000	0.456178
1120.000000	0.456198
1121.000000	0.456185
1122.000000	0.456267
1123.000000	0.456687
1124.000000	0.456982
1125.000000	0.457206
1126.000000	0.457625
1127.000000	0.457691
1128.000000	0.457541
1129.000000	0.457053
1130.000000	0.456936
1131.000000	0.456762
1132.000000	0.456687
1133.000000	0.456908
1134.000000	0.457006
1135.000000	0.456989
1136.000000	0.456981
1137.000000	0.456992
1138.000000	0.456941
1139.000000	0.456923
1140.000000	0.457028
1141.000000	0.457143
1142.000000	0.457223
1143.000000	0.457232
1144.000000	0.457387
1145.000000	0.457336
1146.000000	0.457155
1147.000000	0.457173
1148.000000	0.457115
1149.000000	0.457170
1150.000000	0.457431
1151.000000	0.457510
1152.000000	0.457382
1153.000000	0.457476
1154.000000	0.457613
1155.000000	0.457625
1156.000000	0.457679
1157.000000	0.457739
1158.000000	0.457594
1159.000000	0.457539
1160.000000	0.457568
1161.000000	0.457593
1162.000000	0.457672
1163.000000	0.457919
1164.000000	0.458049
1165.000000	0.458161
1166.000000	0.458250
1167.000000	0.458215
1168.000000	0.458151
1169.000000	0.458112
1170.000000	0.458095
1171.000000	0.458086
1172.000000	0.458123
1173.000000	0.458079
1174.000000	0.458153
1175.000000	0.458304
1176.000000	0.458332
1177.000000	0.458536
1178.000000	0.458626
1179.000000	0.458547
1180.000000	0.458454
1181.000000	0.458434
1182.000000	0.458441
1183.000000	0.458511
1184.000000	0.458608
1185.000000	0.458673
1186.000000	0.458777
1187.000000	0.458820
1188.000000	0.458820
1189.000000	0.458769
1190.000000	0.458735
1191.000000	0.458720
1192.000000	0.458818
1193.000000	0.458992
1194.000000	0.459049
1195.000000	0.459134
1196.000000	0.459165
1197.000000	0.459182
1198.000000	0.459227
1199.000000	0.459269
1200.000000	0.459252
1201.000000	0.459286
1202.000000	0.459295
1203.000000	0.459306
1204.000000	0.459368
1205.000000	0.459403
1206.000000	0.459321
1207.000000	0.459327
1208.000000	0.459265
1209.000000	0.459162
1210.000000	0.459116
1211.000000	0.459119
1212.000000	0.459088
1213.000000	0.459082
1214.000000	0.459112
1215.000000	0.459181
1216.000000	0.459196
1217.000000	0.459141
1218.000000	0.459106
1219.000000	0.459093
1220.000000	0.459086
1221.000000	0.459182
1222.000000	0.459178
1223.000000	0.459186
1224.000000	0.459234
1225.000000	0.459114
1226.000000	0.459114
1227.000000	0.459174
1228.000000	0.459153
1229.000000	0.459018
1230.000000	0.458783
1231.000000	0.458581
1232.000000	0.458410
1233.000000	0.458442
1234.000000	0.458626
1235.000000	0.458675
1236.000000	0.458576
1237.000000	0.458622
1238.000000	0.458658
1239.000000	0.458640
1240.000000	0.458646
1241.000000	0.458631
1242.000000	0.458604
1243.000000	0.458629
1244.000000	0.458660
1245.000000	0.458806
1246.000000	0.458859
1247.000000	0.458863
1248.000000	0.458974
1249.000000	0.459051
1250.000000	0.458987
1251.000000	0.458922
1252.000000	0.458872
1253.000000	0.458829
1254.000000	0.458773
1255.000000	0.458749
1256.000000	0.458711
1257.000000	0.458645
1258.000000	0.458647
1259.000000	0.458635
1260.000000	0.458647
1261.000000	0.458573
1262.000000	0.458556
1263.000000	0.458645
1264.000000	0.458533
1265.000000	0.458557
1266.000000	0.458539
1267.000000	0.458367
1268.000000	0.458269
1269.000000	0.458083
1270.000000	0.458017
1271.000000	0.457981
1272.000000	0.457945
1273.000000	0.458020
1274.000000	0.457956
1275.000000	0.457879
1276.000000	0.457828
1277.000000	0.457871
1278.000000	0.457795
1279.000000	0.457699
1280.000000	0.457515
1281.000000	0.457346
1282.000000	0.457170
1283.000000	0.457188
1284.000000	0.457289
1285.000000	0.457305
1286.000000	0.457307
1287.000000	0.457280
1288.000000	0.457245
1289.000000	0.457103
1290.000000	0.456922
1291.000000	0.456818
1292.000000	0.456824
1293.000000	0.456851
1294.000000	0.456908
1295.000000	0.456967
1296.000000	0.456793
1297.000000	0.456665
1298.000000	0.456733
1299.000000	0.456678
1300.000000	0.456656
1301.000000	0.456705
1302.000000	0.456625
1303.000000	0.456601
1304.000000	0.456518
1305.000000	0.456531
1306.000000	0.456471
1307.000000	0.456427
1308.000000	0.456364
1309.000000	0.456291
1310.000000	0.456212
1311.000000	0.456116
1312.000000	0.456001
1313.000000	0.455973
1314.000000	0.455800
1315.000000	0.455578
1316.000000	0.455522
1317.000000	0.455464
1318.000000	0.455444
1319.000000	0.455406
1320.000000	0.455359
1321.000000	0.455294
1322.000000	0.455121
1323.000000	0.454956
1324.000000	0.454848
1325.000000	0.454662
1326.000000	0.454482
1327.000000	0.454315
1328.000000	0.454228
1329.000000	0.454020
1330.000000	0.453760
1331.000000	0.453551
1332.000000	0.453391
1333.000000	0.453188
1334.000000	0.453078
1335.000000	0.453017
1336.000000	0.452945
1337.000000	0.452858
1338.000000	0.452760
1339.000000	0.452569
1340.000000	0.452343
1341.000000	0.452242
1342.000000	0.452188
1343.000000	0.452076
1344.000000	0.452035
1345.000000	0.451992
1346.000000	0.451930
1347.000000	0.451705
1348.000000	0.451527
1349.000000	0.451279
1350.000000	0.451074
1351.000000	0.450971
1352.000000	0.450824
1353.000000	0.450495
1354.000000	0.450257
1355.000000	0.450037
1356.000000	0.449797
1357.000000	0.449652
1358.000000	0.449478
1359.000000	0.449237
1360.000000	0.449041
1361.000000	0.448970
1362.000000	0.448719
1363.000000	0.448384
1364.000000	0.448100
1365.000000	0.447709
1366.000000	0.447357
1367.000000	0.447064
1368.000000	0.446632
1369.000000	0.446263
1370.000000	0.445719
1371.000000	0.444993
1372.000000	0.444164
1373.000000	0.443200
1374.000000	0.442163
1375.000000	0.440957
1376.000000	0.439582
1377.000000	0.437889
1378.000000	0.435751
1379.000000	0.433246
1380.000000	0.430336
1381.000000	0.426892
1382.000000	0.423099
1383.000000	0.419028
1384.000000	0.414662
1385.000000	0.410399
1386.000000	0.406472
1387.000000	0.402939
1388.000000	0.400006
1389.000000	0.397766
1390.000000	0.396206
1391.000000	0.395320
1392.000000	0.395158
1393.000000	0.395392
1394.000000	0.396496
1395.000000	0.397436
1396.000000	0.398847
1397.000000	0.399774
1398.000000	0.400690
1399.000000	0.401228
1400.000000	0.401504
1401.000000	0.401515
1402.000000	0.401336
1403.000000	0.400827
1404.000000	0.400264
1405.000000	0.399555
1406.000000	0.398801
1407.000000	0.398154
1408.000000	0.397426
1409.000000	0.396866
1410.000000	0.396512
1411.000000	0.396117
1412.000000	0.395849
1413.000000	0.395774
1414.000000	0.395725
1415.000000	0.395801
1416.000000	0.395992
1417.000000	0.396248
1418.000000	0.396510
1419.000000	0.396950
1420.000000	0.397435
1421.000000	0.398052
1422.000000	0.398790
1423.000000	0.399579
1424.000000	0.400214
1425.000000	0.400869
1426.000000	0.401474
1427.000000	0.402075
1428.000000	0.402735
1429.000000	0.403396
1430.000000	0.404070
1431.000000	0.404736
1432.000000	0.405368
1433.000000	0.406071
1434.000000	0.406639
1435.000000	0.407237
1436.000000	0.407811
1437.000000	0.408337
1438.000000	0.408779
1439.000000	0.409231
1440.000000	0.409634
1441.000000	0.409967
1442.000000	0.410339
1443.000000	0.410660
1444.000000	0.410914
1445.000000	0.411143
1446.000000	0.411336
1447.000000	0.411491
1448.000000	0.411686
1449.000000	0.411830
1450.000000	0.411922
1451.000000	0.412057
1452.000000	0.412086
1453.000000	0.412069
1454.000000	0.412037
1455.000000	0.411950
1456.000000	0.411973
1457.000000	0.412097
1458.000000	0.412274
1459.000000	0.412504
1460.000000	0.412654
1461.000000	0.412789
1462.000000	0.412991
1463.000000	0.413183
1464.000000	0.413495
1465.000000	0.413933
1466.000000	0.414351
1467.000000	0.414752
1468.000000	0.415195
1469.000000	0.415714
1470.000000	0.416091
1471.000000	0.416547
1472.000000	0.417004
1473.000000	0.417508
1474.000000	0.418042
1475.000000	0.418556
1476.000000	0.419075
1477.000000	0.419567
1478.000000	0.420029
1479.000000	0.420486
1480.000000	0.420973
1481.000000	0.421383
1482.000000	0.421798
1483.000000	0.422226
1484.000000	0.422616
1485.000000	0.423016
1486.000000	0.423421
1487.000000	0.423838
1488.000000	0.424269
1489.000000	0.424721
1490.000000	0.425023
1491.000000	0.425416
1492.000000	0.425834
1493.000000	0.426202
1494.000000	0.426476
1495.000000	0.426790
1496.000000	0.427096
1497.000000	0.427371
1498.000000	0.427675
1499.000000	0.427971
1500.000000	0.428245
1501.000000	0.428534
1502.000000	0.428836
1503.000000	0.429179
1504.000000	0.429528
1505.000000	0.429818
1506.000000	0.430115
1507.000000	0.430438
1508.000000	0.430793
1509.000000	0.431100
1510.000000	0.431376
1511.000000	0.431661
1512.000000	0.431845
1513.000000	0.431981
1514.000000	0.432199
1515.000000	0.432402
1516.000000	0.432679
1517.000000	0.432941
1518.000000	0.433073
1519.000000	0.433128
1520.000000	0.433240
1521.000000	0.433303
1522.000000	0.433496
1523.000000	0.433792
1524.000000	0.433905
1525.000000	0.434054
1526.000000	0.434218
1527.000000	0.434335
1528.000000	0.434525
1529.000000	0.434660
1530.000000	0.434630
1531.000000	0.434779
1532.000000	0.435053
1533.000000	0.435267
1534.000000	0.435546
1535.000000	0.435782
1536.000000	0.435867
1537.000000	0.436106
1538.000000	0.436392
1539.000000	0.436590
1540.000000	0.436794
1541.000000	0.436985
1542.000000	0.437160
1543.000000	0.437339
1544.000000	0.437504
1545.000000	0.437694
1546.000000	0.437877
1547.000000	0.438051
1548.000000	0.438214
1549.000000	0.438326
1550.000000	0.438413
1551.000000	0.438507
1552.000000	0.438667
1553.000000	0.438848
1554.000000	0.439032
1555.000000	0.439286
1556.000000	0.439482
1557.000000	0.439609
1558.000000	0.439774
1559.000000	0.439854
1560.000000	0.439893
1561.000000	0.439978
1562.000000	0.440012
1563.000000	0.440044
1564.000000	0.440094
1565.000000	0.440149
1566.000000	0.440060
1567.000000	0.440020
1568.000000	0.439977
1569.000000	0.439966
1570.000000	0.439971
1571.000000	0.439966
1572.000000	0.439988
1573.000000	0.440043
1574.000000	0.440092
1575.000000	0.440178
1576.000000	0.440305
1577.000000	0.440415
1578.000000	0.440525
1579.000000	0.440805
1580.000000	0.440942
1581.000000	0.441079
1582.000000	0.441210
1583.000000	0.441269
1584.000000	0.441335
1585.000000	0.441543
1586.000000	0.441700
1587.000000	0.441837
1588.000000	0.441910
1589.000000	0.441961
1590.000000	0.442000
1591.000000	0.442042
1592.000000	0.442064
1593.000000	0.442083
1594.000000	0.442088
1595.000000	0.442110
1596.000000	0.442173
1597.000000	0.442338
1598.000000	0.442389
1599.000000	0.442469
1600.000000	0.442428
1601.000000	0.442360
1602.000000	0.442364
1603.000000	0.442428
1604.000000	0.442398
1605.000000	0.442401
1606.000000	0.442350
1607.000000	0.442263
1608.000000	0.442214
1609.000000	0.442290
1610.000000	0.442220
1611.000000	0.442097
1612.000000	0.441997
1613.000000	0.441972
1614.000000	0.441919
1615.000000	0.441983
1616.000000	0.442021
1617.000000	0.441959
1618.000000	0.441919
1619.000000	0.441856
1620.000000	0.441803
1621.000000	0.441756
1622.000000	0.441844
1623.000000	0.441960
1624.000000	0.442054
1625.000000	0.442021
1626.000000	0.441995
1627.000000	0.441969
1628.000000	0.442026
1629.000000	0.442115
1630.000000	0.442273
1631.000000	0.442408
1632.000000	0.442466
1633.000000	0.442573
1634.000000	0.442620
1635.000000	0.442628
1636.000000	0.442669
1637.000000	0.442785
1638.000000	0.442742
1639.000000	0.442685
1640.000000	0.442631
1641.000000	0.442576
1642.000000	0.442562
1643.000000	0.442654
1644.000000	0.442675
1645.000000	0.442685
1646.000000	0.442582
1647.000000	0.442457
1648.000000	0.442318
1649.000000	0.442207
1650.000000	0.442170
1651.000000	0.442247
1652.000000	0.442303
1653.000000	0.442293
1654.000000	0.442331
1655.000000	0.442312
1656.000000	0.442205
1657.000000	0.442187
1658.000000	0.442145
1659.000000	0.442211
1660.000000	0.442232
1661.000000	0.442115
1662.000000	0.442084
1663.000000	0.442014
1664.000000	0.441937
1665.000000	0.441891
1666.000000	0.441949
1667.000000	0.441886
1668.000000	0.441895
1669.000000	0.441967
1670.000000	0.441979
1671.000000	0.442115
1672.000000	0.442252
1673.000000	0.442398
1674.000000	0.442429
1675.000000	0.442511
1676.000000	0.442490
1677.000000	0.442376
1678.000000	0.442291
1679.000000	0.442225
1680.000000	0.442044
1681.000000	0.441960
1682.000000	0.441903
1683.000000	0.441775
1684.000000	0.441743
1685.000000	0.441716
1686.000000	0.441602
1687.000000	0.441566
1688.000000	0.441563
1689.000000	0.441568
1690.000000	0.441525
1691.000000	0.441601
1692.000000	0.441499
1693.000000	0.441410
1694.000000	0.441417
1695.000000	0.441375
1696.000000	0.441345
1697.000000	0.441272
1698.000000	0.441252
1699.000000	0.441242
1700.000000	0.441228
1701.000000	0.441323
1702.000000	0.441230
1703.000000	0.441098
1704.000000	0.441067
1705.000000	0.441045
1706.000000	0.441059
1707.000000	0.441066
1708.000000	0.441083
1709.000000	0.441001
1710.000000	0.440977
1711.000000	0.440969
1712.000000	0.441012
1713.000000	0.440950
1714.000000	0.440881
1715.000000	0.440830
1716.000000	0.440766
1717.000000	0.440651
1718.000000	0.440504
1719.000000	0.440316
1720.000000	0.440070
1721.000000	0.439922
1722.000000	0.439830
1723.000000	0.439746
1724.000000	0.439768
1725.000000	0.439740
1726.000000	0.439559
1727.000000	0.439477
1728.000000	0.439341
1729.000000	0.439160
1730.000000	0.439149
1731.000000	0.439161
1732.000000	0.439202
1733.000000	0.439296
1734.000000	0.439299
1735.000000	0.439327
1736.000000	0.439301
1737.000000	0.439263
1738.000000	0.439279
1739.000000	0.439244
1740.000000	0.439130
1741.000000	0.439012
1742.000000	0.438906
1743.000000	0.438848
1744.000000	0.438756
1745.000000	0.438606
1746.000000	0.438452
1747.000000	0.438254
1748.000000	0.438026
1749.000000	0.437875
1750.000000	0.437640
1751.000000	0.437495
1752.000000	0.437469
1753.000000	0.437246
1754.000000	0.437115
1755.000000	0.437010
1756.000000	0.436894
1757.000000	0.436834
1758.000000	0.436757
1759.000000	0.436598
1760.000000	0.436531
1761.000000	0.436478
1762.000000	0.436388
1763.000000	0.436400
1764.000000	0.436327
1765.000000	0.436060
1766.000000	0.435975
1767.000000	0.435892
1768.000000	0.435708
1769.000000	0.435663
1770.000000	0.435661
1771.000000	0.435546
1772.000000	0.435469
1773.000000	0.435425
1774.000000	0.435354
1775.000000	0.435299
1776.000000	0.435263
1777.000000	0.435239
1778.000000	0.435126
1779.000000	0.434930
1780.000000	0.434831
1781.000000	0.434692
1782.000000	0.434532
1783.000000	0.434484
1784.000000	0.434280
1785.000000	0.434043
1786.000000	0.433911
1787.000000	0.433900
1788.000000	0.433894
1789.000000	0.433795
1790.000000	0.433732
1791.000000	0.433582
1792.000000	0.433513
1793.000000	0.433433
1794.000000	0.433321
1795.000000	0.433270
1796.000000	0.433242
1797.000000	0.433203
1798.000000	0.433121
1799.000000	0.433110
1800.000000	0.433258
1801.000000	0.433366
1802.000000	0.433244
1803.000000	0.432879
1804.000000	0.433038
1805.000000	0.433884
1806.000000	0.434383
1807.000000	0.435320
1808.000000	0.435567
1809.000000	0.435521
1810.000000	0.435158
1811.000000	0.434885
1812.000000	0.434049
1813.000000	0.433897
1814.000000	0.434133
1815.000000	0.434299
1816.000000	0.434644
1817.000000	0.434695
1818.000000	0.434587
1819.000000	0.435323
1820.000000	0.434805
1821.000000	0.434102
1822.000000	0.433632
1823.000000	0.432129
1824.000000	0.431864
1825.000000	0.432580
1826.000000	0.432965
1827.000000	0.433472
1828.000000	0.434321
1829.000000	0.434276
1830.000000	0.433754
1831.000000	0.433570
1832.000000	0.433114
1833.000000	0.432813
1834.000000	0.432752
1835.000000	0.432569
1836.000000	0.432155
1837.000000	0.431831
1838.000000	0.431497
1839.000000	0.430983
1840.000000	0.430296
1841.000000	0.430039
1842.000000	0.429792
1843.000000	0.429664
1844.000000	0.429571
1845.000000	0.429424
1846.000000	0.429323
1847.000000	0.429061
1848.000000	0.428833
1849.000000	0.428781
1850.000000	0.428464
1851.000000	0.428124
1852.000000	0.427457
1853.000000	0.427163
1854.000000	0.426975
1855.000000	0.426450
1856.000000	0.425725
1857.000000	0.425118
1858.000000	0.424314
1859.000000	0.422969
1860.000000	0.422342
1861.000000	0.421935
1862.000000	0.421111
1863.000000	0.420554
1864.000000	0.419418
1865.000000	0.417620
1866.000000	0.416208
1867.000000	0.414702
1868.000000	0.412983
1869.000000	0.411577
1870.000000	0.410103
1871.000000	0.407800
1872.000000	0.405191
1873.000000	0.402823
1874.000000	0.400318
1875.000000	0.397562
1876.000000	0.394494
1877.000000	0.391389
1878.000000	0.387759
1879.000000	0.383727
1880.000000	0.379594
1881.000000	0.375595
1882.000000	0.371372
1883.000000	0.366806
1884.000000	0.362186
1885.000000	0.357223
1886.000000	0.351905
1887.000000	0.346212
1888.000000	0.340436
1889.000000	0.334296
1890.000000	0.328781
1891.000000	0.323239
1892.000000	0.317181
1893.000000	0.311306
1894.000000	0.305577
1895.000000	0.300225
1896.000000	0.295192
1897.000000	0.290690
1898.000000	0.286526
1899.000000	0.283266
1900.000000	0.280081
1901.000000	0.277058
1902.000000	0.274908
1903.000000	0.272812
1904.000000	0.271065
1905.000000	0.270421
1906.000000	0.269871
1907.000000	0.269720
1908.000000	0.269859
1909.000000	0.270595
1910.000000	0.271085
1911.000000	0.271872
1912.000000	0.273212
1913.000000	0.274901
1914.000000	0.277143
1915.000000	0.279555
1916.000000	0.281710
1917.000000	0.283670
1918.000000	0.285564
1919.000000	0.287329
1920.000000	0.288722
1921.000000	0.290632
1922.000000	0.292442
1923.000000	0.294204
1924.000000	0.296194
1925.000000	0.297534
1926.000000	0.298899
1927.000000	0.300127
1928.000000	0.301459
1929.000000	0.302851
1930.000000	0.304608
1931.000000	0.305898
1932.000000	0.307460
1933.000000	0.308826
1934.000000	0.309716
1935.000000	0.310999
1936.000000	0.311956
1937.000000	0.312570
1938.000000	0.313260
1939.000000	0.313930
1940.000000	0.314441
1941.000000	0.315098
1942.000000	0.315913
1943.000000	0.316573
1944.000000	0.317226
1945.000000	0.317967
1946.000000	0.318585
1947.000000	0.319056
1948.000000	0.319305
1949.000000	0.319590
1950.000000	0.320083
1951.000000	0.320306
1952.000000	0.320487
1953.000000	0.320830
1954.000000	0.321523
1955.000000	0.322049
1956.000000	0.323246
1957.000000	0.324514
1958.000000	0.325053
1959.000000	0.325799
1960.000000	0.326258
1961.000000	0.327067
1962.000000	0.327844
1963.000000	0.329006
1964.000000	0.329693
1965.000000	0.330235
1966.000000	0.330406
1967.000000	0.330636
1968.000000	0.331376
1969.000000	0.332387
1970.000000	0.333552
1971.000000	0.334779
1972.000000	0.335633
1973.000000	0.336233
1974.000000	0.336740
1975.000000	0.337335
1976.000000	0.337726
1977.000000	0.338144
1978.000000	0.338993
1979.000000	0.339711
1980.000000	0.340387
1981.000000	0.341292
1982.000000	0.341988
1983.000000	0.342645
1984.000000	0.343374
1985.000000	0.344269
1986.000000	0.344992
1987.000000	0.345711
1988.000000	0.346571
1989.000000	0.347496
1990.000000	0.348503
1991.000000	0.349536
1992.000000	0.350478
1993.000000	0.351420
1994.000000	0.352477
1995.000000	0.353247
1996.000000	0.354078
1997.000000	0.354832
1998.000000	0.355442
1999.000000	0.356010
2000.000000	0.356608
2001.000000	0.357083
2002.000000	0.357627
2003.000000	0.358240
2004.000000	0.358919
2005.000000	0.359414
2006.000000	0.359957
2007.000000	0.360762
2008.000000	0.361644
2009.000000	0.362898
2010.000000	0.363866
2011.000000	0.364616
2012.000000	0.365297
2013.000000	0.365667
2014.000000	0.365926
2015.000000	0.367022
2016.000000	0.367907
2017.000000	0.368772
2018.000000	0.370036
2019.000000	0.370636
2020.000000	0.371035
2021.000000	0.371506
2022.000000	0.371695
2023.000000	0.372159
2024.000000	0.372737
2025.000000	0.373458
2026.000000	0.374277
2027.000000	0.375022
2028.000000	0.375691
2029.000000	0.376470
2030.000000	0.376965
2031.000000	0.377384
2032.000000	0.377901
2033.000000	0.378362
2034.000000	0.378851
2035.000000	0.379667
2036.000000	0.380045
2037.000000	0.380394
2038.000000	0.380810
2039.000000	0.381172
2040.000000	0.381561
2041.000000	0.382005
2042.000000	0.382345
2043.000000	0.383023
2044.000000	0.383444
2045.000000	0.383679
2046.000000	0.384107
2047.000000	0.384457
2048.000000	0.384494
2049.000000	0.384945
2050.000000	0.385280
2051.000000	0.385373
2052.000000	0.385015
2053.000000	0.384941
2054.000000	0.385094
2055.000000	0.385633
2056.000000	0.386434
2057.000000	0.387239
2058.000000	0.387497
2059.000000	0.387708
2060.000000	0.387866
2061.000000	0.387813
2062.000000	0.387746
2063.000000	0.387666
2064.000000	0.387487
2065.000000	0.387333
2066.000000	0.387221
2067.000000	0.387437
2068.000000	0.388004
2069.000000	0.388309
2070.000000	0.388702
2071.000000	0.388670
2072.000000	0.388702
2073.000000	0.389023
2074.000000	0.389400
2075.000000	0.389707
2076.000000	0.390216
2077.000000	0.390491
2078.000000	0.390618
2079.000000	0.390539
2080.000000	0.390421
2081.000000	0.390367
2082.000000	0.390051
2083.000000	0.389921
2084.000000	0.390101
2085.000000	0.390093
2086.000000	0.390333
2087.000000	0.390737
2088.000000	0.390822
2089.000000	0.391302
2090.000000	0.391583
2091.000000	0.391702
2092.000000	0.391908
2093.000000	0.392330
2094.000000	0.392476
2095.000000	0.392871
2096.000000	0.392845
2097.000000	0.392340
2098.000000	0.391505
2099.000000	0.391395
2100.000000	0.391056
2101.000000	0.391224
2102.000000	0.392127
2103.000000	0.392801
2104.000000	0.393605
2105.000000	0.394393
2106.000000	0.395674
2107.000000	0.396209
2108.000000	0.396245
2109.000000	0.396360
2110.000000	0.395702
2111.000000	0.395585
2112.000000	0.395519
2113.000000	0.395558
2114.000000	0.395677
2115.000000	0.395451
2116.000000	0.394861
2117.000000	0.394215
2118.000000	0.394318
2119.000000	0.394511
2120.000000	0.394720
2121.000000	0.395450
2122.000000	0.395890
2123.000000	0.396121
2124.000000	0.396293
2125.000000	0.396423
2126.000000	0.396628
2127.000000	0.396598
2128.000000	0.397030
2129.000000	0.397948
2130.000000	0.398562
2131.000000	0.398433
2132.000000	0.398323
2133.000000	0.398307
2134.000000	0.398453
2135.000000	0.399074
2136.000000	0.399983
2137.000000	0.400307
2138.000000	0.400288
2139.000000	0.400307
2140.000000	0.399752
2141.000000	0.399714
2142.000000	0.400081
2143.000000	0.399876
2144.000000	0.399912
2145.000000	0.400078
2146.000000	0.400261
2147.000000	0.400368
2148.000000	0.400379
2149.000000	0.400795
2150.000000	0.400941
2151.000000	0.400377
2152.000000	0.399928
2153.000000	0.399570
2154.000000	0.399525
2155.000000	0.399672
2156.000000	0.399865
2157.000000	0.400620
2158.000000	0.400784
2159.000000	0.400638
2160.000000	0.400801
2161.000000	0.400839
2162.000000	0.401130
2163.000000	0.401631
2164.000000	0.401724
2165.000000	0.401784
2166.000000	0.401701
2167.000000	0.400973
2168.000000	0.400882
2169.000000	0.400192
2170.000000	0.399430
2171.000000	0.399305
2172.000000	0.399588
2173.000000	0.399542
2174.000000	0.399732
2175.000000	0.399918
2176.000000	0.400007
2177.000000	0.400031
2178.000000	0.400497
2179.000000	0.400689
2180.000000	0.400138
2181.000000	0.400474
2182.000000	0.400383
2183.000000	0.400490
2184.000000	0.401686
2185.000000	0.401762
2186.000000	0.401760
2187.000000	0.402044
2188.000000	0.400506
2189.000000	0.398870
2190.000000	0.397869
2191.000000	0.396619
2192.000000	0.395998
2193.000000	0.396631
2194.000000	0.396430
2195.000000	0.396078
2196.000000	0.396091
2197.000000	0.396179
2198.000000	0.395906
2199.000000	0.395607
2200.000000	0.395574
2201.000000	0.395877
2202.000000	0.395473
2203.000000	0.394735
2204.000000	0.393455
2205.000000	0.392144
2206.000000	0.391430
2207.000000	0.392284
2208.000000	0.393895
2209.000000	0.394386
2210.000000	0.394837
2211.000000	0.394404
2212.000000	0.393557
2213.000000	0.392373
2214.000000	0.389915
2215.000000	0.389091
2216.000000	0.388913
2217.000000	0.388439
2218.000000	0.388881
2219.000000	0.388779
2220.000000	0.387597
2221.000000	0.387790
2222.000000	0.389019
2223.000000	0.389413
2224.000000	0.390301
2225.000000	0.390538
2226.000000	0.389261
2227.000000	0.388214
2228.000000	0.387055
2229.000000	0.385603
2230.000000	0.384587
2231.000000	0.383269
2232.000000	0.382503
2233.000000	0.382350
2234.000000	0.382471
2235.000000	0.383480
2236.000000	0.382806
2237.000000	0.380736
2238.000000	0.380212
2239.000000	0.378437
2240.000000	0.379103
2241.000000	0.383576
2242.000000	0.384350
2243.000000	0.384170
2244.000000	0.384415
2245.000000	0.382087
2246.000000	0.381772
2247.000000	0.383358
2248.000000	0.383965
2249.000000	0.384820
2250.000000	0.385495
2251.000000	0.384603
2252.000000	0.384247
2253.000000	0.383765
2254.000000	0.383057
2255.000000	0.384351
2256.000000	0.385087
2257.000000	0.384256
2258.000000	0.383766
2259.000000	0.383793
2260.000000	0.383703
2261.000000	0.383090
2262.000000	0.383477
2263.000000	0.382547
2264.000000	0.379621
2265.000000	0.378445
2266.000000	0.378194
2267.000000	0.377157
2268.000000	0.376426
2269.000000	0.375072
2270.000000	0.372679
2271.000000	0.370889
2272.000000	0.369443
2273.000000	0.368035
2274.000000	0.366349
2275.000000	0.365019
2276.000000	0.364309
2277.000000	0.362509
2278.000000	0.360742
2279.000000	0.360010
2280.000000	0.358291
2281.000000	0.356234
2282.000000	0.353372
2283.000000	0.350243
2284.000000	0.346944
2285.000000	0.342647
2286.000000	0.339326
2287.000000	0.337427
2288.000000	0.335532
2289.000000	0.333305
2290.000000	0.331387
2291.000000	0.330021
2292.000000	0.328314
2293.000000	0.326944
2294.000000	0.326245
2295.000000	0.325617
2296.000000	0.325488
2297.000000	0.327073
2298.000000	0.327267
2299.000000	0.327334
2300.000000	0.326607
2301.000000	0.324229
2302.000000	0.322476
2303.000000	0.321959
2304.000000	0.319256
2305.000000	0.314830
2306.000000	0.311646
2307.000000	0.307750
2308.000000	0.303238
2309.000000	0.301255
2310.000000	0.300145
2311.000000	0.297067
2312.000000	0.294345
2313.000000	0.292140
2314.000000	0.290383
2315.000000	0.290669
2316.000000	0.292574
2317.000000	0.293836
2318.000000	0.294639
2319.000000	0.297444
2320.000000	0.300501
2321.000000	0.305770
2322.000000	0.312168
2323.000000	0.316283
2324.000000	0.319879
2325.000000	0.322107
2326.000000	0.323815
2327.000000	0.325869
2328.000000	0.327642
2329.000000	0.329741
2330.000000	0.331439
2331.000000	0.332308
2332.000000	0.333736
2333.000000	0.335841
2334.000000	0.337785
2335.000000	0.340354
2336.000000	0.344145
2337.000000	0.345775
2338.000000	0.346725
2339.000000	0.346732
2340.000000	0.344782
2341.000000	0.344074
2342.000000	0.342941
2343.000000	0.342431
2344.000000	0.342610
2345.000000	0.342554
2346.000000	0.342540
2347.000000	0.342432
2348.000000	0.342674
2349.000000	0.342504
2350.000000	0.340787
2351.000000	0.340641
2352.000000	0.339498
2353.000000	0.339427
2354.000000	0.339514
2355.000000	0.339651
2356.000000	0.339786
2357.000000	0.338311
2358.000000	0.338698
2359.000000	0.338600
2360.000000	0.338069
2361.000000	0.338805
2362.000000	0.338900
2363.000000	0.337587
2364.000000	0.335609
2365.000000	0.334410
2366.000000	0.332453
2367.000000	0.332276
2368.000000	0.333776
2369.000000	0.331735
2370.000000	0.328195
2371.000000	0.325944
2372.000000	0.322889
2373.000000	0.321540
2374.000000	0.322364
2375.000000	0.321932
2376.000000	0.321694
2377.000000	0.322161
2378.000000	0.321716
2379.000000	0.318259
2380.000000	0.311424
2381.000000	0.305731
2382.000000	0.302191
2383.000000	0.301442
2384.000000	0.304227
2385.000000	0.307035
2386.000000	0.306764
2387.000000	0.304756
2388.000000	0.302520
2389.000000	0.299426
2390.000000	0.297167
2391.000000	0.295829
2392.000000	0.295489
2393.000000	0.296529
2394.000000	0.299920
2395.000000	0.302476
2396.000000	0.301750
2397.000000	0.300639
2398.000000	0.300085
2399.000000	0.299109
2400.000000	0.300208
2401.000000	0.304898
2402.000000	0.306758
2403.000000	0.310883
2404.000000	0.314431
2405.000000	0.311951
2406.000000	0.314624
2407.000000	0.316250
2408.000000	0.316766
2409.000000	0.319229
2410.000000	0.315699
2411.000000	0.309987
2412.000000	0.304076
2413.000000	0.301523
2414.000000	0.306341
2415.000000	0.310652
2416.000000	0.313689
2417.000000	0.317682
2418.000000	0.311792
2419.000000	0.304588
2420.000000	0.304670
2421.000000	0.297184
2422.000000	0.293575
2423.000000	0.296017
2424.000000	0.290788
2425.000000	0.292188
2426.000000	0.298488
2427.000000	0.298524
2428.000000	0.305371
2429.000000	0.312063
2430.000000	0.307939
2431.000000	0.306483
2432.000000	0.301528
2433.000000	0.293525
2434.000000	0.295595
2435.000000	0.292188
2436.000000	0.284748
2437.000000	0.288087
2438.000000	0.287000
2439.000000	0.286231
2440.000000	0.290441
2441.000000	0.283862
2442.000000	0.275890
2443.000000	0.275594
2444.000000	0.277131
2445.000000	0.279648
2446.000000	0.281535
2447.000000	0.282046
2448.000000	0.281804
2449.000000	0.284426
2450.000000	0.293629
2451.000000	0.293616
2452.000000	0.287746
2453.000000	0.279915
2454.000000	0.266148
2455.000000	0.256831
2456.000000	0.255411
2457.000000	0.257677
2458.000000	0.261886
2459.000000	0.261356
2460.000000	0.260022
2461.000000	0.265796
2462.000000	0.257165
2463.000000	0.258537
2464.000000	0.266201
2465.000000	0.254383
2466.000000	0.248318
2467.000000	0.238682
2468.000000	0.225934
2469.000000	0.220841
2470.000000	0.224275
2471.000000	0.233272
2472.000000	0.241693
2473.000000	0.248227
2474.000000	0.248417
2475.000000	0.254251
2476.000000	0.257249
2477.000000	0.258336
2478.000000	0.267233
2479.000000	0.272960
2480.000000	0.258976
2481.000000	0.232875
2482.000000	0.217902
2483.000000	0.205794
2484.000000	0.217196
2485.000000	0.237705
2486.000000	0.256002
2487.000000	0.263592
2488.000000	0.236170
2489.000000	0.216095
2490.000000	0.197155
2491.000000	0.196790
2492.000000	0.192074
2493.000000	0.193589
2494.000000	0.206128
2495.000000	0.221483
2496.000000	0.225566
2497.000000	0.237694
2498.000000	0.242796
2499.000000	0.245243
2500.000000	0.232491
