# Wavelength	SM1200H-10_FV7-90_00002.asd.rts.txt
350.000000	0.210526
351.000000	0.216446
352.000000	0.216244
353.000000	0.212968
354.000000	0.210731
355.000000	0.207385
356.000000	0.209451
357.000000	0.214275
358.000000	0.208982
359.000000	0.207828
360.000000	0.210090
361.000000	0.211508
362.000000	0.212649
363.000000	0.213663
364.000000	0.213996
365.000000	0.212838
366.000000	0.214233
367.000000	0.216499
368.000000	0.213406
369.000000	0.212149
370.000000	0.213033
371.000000	0.214428
372.000000	0.217399
373.000000	0.219136
374.000000	0.218575
375.000000	0.217384
376.000000	0.218642
377.000000	0.221442
378.000000	0.221232
379.000000	0.220421
380.000000	0.219852
381.000000	0.220550
382.000000	0.221297
383.000000	0.221592
384.000000	0.221754
385.000000	0.223412
386.000000	0.223887
387.000000	0.223209
388.000000	0.224018
389.000000	0.224666
390.000000	0.224970
391.000000	0.224966
392.000000	0.225026
393.000000	0.225522
394.000000	0.226437
395.000000	0.226599
396.000000	0.226923
397.000000	0.227490
398.000000	0.227283
399.000000	0.227529
400.000000	0.228172
401.000000	0.228513
402.000000	0.228763
403.000000	0.229137
404.000000	0.229826
405.000000	0.230190
406.000000	0.230828
407.000000	0.231761
408.000000	0.231790
409.000000	0.231884
410.000000	0.232182
411.000000	0.232356
412.000000	0.232702
413.000000	0.232951
414.000000	0.232916
415.000000	0.233516
416.000000	0.234043
417.000000	0.234172
418.000000	0.234685
419.000000	0.234872
420.000000	0.234794
421.000000	0.235158
422.000000	0.235457
423.000000	0.235783
424.000000	0.236383
425.000000	0.236400
426.000000	0.236440
427.000000	0.236916
428.000000	0.237185
429.000000	0.237450
430.000000	0.237780
431.000000	0.238042
432.000000	0.238358
433.000000	0.238589
434.000000	0.238596
435.000000	0.238642
436.000000	0.238861
437.000000	0.239258
438.000000	0.239561
439.000000	0.239673
440.000000	0.239713
441.000000	0.239881
442.000000	0.239969
443.000000	0.240058
444.000000	0.240590
445.000000	0.240744
446.000000	0.240845
447.000000	0.241251
448.000000	0.241448
449.000000	0.241647
450.000000	0.241999
451.000000	0.242249
452.000000	0.242375
453.000000	0.242421
454.000000	0.242749
455.000000	0.243026
456.000000	0.243314
457.000000	0.243632
458.000000	0.243759
459.000000	0.243967
460.000000	0.244486
461.000000	0.244785
462.000000	0.244980
463.000000	0.245070
464.000000	0.245348
465.000000	0.245540
466.000000	0.245639
467.000000	0.245932
468.000000	0.246224
469.000000	0.246383
470.000000	0.246489
471.000000	0.246625
472.000000	0.246876
473.000000	0.247242
474.000000	0.247393
475.000000	0.247492
476.000000	0.247735
477.000000	0.248038
478.000000	0.248198
479.000000	0.248380
480.000000	0.248555
481.000000	0.248692
482.000000	0.248882
483.000000	0.249037
484.000000	0.249462
485.000000	0.249767
486.000000	0.249961
487.000000	0.250219
488.000000	0.250418
489.000000	0.250602
490.000000	0.250898
491.000000	0.251066
492.000000	0.251266
493.000000	0.251589
494.000000	0.251882
495.000000	0.252180
496.000000	0.252470
497.000000	0.252741
498.000000	0.252978
499.000000	0.253240
500.000000	0.253497
501.000000	0.253665
502.000000	0.253864
503.000000	0.254209
504.000000	0.254465
505.000000	0.254672
506.000000	0.254907
507.000000	0.255095
508.000000	0.255324
509.000000	0.255610
510.000000	0.255979
511.000000	0.256306
512.000000	0.256590
513.000000	0.256871
514.000000	0.257153
515.000000	0.257448
516.000000	0.257711
517.000000	0.258009
518.000000	0.258329
519.000000	0.258587
520.000000	0.258886
521.000000	0.259177
522.000000	0.259442
523.000000	0.259694
524.000000	0.259908
525.000000	0.260120
526.000000	0.260441
527.000000	0.260737
528.000000	0.260993
529.000000	0.261269
530.000000	0.261504
531.000000	0.261789
532.000000	0.262081
533.000000	0.262335
534.000000	0.262584
535.000000	0.262826
536.000000	0.263059
537.000000	0.263325
538.000000	0.263596
539.000000	0.263811
540.000000	0.264075
541.000000	0.264349
542.000000	0.264613
543.000000	0.264859
544.000000	0.265131
545.000000	0.265393
546.000000	0.265686
547.000000	0.265976
548.000000	0.266284
549.000000	0.266582
550.000000	0.266867
551.000000	0.267148
552.000000	0.267393
553.000000	0.267657
554.000000	0.267942
555.000000	0.268244
556.000000	0.268557
557.000000	0.268829
558.000000	0.269155
559.000000	0.269466
560.000000	0.269753
561.000000	0.270071
562.000000	0.270359
563.000000	0.270643
564.000000	0.270931
565.000000	0.271143
566.000000	0.271447
567.000000	0.271772
568.000000	0.272057
569.000000	0.272364
570.000000	0.272697
571.000000	0.273020
572.000000	0.273276
573.000000	0.273593
574.000000	0.273903
575.000000	0.274142
576.000000	0.274407
577.000000	0.274643
578.000000	0.274871
579.000000	0.275146
580.000000	0.275460
581.000000	0.275777
582.000000	0.276013
583.000000	0.276256
584.000000	0.276518
585.000000	0.276775
586.000000	0.277014
587.000000	0.277235
588.000000	0.277453
589.000000	0.277716
590.000000	0.277960
591.000000	0.278167
592.000000	0.278455
593.000000	0.278768
594.000000	0.279058
595.000000	0.279286
596.000000	0.279554
597.000000	0.279896
598.000000	0.280215
599.000000	0.280451
600.000000	0.280665
601.000000	0.280850
602.000000	0.281049
603.000000	0.281204
604.000000	0.281330
605.000000	0.281538
606.000000	0.281785
607.000000	0.282053
608.000000	0.282325
609.000000	0.282566
610.000000	0.282778
611.000000	0.282964
612.000000	0.283061
613.000000	0.283127
614.000000	0.283226
615.000000	0.283258
616.000000	0.283227
617.000000	0.283161
618.000000	0.283223
619.000000	0.283345
620.000000	0.283457
621.000000	0.283551
622.000000	0.283704
623.000000	0.283872
624.000000	0.284012
625.000000	0.284169
626.000000	0.284252
627.000000	0.284247
628.000000	0.284268
629.000000	0.284233
630.000000	0.284101
631.000000	0.284123
632.000000	0.284159
633.000000	0.284237
634.000000	0.284393
635.000000	0.284619
636.000000	0.284908
637.000000	0.285221
638.000000	0.285531
639.000000	0.285788
640.000000	0.286022
641.000000	0.286180
642.000000	0.286348
643.000000	0.286532
644.000000	0.286713
645.000000	0.286874
646.000000	0.287018
647.000000	0.287133
648.000000	0.287276
649.000000	0.287445
650.000000	0.287604
651.000000	0.287716
652.000000	0.287862
653.000000	0.288049
654.000000	0.288178
655.000000	0.288315
656.000000	0.288482
657.000000	0.288626
658.000000	0.288706
659.000000	0.288808
660.000000	0.288948
661.000000	0.289082
662.000000	0.289154
663.000000	0.289232
664.000000	0.289363
665.000000	0.289489
666.000000	0.289603
667.000000	0.289689
668.000000	0.289797
669.000000	0.289918
670.000000	0.290054
671.000000	0.290228
672.000000	0.290407
673.000000	0.290558
674.000000	0.290666
675.000000	0.290767
676.000000	0.290877
677.000000	0.291023
678.000000	0.291228
679.000000	0.291424
680.000000	0.291574
681.000000	0.291691
682.000000	0.291868
683.000000	0.292066
684.000000	0.292341
685.000000	0.292541
686.000000	0.292697
687.000000	0.292841
688.000000	0.292917
689.000000	0.292953
690.000000	0.293018
691.000000	0.293124
692.000000	0.293223
693.000000	0.293363
694.000000	0.293532
695.000000	0.293710
696.000000	0.293893
697.000000	0.294084
698.000000	0.294245
699.000000	0.294417
700.000000	0.294626
701.000000	0.294761
702.000000	0.294918
703.000000	0.295095
704.000000	0.295197
705.000000	0.295306
706.000000	0.295415
707.000000	0.295565
708.000000	0.295676
709.000000	0.295756
710.000000	0.295844
711.000000	0.295948
712.000000	0.296033
713.000000	0.296143
714.000000	0.296382
715.000000	0.296622
716.000000	0.296824
717.000000	0.296964
718.000000	0.297105
719.000000	0.297231
720.000000	0.297334
721.000000	0.297432
722.000000	0.297471
723.000000	0.297492
724.000000	0.297483
725.000000	0.297502
726.000000	0.297616
727.000000	0.297724
728.000000	0.297798
729.000000	0.297886
730.000000	0.297991
731.000000	0.298180
732.000000	0.298318
733.000000	0.298411
734.000000	0.298536
735.000000	0.298571
736.000000	0.298651
737.000000	0.298753
738.000000	0.298795
739.000000	0.298877
740.000000	0.298921
741.000000	0.298999
742.000000	0.299120
743.000000	0.299235
744.000000	0.299315
745.000000	0.299333
746.000000	0.299356
747.000000	0.299377
748.000000	0.299411
749.000000	0.299467
750.000000	0.299518
751.000000	0.299589
752.000000	0.299683
753.000000	0.299791
754.000000	0.299864
755.000000	0.299958
756.000000	0.300026
757.000000	0.299980
758.000000	0.300044
759.000000	0.300192
760.000000	0.300322
761.000000	0.300479
762.000000	0.300592
763.000000	0.300634
764.000000	0.300683
765.000000	0.300695
766.000000	0.300698
767.000000	0.300716
768.000000	0.300732
769.000000	0.300733
770.000000	0.300739
771.000000	0.300811
772.000000	0.300913
773.000000	0.300965
774.000000	0.301004
775.000000	0.301022
776.000000	0.301051
777.000000	0.301091
778.000000	0.301088
779.000000	0.301140
780.000000	0.301248
781.000000	0.301301
782.000000	0.301274
783.000000	0.301249
784.000000	0.301167
785.000000	0.301125
786.000000	0.301153
787.000000	0.301222
788.000000	0.301207
789.000000	0.301198
790.000000	0.301210
791.000000	0.301265
792.000000	0.301355
793.000000	0.301437
794.000000	0.301491
795.000000	0.301566
796.000000	0.301625
797.000000	0.301671
798.000000	0.301763
799.000000	0.301809
800.000000	0.301818
801.000000	0.301831
802.000000	0.301881
803.000000	0.301842
804.000000	0.301714
805.000000	0.301634
806.000000	0.301522
807.000000	0.301444
808.000000	0.301378
809.000000	0.301322
810.000000	0.301283
811.000000	0.301261
812.000000	0.301303
813.000000	0.301322
814.000000	0.301312
815.000000	0.301368
816.000000	0.301369
817.000000	0.301336
818.000000	0.301252
819.000000	0.301254
820.000000	0.301314
821.000000	0.301351
822.000000	0.301371
823.000000	0.301448
824.000000	0.301508
825.000000	0.301542
826.000000	0.301523
827.000000	0.301471
828.000000	0.301443
829.000000	0.301407
830.000000	0.301377
831.000000	0.301375
832.000000	0.301270
833.000000	0.301191
834.000000	0.301118
835.000000	0.301033
836.000000	0.300847
837.000000	0.300685
838.000000	0.300645
839.000000	0.300755
840.000000	0.300815
841.000000	0.300794
842.000000	0.300692
843.000000	0.300665
844.000000	0.300628
845.000000	0.300538
846.000000	0.300473
847.000000	0.300358
848.000000	0.300229
849.000000	0.300181
850.000000	0.300210
851.000000	0.300198
852.000000	0.300139
853.000000	0.300077
854.000000	0.299982
855.000000	0.300007
856.000000	0.300121
857.000000	0.300068
858.000000	0.300102
859.000000	0.300177
860.000000	0.299945
861.000000	0.299655
862.000000	0.299462
863.000000	0.299397
864.000000	0.299449
865.000000	0.299414
866.000000	0.299242
867.000000	0.299111
868.000000	0.299043
869.000000	0.298974
870.000000	0.298894
871.000000	0.298693
872.000000	0.298492
873.000000	0.298304
874.000000	0.298083
875.000000	0.297934
876.000000	0.297851
877.000000	0.297712
878.000000	0.297547
879.000000	0.297510
880.000000	0.297516
881.000000	0.297493
882.000000	0.297383
883.000000	0.297188
884.000000	0.296893
885.000000	0.296608
886.000000	0.296359
887.000000	0.296158
888.000000	0.295930
889.000000	0.295776
890.000000	0.295577
891.000000	0.295379
892.000000	0.295263
893.000000	0.295084
894.000000	0.294894
895.000000	0.294697
896.000000	0.294520
897.000000	0.294365
898.000000	0.294224
899.000000	0.294045
900.000000	0.293858
901.000000	0.293643
902.000000	0.293434
903.000000	0.293230
904.000000	0.293047
905.000000	0.292811
906.000000	0.292639
907.000000	0.292447
908.000000	0.292252
909.000000	0.292013
910.000000	0.291821
911.000000	0.291673
912.000000	0.291550
913.000000	0.291398
914.000000	0.291212
915.000000	0.291040
916.000000	0.290803
917.000000	0.290479
918.000000	0.290233
919.000000	0.290118
920.000000	0.289937
921.000000	0.289684
922.000000	0.289428
923.000000	0.289237
924.000000	0.289012
925.000000	0.288845
926.000000	0.288764
927.000000	0.288532
928.000000	0.288338
929.000000	0.288095
930.000000	0.287684
931.000000	0.287291
932.000000	0.286975
933.000000	0.286766
934.000000	0.286557
935.000000	0.286244
936.000000	0.285954
937.000000	0.285720
938.000000	0.285541
939.000000	0.285364
940.000000	0.285148
941.000000	0.285010
942.000000	0.284743
943.000000	0.284475
944.000000	0.284219
945.000000	0.284122
946.000000	0.283881
947.000000	0.283558
948.000000	0.283253
949.000000	0.282964
950.000000	0.282651
951.000000	0.282309
952.000000	0.282083
953.000000	0.281910
954.000000	0.281738
955.000000	0.281493
956.000000	0.281301
957.000000	0.281214
958.000000	0.281109
959.000000	0.280923
960.000000	0.280705
961.000000	0.280378
962.000000	0.279974
963.000000	0.279697
964.000000	0.279352
965.000000	0.279026
966.000000	0.278720
967.000000	0.278477
968.000000	0.278354
969.000000	0.278218
970.000000	0.277992
971.000000	0.277824
972.000000	0.277699
973.000000	0.277498
974.000000	0.277183
975.000000	0.276856
976.000000	0.276582
977.000000	0.276358
978.000000	0.276041
979.000000	0.275874
980.000000	0.275584
981.000000	0.275216
982.000000	0.275131
983.000000	0.275073
984.000000	0.274978
985.000000	0.274879
986.000000	0.274609
987.000000	0.274367
988.000000	0.274176
989.000000	0.273887
990.000000	0.273584
991.000000	0.273320
992.000000	0.273177
993.000000	0.273187
994.000000	0.273007
995.000000	0.272857
996.000000	0.272953
997.000000	0.272914
998.000000	0.272862
999.000000	0.272875
1000.000000	0.272653
1001.000000	0.273178
1002.000000	0.272918
1003.000000	0.272293
1004.000000	0.271887
1005.000000	0.271738
1006.000000	0.271549
1007.000000	0.271322
1008.000000	0.271223
1009.000000	0.271277
1010.000000	0.270840
1011.000000	0.270425
1012.000000	0.270224
1013.000000	0.270061
1014.000000	0.269814
1015.000000	0.269577
1016.000000	0.269776
1017.000000	0.269890
1018.000000	0.270142
1019.000000	0.270361
1020.000000	0.270978
1021.000000	0.270769
1022.000000	0.270207
1023.000000	0.270080
1024.000000	0.269610
1025.000000	0.269540
1026.000000	0.269811
1027.000000	0.269850
1028.000000	0.269829
1029.000000	0.269761
1030.000000	0.269475
1031.000000	0.269486
1032.000000	0.269722
1033.000000	0.269720
1034.000000	0.269851
1035.000000	0.270229
1036.000000	0.270294
1037.000000	0.270234
1038.000000	0.270198
1039.000000	0.270161
1040.000000	0.270024
1041.000000	0.270078
1042.000000	0.270124
1043.000000	0.270356
1044.000000	0.270851
1045.000000	0.271192
1046.000000	0.271170
1047.000000	0.271175
1048.000000	0.270831
1049.000000	0.270755
1050.000000	0.270721
1051.000000	0.270909
1052.000000	0.271374
1053.000000	0.271488
1054.000000	0.271745
1055.000000	0.271878
1056.000000	0.271787
1057.000000	0.271677
1058.000000	0.271927
1059.000000	0.272101
1060.000000	0.272130
1061.000000	0.272445
1062.000000	0.272558
1063.000000	0.272621
1064.000000	0.272933
1065.000000	0.273549
1066.000000	0.273748
1067.000000	0.273799
1068.000000	0.273976
1069.000000	0.273939
1070.000000	0.274016
1071.000000	0.274287
1072.000000	0.274530
1073.000000	0.274707
1074.000000	0.275057
1075.000000	0.275463
1076.000000	0.275873
1077.000000	0.275995
1078.000000	0.275960
1079.000000	0.276028
1080.000000	0.275993
1081.000000	0.276083
1082.000000	0.276388
1083.000000	0.276553
1084.000000	0.276698
1085.000000	0.276878
1086.000000	0.277008
1087.000000	0.277203
1088.000000	0.277380
1089.000000	0.277578
1090.000000	0.277822
1091.000000	0.277927
1092.000000	0.278215
1093.000000	0.278456
1094.000000	0.278694
1095.000000	0.278858
1096.000000	0.279151
1097.000000	0.279592
1098.000000	0.279755
1099.000000	0.279720
1100.000000	0.279955
1101.000000	0.279997
1102.000000	0.280244
1103.000000	0.280897
1104.000000	0.281273
1105.000000	0.281571
1106.000000	0.281808
1107.000000	0.281836
1108.000000	0.281926
1109.000000	0.282039
1110.000000	0.282131
1111.000000	0.282303
1112.000000	0.282523
1113.000000	0.282817
1114.000000	0.283209
1115.000000	0.283521
1116.000000	0.283990
1117.000000	0.284155
1118.000000	0.284016
1119.000000	0.284091
1120.000000	0.284078
1121.000000	0.284183
1122.000000	0.284680
1123.000000	0.285034
1124.000000	0.285010
1125.000000	0.285185
1126.000000	0.285398
1127.000000	0.285462
1128.000000	0.285492
1129.000000	0.285587
1130.000000	0.285682
1131.000000	0.285695
1132.000000	0.285688
1133.000000	0.285743
1134.000000	0.285882
1135.000000	0.285924
1136.000000	0.286017
1137.000000	0.286246
1138.000000	0.286403
1139.000000	0.286665
1140.000000	0.286805
1141.000000	0.286798
1142.000000	0.286899
1143.000000	0.286836
1144.000000	0.286948
1145.000000	0.287084
1146.000000	0.287185
1147.000000	0.287274
1148.000000	0.287266
1149.000000	0.287264
1150.000000	0.287249
1151.000000	0.287307
1152.000000	0.287295
1153.000000	0.287367
1154.000000	0.287522
1155.000000	0.287588
1156.000000	0.287651
1157.000000	0.287663
1158.000000	0.287516
1159.000000	0.287510
1160.000000	0.287560
1161.000000	0.287565
1162.000000	0.287650
1163.000000	0.287856
1164.000000	0.287918
1165.000000	0.287919
1166.000000	0.288004
1167.000000	0.288073
1168.000000	0.288141
1169.000000	0.288309
1170.000000	0.288346
1171.000000	0.288349
1172.000000	0.288418
1173.000000	0.288380
1174.000000	0.288419
1175.000000	0.288577
1176.000000	0.288578
1177.000000	0.288544
1178.000000	0.288570
1179.000000	0.288571
1180.000000	0.288525
1181.000000	0.288580
1182.000000	0.288593
1183.000000	0.288622
1184.000000	0.288684
1185.000000	0.288729
1186.000000	0.288800
1187.000000	0.288850
1188.000000	0.288891
1189.000000	0.288882
1190.000000	0.288910
1191.000000	0.288931
1192.000000	0.289001
1193.000000	0.289092
1194.000000	0.289061
1195.000000	0.289106
1196.000000	0.289141
1197.000000	0.289138
1198.000000	0.289171
1199.000000	0.289211
1200.000000	0.289203
1201.000000	0.289194
1202.000000	0.289203
1203.000000	0.289163
1204.000000	0.289147
1205.000000	0.289217
1206.000000	0.289185
1207.000000	0.289275
1208.000000	0.289250
1209.000000	0.289121
1210.000000	0.289107
1211.000000	0.289174
1212.000000	0.289161
1213.000000	0.289215
1214.000000	0.289212
1215.000000	0.289100
1216.000000	0.289041
1217.000000	0.288912
1218.000000	0.288852
1219.000000	0.288856
1220.000000	0.288934
1221.000000	0.288983
1222.000000	0.288956
1223.000000	0.288875
1224.000000	0.288777
1225.000000	0.288704
1226.000000	0.288729
1227.000000	0.288664
1228.000000	0.288621
1229.000000	0.288548
1230.000000	0.288386
1231.000000	0.288290
1232.000000	0.288341
1233.000000	0.288409
1234.000000	0.288479
1235.000000	0.288538
1236.000000	0.288557
1237.000000	0.288629
1238.000000	0.288715
1239.000000	0.288721
1240.000000	0.288700
1241.000000	0.288645
1242.000000	0.288599
1243.000000	0.288579
1244.000000	0.288525
1245.000000	0.288537
1246.000000	0.288483
1247.000000	0.288441
1248.000000	0.288481
1249.000000	0.288516
1250.000000	0.288508
1251.000000	0.288507
1252.000000	0.288502
1253.000000	0.288541
1254.000000	0.288508
1255.000000	0.288442
1256.000000	0.288379
1257.000000	0.288255
1258.000000	0.288250
1259.000000	0.288274
1260.000000	0.288310
1261.000000	0.288352
1262.000000	0.288372
1263.000000	0.288427
1264.000000	0.288364
1265.000000	0.288331
1266.000000	0.288337
1267.000000	0.288325
1268.000000	0.288357
1269.000000	0.288352
1270.000000	0.288417
1271.000000	0.288476
1272.000000	0.288534
1273.000000	0.288658
1274.000000	0.288673
1275.000000	0.288632
1276.000000	0.288499
1277.000000	0.288509
1278.000000	0.288441
1279.000000	0.288437
1280.000000	0.288467
1281.000000	0.288468
1282.000000	0.288504
1283.000000	0.288595
1284.000000	0.288663
1285.000000	0.288723
1286.000000	0.288811
1287.000000	0.288806
1288.000000	0.288778
1289.000000	0.288779
1290.000000	0.288636
1291.000000	0.288523
1292.000000	0.288449
1293.000000	0.288336
1294.000000	0.288276
1295.000000	0.288269
1296.000000	0.288206
1297.000000	0.288125
1298.000000	0.288129
1299.000000	0.288048
1300.000000	0.288004
1301.000000	0.288015
1302.000000	0.287924
1303.000000	0.287867
1304.000000	0.287824
1305.000000	0.287827
1306.000000	0.287836
1307.000000	0.287920
1308.000000	0.287965
1309.000000	0.287999
1310.000000	0.288027
1311.000000	0.288051
1312.000000	0.288106
1313.000000	0.288142
1314.000000	0.288137
1315.000000	0.288043
1316.000000	0.287990
1317.000000	0.287976
1318.000000	0.287884
1319.000000	0.287812
1320.000000	0.287836
1321.000000	0.287855
1322.000000	0.287869
1323.000000	0.287866
1324.000000	0.287916
1325.000000	0.287904
1326.000000	0.287783
1327.000000	0.287761
1328.000000	0.287812
1329.000000	0.287825
1330.000000	0.287908
1331.000000	0.287960
1332.000000	0.288062
1333.000000	0.288086
1334.000000	0.288105
1335.000000	0.288144
1336.000000	0.288141
1337.000000	0.288109
1338.000000	0.288015
1339.000000	0.287980
1340.000000	0.287871
1341.000000	0.287774
1342.000000	0.287690
1343.000000	0.287536
1344.000000	0.287412
1345.000000	0.287417
1346.000000	0.287534
1347.000000	0.287515
1348.000000	0.287517
1349.000000	0.287451
1350.000000	0.287335
1351.000000	0.287329
1352.000000	0.287333
1353.000000	0.287247
1354.000000	0.287279
1355.000000	0.287288
1356.000000	0.287247
1357.000000	0.287211
1358.000000	0.287159
1359.000000	0.287127
1360.000000	0.287100
1361.000000	0.287189
1362.000000	0.287140
1363.000000	0.286953
1364.000000	0.286887
1365.000000	0.286767
1366.000000	0.286719
1367.000000	0.286766
1368.000000	0.286800
1369.000000	0.286841
1370.000000	0.286826
1371.000000	0.286783
1372.000000	0.286737
1373.000000	0.286680
1374.000000	0.286686
1375.000000	0.286665
1376.000000	0.286698
1377.000000	0.286717
1378.000000	0.286606
1379.000000	0.286446
1380.000000	0.286302
1381.000000	0.286099
1382.000000	0.285836
1383.000000	0.285596
1384.000000	0.285241
1385.000000	0.284855
1386.000000	0.284699
1387.000000	0.284582
1388.000000	0.284445
1389.000000	0.284409
1390.000000	0.284328
1391.000000	0.284265
1392.000000	0.284364
1393.000000	0.284420
1394.000000	0.284568
1395.000000	0.284683
1396.000000	0.284765
1397.000000	0.284830
1398.000000	0.284861
1399.000000	0.284892
1400.000000	0.284919
1401.000000	0.284897
1402.000000	0.284892
1403.000000	0.284853
1404.000000	0.284772
1405.000000	0.284682
1406.000000	0.284577
1407.000000	0.284459
1408.000000	0.284328
1409.000000	0.284227
1410.000000	0.284175
1411.000000	0.284144
1412.000000	0.284118
1413.000000	0.284144
1414.000000	0.284161
1415.000000	0.284183
1416.000000	0.284207
1417.000000	0.284238
1418.000000	0.284269
1419.000000	0.284325
1420.000000	0.284368
1421.000000	0.284464
1422.000000	0.284457
1423.000000	0.284479
1424.000000	0.284429
1425.000000	0.284366
1426.000000	0.284362
1427.000000	0.284378
1428.000000	0.284418
1429.000000	0.284456
1430.000000	0.284478
1431.000000	0.284483
1432.000000	0.284511
1433.000000	0.284599
1434.000000	0.284648
1435.000000	0.284782
1436.000000	0.284861
1437.000000	0.284874
1438.000000	0.284891
1439.000000	0.284938
1440.000000	0.284993
1441.000000	0.285104
1442.000000	0.285156
1443.000000	0.285120
1444.000000	0.285110
1445.000000	0.285048
1446.000000	0.284950
1447.000000	0.284911
1448.000000	0.284892
1449.000000	0.284890
1450.000000	0.284891
1451.000000	0.284937
1452.000000	0.284934
1453.000000	0.284932
1454.000000	0.284989
1455.000000	0.285027
1456.000000	0.285112
1457.000000	0.285179
1458.000000	0.285213
1459.000000	0.285239
1460.000000	0.285213
1461.000000	0.285221
1462.000000	0.285227
1463.000000	0.285180
1464.000000	0.285152
1465.000000	0.285116
1466.000000	0.285078
1467.000000	0.285060
1468.000000	0.285038
1469.000000	0.285076
1470.000000	0.285056
1471.000000	0.285049
1472.000000	0.285070
1473.000000	0.285157
1474.000000	0.285198
1475.000000	0.285237
1476.000000	0.285255
1477.000000	0.285239
1478.000000	0.285287
1479.000000	0.285268
1480.000000	0.285221
1481.000000	0.285171
1482.000000	0.285102
1483.000000	0.285089
1484.000000	0.285124
1485.000000	0.285130
1486.000000	0.285135
1487.000000	0.285172
1488.000000	0.285243
1489.000000	0.285305
1490.000000	0.285256
1491.000000	0.285280
1492.000000	0.285283
1493.000000	0.285286
1494.000000	0.285283
1495.000000	0.285317
1496.000000	0.285353
1497.000000	0.285364
1498.000000	0.285441
1499.000000	0.285424
1500.000000	0.285342
1501.000000	0.285263
1502.000000	0.285176
1503.000000	0.285203
1504.000000	0.285250
1505.000000	0.285248
1506.000000	0.285236
1507.000000	0.285173
1508.000000	0.285184
1509.000000	0.285208
1510.000000	0.285213
1511.000000	0.285282
1512.000000	0.285253
1513.000000	0.285242
1514.000000	0.285322
1515.000000	0.285315
1516.000000	0.285374
1517.000000	0.285393
1518.000000	0.285320
1519.000000	0.285269
1520.000000	0.285194
1521.000000	0.285078
1522.000000	0.285079
1523.000000	0.285073
1524.000000	0.285000
1525.000000	0.285015
1526.000000	0.284965
1527.000000	0.284967
1528.000000	0.285104
1529.000000	0.285133
1530.000000	0.285106
1531.000000	0.285165
1532.000000	0.285145
1533.000000	0.285137
1534.000000	0.285194
1535.000000	0.285183
1536.000000	0.285131
1537.000000	0.285150
1538.000000	0.285158
1539.000000	0.285109
1540.000000	0.285015
1541.000000	0.284919
1542.000000	0.284860
1543.000000	0.284831
1544.000000	0.284826
1545.000000	0.284878
1546.000000	0.284952
1547.000000	0.284989
1548.000000	0.285034
1549.000000	0.285049
1550.000000	0.285009
1551.000000	0.285039
1552.000000	0.285120
1553.000000	0.285205
1554.000000	0.285300
1555.000000	0.285308
1556.000000	0.285285
1557.000000	0.285243
1558.000000	0.285247
1559.000000	0.285214
1560.000000	0.285213
1561.000000	0.285274
1562.000000	0.285307
1563.000000	0.285383
1564.000000	0.285431
1565.000000	0.285458
1566.000000	0.285443
1567.000000	0.285499
1568.000000	0.285515
1569.000000	0.285572
1570.000000	0.285600
1571.000000	0.285569
1572.000000	0.285569
1573.000000	0.285621
1574.000000	0.285605
1575.000000	0.285589
1576.000000	0.285546
1577.000000	0.285403
1578.000000	0.285332
1579.000000	0.285351
1580.000000	0.285346
1581.000000	0.285427
1582.000000	0.285424
1583.000000	0.285376
1584.000000	0.285282
1585.000000	0.285211
1586.000000	0.285170
1587.000000	0.285105
1588.000000	0.285073
1589.000000	0.285097
1590.000000	0.285054
1591.000000	0.285019
1592.000000	0.284969
1593.000000	0.284912
1594.000000	0.284845
1595.000000	0.284774
1596.000000	0.284767
1597.000000	0.284809
1598.000000	0.284829
1599.000000	0.284963
1600.000000	0.284927
1601.000000	0.284838
1602.000000	0.284791
1603.000000	0.284722
1604.000000	0.284690
1605.000000	0.284752
1606.000000	0.284719
1607.000000	0.284657
1608.000000	0.284606
1609.000000	0.284587
1610.000000	0.284546
1611.000000	0.284549
1612.000000	0.284489
1613.000000	0.284482
1614.000000	0.284401
1615.000000	0.284285
1616.000000	0.284266
1617.000000	0.284213
1618.000000	0.284170
1619.000000	0.284174
1620.000000	0.284147
1621.000000	0.284101
1622.000000	0.284130
1623.000000	0.284195
1624.000000	0.284187
1625.000000	0.284039
1626.000000	0.283937
1627.000000	0.283827
1628.000000	0.283759
1629.000000	0.283723
1630.000000	0.283689
1631.000000	0.283570
1632.000000	0.283507
1633.000000	0.283518
1634.000000	0.283501
1635.000000	0.283532
1636.000000	0.283526
1637.000000	0.283477
1638.000000	0.283469
1639.000000	0.283569
1640.000000	0.283553
1641.000000	0.283539
1642.000000	0.283585
1643.000000	0.283654
1644.000000	0.283652
1645.000000	0.283695
1646.000000	0.283632
1647.000000	0.283475
1648.000000	0.283305
1649.000000	0.283198
1650.000000	0.283083
1651.000000	0.282908
1652.000000	0.282865
1653.000000	0.282854
1654.000000	0.282864
1655.000000	0.282897
1656.000000	0.282828
1657.000000	0.282820
1658.000000	0.282744
1659.000000	0.282685
1660.000000	0.282653
1661.000000	0.282523
1662.000000	0.282452
1663.000000	0.282386
1664.000000	0.282315
1665.000000	0.282245
1666.000000	0.282257
1667.000000	0.282257
1668.000000	0.282186
1669.000000	0.282069
1670.000000	0.281984
1671.000000	0.281947
1672.000000	0.281964
1673.000000	0.282051
1674.000000	0.282084
1675.000000	0.282068
1676.000000	0.282037
1677.000000	0.282004
1678.000000	0.281935
1679.000000	0.281891
1680.000000	0.281901
1681.000000	0.281887
1682.000000	0.281871
1683.000000	0.281863
1684.000000	0.281780
1685.000000	0.281764
1686.000000	0.281720
1687.000000	0.281651
1688.000000	0.281539
1689.000000	0.281440
1690.000000	0.281408
1691.000000	0.281421
1692.000000	0.281444
1693.000000	0.281506
1694.000000	0.281495
1695.000000	0.281510
1696.000000	0.281499
1697.000000	0.281473
1698.000000	0.281478
1699.000000	0.281541
1700.000000	0.281672
1701.000000	0.281812
1702.000000	0.281852
1703.000000	0.281842
1704.000000	0.281849
1705.000000	0.281837
1706.000000	0.281782
1707.000000	0.281811
1708.000000	0.281858
1709.000000	0.281857
1710.000000	0.281973
1711.000000	0.282077
1712.000000	0.282226
1713.000000	0.282260
1714.000000	0.282276
1715.000000	0.282317
1716.000000	0.282301
1717.000000	0.282270
1718.000000	0.282250
1719.000000	0.282197
1720.000000	0.282108
1721.000000	0.282044
1722.000000	0.282026
1723.000000	0.281974
1724.000000	0.281889
1725.000000	0.281891
1726.000000	0.281862
1727.000000	0.281839
1728.000000	0.281818
1729.000000	0.281731
1730.000000	0.281708
1731.000000	0.281684
1732.000000	0.281688
1733.000000	0.281679
1734.000000	0.281518
1735.000000	0.281471
1736.000000	0.281404
1737.000000	0.281388
1738.000000	0.281492
1739.000000	0.281484
1740.000000	0.281434
1741.000000	0.281341
1742.000000	0.281180
1743.000000	0.281163
1744.000000	0.281154
1745.000000	0.281132
1746.000000	0.281175
1747.000000	0.281135
1748.000000	0.281060
1749.000000	0.280994
1750.000000	0.280902
1751.000000	0.280894
1752.000000	0.280931
1753.000000	0.280806
1754.000000	0.280797
1755.000000	0.280845
1756.000000	0.280833
1757.000000	0.280813
1758.000000	0.280891
1759.000000	0.280992
1760.000000	0.281052
1761.000000	0.281117
1762.000000	0.281223
1763.000000	0.281315
1764.000000	0.281412
1765.000000	0.281547
1766.000000	0.281706
1767.000000	0.281813
1768.000000	0.281828
1769.000000	0.281933
1770.000000	0.282016
1771.000000	0.281922
1772.000000	0.281931
1773.000000	0.281989
1774.000000	0.282006
1775.000000	0.282048
1776.000000	0.282086
1777.000000	0.282088
1778.000000	0.282098
1779.000000	0.282105
1780.000000	0.282112
1781.000000	0.282096
1782.000000	0.282058
1783.000000	0.282026
1784.000000	0.282103
1785.000000	0.282040
1786.000000	0.282140
1787.000000	0.282314
1788.000000	0.282358
1789.000000	0.282371
1790.000000	0.282106
1791.000000	0.281930
1792.000000	0.281779
1793.000000	0.281690
1794.000000	0.281792
1795.000000	0.281801
1796.000000	0.281779
1797.000000	0.281722
1798.000000	0.281537
1799.000000	0.281457
1800.000000	0.281461
1801.000000	0.281368
1802.000000	0.281390
1803.000000	0.281697
1804.000000	0.281930
1805.000000	0.282123
1806.000000	0.282404
1807.000000	0.283077
1808.000000	0.283208
1809.000000	0.283141
1810.000000	0.282874
1811.000000	0.282650
1812.000000	0.282009
1813.000000	0.281938
1814.000000	0.282157
1815.000000	0.282373
1816.000000	0.282982
1817.000000	0.283038
1818.000000	0.282866
1819.000000	0.283059
1820.000000	0.282526
1821.000000	0.282115
1822.000000	0.281860
1823.000000	0.281336
1824.000000	0.281234
1825.000000	0.281716
1826.000000	0.281674
1827.000000	0.281315
1828.000000	0.281405
1829.000000	0.280705
1830.000000	0.280261
1831.000000	0.280241
1832.000000	0.280597
1833.000000	0.280700
1834.000000	0.281311
1835.000000	0.281212
1836.000000	0.280301
1837.000000	0.280013
1838.000000	0.279469
1839.000000	0.279149
1840.000000	0.279714
1841.000000	0.280269
1842.000000	0.280483
1843.000000	0.280627
1844.000000	0.280836
1845.000000	0.280619
1846.000000	0.280796
1847.000000	0.281273
1848.000000	0.281358
1849.000000	0.281534
1850.000000	0.281778
1851.000000	0.281932
1852.000000	0.282026
1853.000000	0.282168
1854.000000	0.282046
1855.000000	0.281903
1856.000000	0.281564
1857.000000	0.281454
1858.000000	0.281210
1859.000000	0.281434
1860.000000	0.281871
1861.000000	0.281528
1862.000000	0.281222
1863.000000	0.280719
1864.000000	0.280513
1865.000000	0.280303
1866.000000	0.280189
1867.000000	0.280373
1868.000000	0.280193
1869.000000	0.279753
1870.000000	0.279536
1871.000000	0.279493
1872.000000	0.279275
1873.000000	0.279259
1874.000000	0.279365
1875.000000	0.279423
1876.000000	0.279140
1877.000000	0.279257
1878.000000	0.279374
1879.000000	0.279182
1880.000000	0.279360
1881.000000	0.279357
1882.000000	0.278861
1883.000000	0.278544
1884.000000	0.278182
1885.000000	0.277313
1886.000000	0.276780
1887.000000	0.276433
1888.000000	0.275804
1889.000000	0.275768
1890.000000	0.275612
1891.000000	0.275113
1892.000000	0.275267
1893.000000	0.274678
1894.000000	0.273872
1895.000000	0.273404
1896.000000	0.273366
1897.000000	0.272928
1898.000000	0.272642
1899.000000	0.272718
1900.000000	0.272832
1901.000000	0.272736
1902.000000	0.272417
1903.000000	0.272323
1904.000000	0.271829
1905.000000	0.271317
1906.000000	0.271038
1907.000000	0.271036
1908.000000	0.270877
1909.000000	0.271141
1910.000000	0.271547
1911.000000	0.271784
1912.000000	0.271911
1913.000000	0.271805
1914.000000	0.271843
1915.000000	0.271991
1916.000000	0.272495
1917.000000	0.272642
1918.000000	0.272933
1919.000000	0.272922
1920.000000	0.272839
1921.000000	0.272602
1922.000000	0.272609
1923.000000	0.272660
1924.000000	0.272477
1925.000000	0.272421
1926.000000	0.272494
1927.000000	0.272720
1928.000000	0.272852
1929.000000	0.273137
1930.000000	0.273317
1931.000000	0.273398
1932.000000	0.273439
1933.000000	0.273670
1934.000000	0.273654
1935.000000	0.273463
1936.000000	0.273402
1937.000000	0.273202
1938.000000	0.272883
1939.000000	0.272761
1940.000000	0.272769
1941.000000	0.272985
1942.000000	0.273160
1943.000000	0.273293
1944.000000	0.273389
1945.000000	0.273221
1946.000000	0.272990
1947.000000	0.273082
1948.000000	0.273463
1949.000000	0.273675
1950.000000	0.273948
1951.000000	0.274075
1952.000000	0.274200
1953.000000	0.273991
1954.000000	0.274084
1955.000000	0.273948
1956.000000	0.274028
1957.000000	0.274369
1958.000000	0.274515
1959.000000	0.274967
1960.000000	0.274923
1961.000000	0.274492
1962.000000	0.274254
1963.000000	0.273903
1964.000000	0.273833
1965.000000	0.273960
1966.000000	0.273944
1967.000000	0.274213
1968.000000	0.274255
1969.000000	0.274096
1970.000000	0.274292
1971.000000	0.274052
1972.000000	0.273623
1973.000000	0.273385
1974.000000	0.273209
1975.000000	0.273193
1976.000000	0.273487
1977.000000	0.273691
1978.000000	0.273662
1979.000000	0.274117
1980.000000	0.274527
1981.000000	0.274707
1982.000000	0.274885
1983.000000	0.274938
1984.000000	0.274912
1985.000000	0.274698
1986.000000	0.274629
1987.000000	0.274705
1988.000000	0.274704
1989.000000	0.274711
1990.000000	0.274896
1991.000000	0.274738
1992.000000	0.274207
1993.000000	0.273849
1994.000000	0.273625
1995.000000	0.273807
1996.000000	0.274351
1997.000000	0.274661
1998.000000	0.275163
1999.000000	0.275304
2000.000000	0.275133
2001.000000	0.275106
2002.000000	0.275182
2003.000000	0.275339
2004.000000	0.275715
2005.000000	0.275758
2006.000000	0.275648
2007.000000	0.275598
2008.000000	0.275534
2009.000000	0.275323
2010.000000	0.275479
2011.000000	0.275690
2012.000000	0.275819
2013.000000	0.276088
2014.000000	0.276203
2015.000000	0.276139
2016.000000	0.275914
2017.000000	0.275806
2018.000000	0.275788
2019.000000	0.275769
2020.000000	0.275773
2021.000000	0.275772
2022.000000	0.275742
2023.000000	0.275624
2024.000000	0.275581
2025.000000	0.275499
2026.000000	0.275148
2027.000000	0.274830
2028.000000	0.274722
2029.000000	0.274782
2030.000000	0.275293
2031.000000	0.275542
2032.000000	0.275639
2033.000000	0.275808
2034.000000	0.275739
2035.000000	0.275459
2036.000000	0.275160
2037.000000	0.274850
2038.000000	0.274650
2039.000000	0.274553
2040.000000	0.274331
2041.000000	0.273918
2042.000000	0.273720
2043.000000	0.273373
2044.000000	0.273139
2045.000000	0.273219
2046.000000	0.273162
2047.000000	0.273333
2048.000000	0.273574
2049.000000	0.273929
2050.000000	0.274338
2051.000000	0.274392
2052.000000	0.273871
2053.000000	0.273697
2054.000000	0.273720
2055.000000	0.273999
2056.000000	0.274194
2057.000000	0.275166
2058.000000	0.275483
2059.000000	0.275523
2060.000000	0.275361
2061.000000	0.274660
2062.000000	0.274295
2063.000000	0.273948
2064.000000	0.273594
2065.000000	0.273739
2066.000000	0.273553
2067.000000	0.273428
2068.000000	0.273137
2069.000000	0.273120
2070.000000	0.273268
2071.000000	0.273021
2072.000000	0.273041
2073.000000	0.272953
2074.000000	0.272732
2075.000000	0.272827
2076.000000	0.273318
2077.000000	0.273396
2078.000000	0.273456
2079.000000	0.273437
2080.000000	0.273206
2081.000000	0.273175
2082.000000	0.273351
2083.000000	0.273236
2084.000000	0.273173
2085.000000	0.273127
2086.000000	0.273029
2087.000000	0.273184
2088.000000	0.273034
2089.000000	0.273135
2090.000000	0.273051
2091.000000	0.272765
2092.000000	0.272600
2093.000000	0.272389
2094.000000	0.272350
2095.000000	0.272448
2096.000000	0.272679
2097.000000	0.273154
2098.000000	0.273387
2099.000000	0.273571
2100.000000	0.273767
2101.000000	0.273818
2102.000000	0.273896
2103.000000	0.273486
2104.000000	0.273013
2105.000000	0.272702
2106.000000	0.272029
2107.000000	0.271834
2108.000000	0.272193
2109.000000	0.272249
2110.000000	0.272137
2111.000000	0.272033
2112.000000	0.271736
2113.000000	0.271391
2114.000000	0.271291
2115.000000	0.271647
2116.000000	0.272384
2117.000000	0.272576
2118.000000	0.272329
2119.000000	0.272325
2120.000000	0.272403
2121.000000	0.272367
2122.000000	0.272433
2123.000000	0.272762
2124.000000	0.272803
2125.000000	0.272729
2126.000000	0.272590
2127.000000	0.272304
2128.000000	0.272362
2129.000000	0.272531
2130.000000	0.272272
2131.000000	0.272550
2132.000000	0.272897
2133.000000	0.273208
2134.000000	0.273432
2135.000000	0.273186
2136.000000	0.272976
2137.000000	0.272862
2138.000000	0.272666
2139.000000	0.272557
2140.000000	0.272646
2141.000000	0.272510
2142.000000	0.272048
2143.000000	0.271722
2144.000000	0.271569
2145.000000	0.271703
2146.000000	0.272164
2147.000000	0.272752
2148.000000	0.273567
2149.000000	0.273752
2150.000000	0.273410
2151.000000	0.273037
2152.000000	0.272487
2153.000000	0.272648
2154.000000	0.272589
2155.000000	0.272865
2156.000000	0.273007
2157.000000	0.273055
2158.000000	0.272980
2159.000000	0.272880
2160.000000	0.273027
2161.000000	0.273235
2162.000000	0.273399
2163.000000	0.273764
2164.000000	0.273927
2165.000000	0.273707
2166.000000	0.273599
2167.000000	0.274340
2168.000000	0.274589
2169.000000	0.274702
2170.000000	0.274808
2171.000000	0.274643
2172.000000	0.273840
2173.000000	0.273610
2174.000000	0.273669
2175.000000	0.273597
2176.000000	0.273462
2177.000000	0.273406
2178.000000	0.273566
2179.000000	0.273531
2180.000000	0.273261
2181.000000	0.273392
2182.000000	0.273174
2183.000000	0.272759
2184.000000	0.273159
2185.000000	0.273654
2186.000000	0.273696
2187.000000	0.274744
2188.000000	0.274921
2189.000000	0.275058
2190.000000	0.275466
2191.000000	0.275550
2192.000000	0.275466
2193.000000	0.275022
2194.000000	0.274585
2195.000000	0.273668
2196.000000	0.273522
2197.000000	0.274037
2198.000000	0.274185
2199.000000	0.275039
2200.000000	0.275155
2201.000000	0.274061
2202.000000	0.273480
2203.000000	0.272433
2204.000000	0.272168
2205.000000	0.272113
2206.000000	0.272346
2207.000000	0.272937
2208.000000	0.273064
2209.000000	0.272183
2210.000000	0.272813
2211.000000	0.273240
2212.000000	0.272980
2213.000000	0.272780
2214.000000	0.272796
2215.000000	0.271672
2216.000000	0.269341
2217.000000	0.268810
2218.000000	0.267873
2219.000000	0.268153
2220.000000	0.270929
2221.000000	0.271727
2222.000000	0.271682
2223.000000	0.272357
2224.000000	0.272930
2225.000000	0.272996
2226.000000	0.274208
2227.000000	0.274774
2228.000000	0.275370
2229.000000	0.274866
2230.000000	0.273481
2231.000000	0.273746
2232.000000	0.272806
2233.000000	0.272228
2234.000000	0.272753
2235.000000	0.272612
2236.000000	0.272351
2237.000000	0.272410
2238.000000	0.271914
2239.000000	0.270079
2240.000000	0.269598
2241.000000	0.270040
2242.000000	0.269850
2243.000000	0.270112
2244.000000	0.270248
2245.000000	0.269368
2246.000000	0.269369
2247.000000	0.270057
2248.000000	0.270235
2249.000000	0.270438
2250.000000	0.271007
2251.000000	0.271636
2252.000000	0.271345
2253.000000	0.271856
2254.000000	0.271684
2255.000000	0.270131
2256.000000	0.270476
2257.000000	0.270995
2258.000000	0.271034
2259.000000	0.271524
2260.000000	0.272280
2261.000000	0.272779
2262.000000	0.273501
2263.000000	0.273494
2264.000000	0.272678
2265.000000	0.272611
2266.000000	0.272322
2267.000000	0.272184
2268.000000	0.273248
2269.000000	0.273395
2270.000000	0.273161
2271.000000	0.272175
2272.000000	0.269377
2273.000000	0.268629
2274.000000	0.268153
2275.000000	0.268045
2276.000000	0.269166
2277.000000	0.271133
2278.000000	0.271638
2279.000000	0.271293
2280.000000	0.272091
2281.000000	0.272771
2282.000000	0.271571
2283.000000	0.271491
2284.000000	0.270755
2285.000000	0.267780
2286.000000	0.266852
2287.000000	0.266801
2288.000000	0.265863
2289.000000	0.266565
2290.000000	0.267628
2291.000000	0.268093
2292.000000	0.268151
2293.000000	0.267457
2294.000000	0.267610
2295.000000	0.267379
2296.000000	0.267456
2297.000000	0.269160
2298.000000	0.269099
2299.000000	0.267522
2300.000000	0.266681
2301.000000	0.265189
2302.000000	0.264565
2303.000000	0.264929
2304.000000	0.264306
2305.000000	0.262936
2306.000000	0.262946
2307.000000	0.262749
2308.000000	0.263738
2309.000000	0.266489
2310.000000	0.268334
2311.000000	0.268137
2312.000000	0.267429
2313.000000	0.266728
2314.000000	0.266085
2315.000000	0.265892
2316.000000	0.266159
2317.000000	0.266012
2318.000000	0.265079
2319.000000	0.265779
2320.000000	0.266725
2321.000000	0.266795
2322.000000	0.267585
2323.000000	0.267652
2324.000000	0.267465
2325.000000	0.267293
2326.000000	0.267597
2327.000000	0.269035
2328.000000	0.271111
2329.000000	0.273263
2330.000000	0.273383
2331.000000	0.271496
2332.000000	0.268297
2333.000000	0.265973
2334.000000	0.265379
2335.000000	0.265416
2336.000000	0.267263
2337.000000	0.267954
2338.000000	0.268097
2339.000000	0.268562
2340.000000	0.269379
2341.000000	0.268950
2342.000000	0.268542
2343.000000	0.267603
2344.000000	0.264221
2345.000000	0.263792
2346.000000	0.265104
2347.000000	0.266109
2348.000000	0.268513
2349.000000	0.270036
2350.000000	0.271968
2351.000000	0.271656
2352.000000	0.270471
2353.000000	0.271772
2354.000000	0.270829
2355.000000	0.268577
2356.000000	0.268759
2357.000000	0.267685
2358.000000	0.265014
2359.000000	0.265191
2360.000000	0.265293
2361.000000	0.264247
2362.000000	0.263690
2363.000000	0.265071
2364.000000	0.267095
2365.000000	0.268172
2366.000000	0.269593
2367.000000	0.268106
2368.000000	0.264895
2369.000000	0.262746
2370.000000	0.259974
2371.000000	0.259068
2372.000000	0.258703
2373.000000	0.257373
2374.000000	0.257579
2375.000000	0.258547
2376.000000	0.261040
2377.000000	0.261905
2378.000000	0.259961
2379.000000	0.258837
2380.000000	0.257120
2381.000000	0.257810
2382.000000	0.261361
2383.000000	0.260589
2384.000000	0.257728
2385.000000	0.255577
2386.000000	0.254243
2387.000000	0.257016
2388.000000	0.259706
2389.000000	0.259248
2390.000000	0.260131
2391.000000	0.260318
2392.000000	0.260280
2393.000000	0.263456
2394.000000	0.262329
2395.000000	0.261175
2396.000000	0.262640
2397.000000	0.264149
2398.000000	0.268514
2399.000000	0.268123
2400.000000	0.264394
2401.000000	0.262971
2402.000000	0.260056
2403.000000	0.258068
2404.000000	0.260279
2405.000000	0.258877
2406.000000	0.255572
2407.000000	0.256129
2408.000000	0.256934
2409.000000	0.258678
2410.000000	0.262404
2411.000000	0.263929
2412.000000	0.265392
2413.000000	0.268237
2414.000000	0.271124
2415.000000	0.275300
2416.000000	0.275714
2417.000000	0.275638
2418.000000	0.271620
2419.000000	0.262308
2420.000000	0.257141
2421.000000	0.252149
2422.000000	0.252070
2423.000000	0.257490
2424.000000	0.262838
2425.000000	0.266315
2426.000000	0.266296
2427.000000	0.269264
2428.000000	0.271822
2429.000000	0.270047
2430.000000	0.265318
2431.000000	0.260818
2432.000000	0.257655
2433.000000	0.255990
2434.000000	0.259592
2435.000000	0.259526
2436.000000	0.258391
2437.000000	0.259786
2438.000000	0.257545
2439.000000	0.259007
2440.000000	0.263651
2441.000000	0.266636
2442.000000	0.272036
2443.000000	0.275284
2444.000000	0.268480
2445.000000	0.263578
2446.000000	0.265851
2447.000000	0.262762
2448.000000	0.264367
2449.000000	0.266073
2450.000000	0.256662
2451.000000	0.258815
2452.000000	0.252985
2453.000000	0.241412
2454.000000	0.248737
2455.000000	0.248345
2456.000000	0.252868
2457.000000	0.264066
2458.000000	0.262207
2459.000000	0.252804
2460.000000	0.242838
2461.000000	0.247222
2462.000000	0.248008
2463.000000	0.245610
2464.000000	0.257599
2465.000000	0.262219
2466.000000	0.259346
2467.000000	0.264303
2468.000000	0.254242
2469.000000	0.233382
2470.000000	0.223910
2471.000000	0.209895
2472.000000	0.211676
2473.000000	0.215068
2474.000000	0.205046
2475.000000	0.214774
2476.000000	0.216737
2477.000000	0.214367
2478.000000	0.225180
2479.000000	0.231112
2480.000000	0.240769
2481.000000	0.253290
2482.000000	0.264438
2483.000000	0.259916
2484.000000	0.239044
2485.000000	0.234536
2486.000000	0.237438
2487.000000	0.254240
2488.000000	0.286126
2489.000000	0.297288
2490.000000	0.297603
2491.000000	0.296415
2492.000000	0.286860
2493.000000	0.279041
2494.000000	0.288089
2495.000000	0.303204
2496.000000	0.302529
2497.000000	0.300346
2498.000000	0.290083
2499.000000	0.267466
2500.000000	0.247715
