# Wavelength	SM1200H-20_HEX-10_FV7-70_00001.asd.rts.txt
350.000000	0.234272
351.000000	0.233253
352.000000	0.251982
353.000000	0.251659
354.000000	0.224873
355.000000	0.216227
356.000000	0.216028
357.000000	0.220185
358.000000	0.224454
359.000000	0.230017
360.000000	0.230065
361.000000	0.219576
362.000000	0.217260
363.000000	0.222462
364.000000	0.229764
365.000000	0.229279
366.000000	0.228474
367.000000	0.228169
368.000000	0.224194
369.000000	0.226654
370.000000	0.230421
371.000000	0.227740
372.000000	0.229843
373.000000	0.232005
374.000000	0.230839
375.000000	0.227914
376.000000	0.229308
377.000000	0.233185
378.000000	0.230213
379.000000	0.231162
380.000000	0.233368
381.000000	0.231808
382.000000	0.231373
383.000000	0.231285
384.000000	0.231002
385.000000	0.231697
386.000000	0.232589
387.000000	0.233164
388.000000	0.232677
389.000000	0.232793
390.000000	0.233770
391.000000	0.234957
392.000000	0.235041
393.000000	0.235347
394.000000	0.236759
395.000000	0.237815
396.000000	0.238046
397.000000	0.237629
398.000000	0.237648
399.000000	0.237738
400.000000	0.237724
401.000000	0.237324
402.000000	0.236443
403.000000	0.235912
404.000000	0.236409
405.000000	0.236713
406.000000	0.237252
407.000000	0.238211
408.000000	0.239293
409.000000	0.239391
410.000000	0.239064
411.000000	0.239824
412.000000	0.240416
413.000000	0.240717
414.000000	0.240931
415.000000	0.241494
416.000000	0.241878
417.000000	0.241926
418.000000	0.242451
419.000000	0.242758
420.000000	0.242720
421.000000	0.242651
422.000000	0.242500
423.000000	0.242707
424.000000	0.243763
425.000000	0.244539
426.000000	0.244676
427.000000	0.244357
428.000000	0.245174
429.000000	0.245732
430.000000	0.245711
431.000000	0.246180
432.000000	0.246428
433.000000	0.246434
434.000000	0.246555
435.000000	0.246466
436.000000	0.246821
437.000000	0.247946
438.000000	0.248084
439.000000	0.247764
440.000000	0.247515
441.000000	0.247276
442.000000	0.247464
443.000000	0.247986
444.000000	0.248538
445.000000	0.248594
446.000000	0.248715
447.000000	0.249385
448.000000	0.249480
449.000000	0.249468
450.000000	0.249743
451.000000	0.250031
452.000000	0.250258
453.000000	0.250458
454.000000	0.251048
455.000000	0.251532
456.000000	0.251789
457.000000	0.251711
458.000000	0.251953
459.000000	0.252298
460.000000	0.252519
461.000000	0.252826
462.000000	0.252855
463.000000	0.252498
464.000000	0.252604
465.000000	0.253279
466.000000	0.254024
467.000000	0.254008
468.000000	0.254244
469.000000	0.254505
470.000000	0.254508
471.000000	0.254585
472.000000	0.254653
473.000000	0.254729
474.000000	0.255111
475.000000	0.255361
476.000000	0.255495
477.000000	0.255660
478.000000	0.255648
479.000000	0.255784
480.000000	0.256212
481.000000	0.256500
482.000000	0.256840
483.000000	0.257201
484.000000	0.257384
485.000000	0.257509
486.000000	0.257788
487.000000	0.257998
488.000000	0.258261
489.000000	0.258562
490.000000	0.258770
491.000000	0.258954
492.000000	0.259170
493.000000	0.259342
494.000000	0.259639
495.000000	0.259969
496.000000	0.260225
497.000000	0.260511
498.000000	0.260802
499.000000	0.261118
500.000000	0.261332
501.000000	0.261516
502.000000	0.261742
503.000000	0.262000
504.000000	0.262332
505.000000	0.262551
506.000000	0.262567
507.000000	0.262933
508.000000	0.263278
509.000000	0.263424
510.000000	0.263840
511.000000	0.264117
512.000000	0.264273
513.000000	0.264591
514.000000	0.264934
515.000000	0.265265
516.000000	0.265522
517.000000	0.265860
518.000000	0.266258
519.000000	0.266583
520.000000	0.266836
521.000000	0.267048
522.000000	0.267274
523.000000	0.267602
524.000000	0.267901
525.000000	0.268103
526.000000	0.268225
527.000000	0.268509
528.000000	0.268813
529.000000	0.269009
530.000000	0.269293
531.000000	0.269624
532.000000	0.269876
533.000000	0.270085
534.000000	0.270398
535.000000	0.270781
536.000000	0.271050
537.000000	0.271381
538.000000	0.271703
539.000000	0.271855
540.000000	0.271988
541.000000	0.272176
542.000000	0.272482
543.000000	0.272815
544.000000	0.273071
545.000000	0.273210
546.000000	0.273555
547.000000	0.273934
548.000000	0.274290
549.000000	0.274527
550.000000	0.274746
551.000000	0.275015
552.000000	0.275322
553.000000	0.275623
554.000000	0.275887
555.000000	0.276126
556.000000	0.276471
557.000000	0.276760
558.000000	0.277062
559.000000	0.277379
560.000000	0.277686
561.000000	0.278058
562.000000	0.278459
563.000000	0.278757
564.000000	0.279051
565.000000	0.279353
566.000000	0.279686
567.000000	0.279952
568.000000	0.280126
569.000000	0.280443
570.000000	0.280774
571.000000	0.281081
572.000000	0.281418
573.000000	0.281719
574.000000	0.281981
575.000000	0.282281
576.000000	0.282586
577.000000	0.282870
578.000000	0.283173
579.000000	0.283465
580.000000	0.283728
581.000000	0.283974
582.000000	0.284293
583.000000	0.284542
584.000000	0.284750
585.000000	0.285040
586.000000	0.285265
587.000000	0.285478
588.000000	0.285758
589.000000	0.285992
590.000000	0.286267
591.000000	0.286616
592.000000	0.286897
593.000000	0.287207
594.000000	0.287531
595.000000	0.287745
596.000000	0.287989
597.000000	0.288253
598.000000	0.288374
599.000000	0.288446
600.000000	0.288585
601.000000	0.288791
602.000000	0.289032
603.000000	0.289209
604.000000	0.289326
605.000000	0.289554
606.000000	0.289740
607.000000	0.289890
608.000000	0.290095
609.000000	0.290284
610.000000	0.290463
611.000000	0.290658
612.000000	0.290845
613.000000	0.291013
614.000000	0.291170
615.000000	0.291195
616.000000	0.291285
617.000000	0.291435
618.000000	0.291531
619.000000	0.291640
620.000000	0.291767
621.000000	0.291955
622.000000	0.292110
623.000000	0.292258
624.000000	0.292426
625.000000	0.292573
626.000000	0.292699
627.000000	0.292809
628.000000	0.292899
629.000000	0.293127
630.000000	0.293314
631.000000	0.293381
632.000000	0.293516
633.000000	0.293677
634.000000	0.293785
635.000000	0.293952
636.000000	0.294128
637.000000	0.294262
638.000000	0.294390
639.000000	0.294507
640.000000	0.294667
641.000000	0.294814
642.000000	0.294991
643.000000	0.295152
644.000000	0.295244
645.000000	0.295337
646.000000	0.295482
647.000000	0.295660
648.000000	0.295800
649.000000	0.295916
650.000000	0.296034
651.000000	0.296272
652.000000	0.296354
653.000000	0.296410
654.000000	0.296656
655.000000	0.296908
656.000000	0.297139
657.000000	0.297303
658.000000	0.297465
659.000000	0.297630
660.000000	0.297773
661.000000	0.297867
662.000000	0.297964
663.000000	0.298107
664.000000	0.298227
665.000000	0.298385
666.000000	0.298565
667.000000	0.298705
668.000000	0.298799
669.000000	0.298930
670.000000	0.299125
671.000000	0.299255
672.000000	0.299404
673.000000	0.299569
674.000000	0.299700
675.000000	0.299803
676.000000	0.299943
677.000000	0.300189
678.000000	0.300397
679.000000	0.300561
680.000000	0.300709
681.000000	0.300871
682.000000	0.301032
683.000000	0.301138
684.000000	0.301316
685.000000	0.301423
686.000000	0.301533
687.000000	0.301728
688.000000	0.301953
689.000000	0.302150
690.000000	0.302326
691.000000	0.302539
692.000000	0.302717
693.000000	0.302884
694.000000	0.302988
695.000000	0.303090
696.000000	0.303216
697.000000	0.303375
698.000000	0.303504
699.000000	0.303656
700.000000	0.303876
701.000000	0.304078
702.000000	0.304242
703.000000	0.304350
704.000000	0.304428
705.000000	0.304544
706.000000	0.304665
707.000000	0.304806
708.000000	0.304935
709.000000	0.305082
710.000000	0.305276
711.000000	0.305401
712.000000	0.305528
713.000000	0.305700
714.000000	0.305858
715.000000	0.306010
716.000000	0.306143
717.000000	0.306222
718.000000	0.306381
719.000000	0.306548
720.000000	0.306671
721.000000	0.306825
722.000000	0.306930
723.000000	0.307014
724.000000	0.307059
725.000000	0.307121
726.000000	0.307249
727.000000	0.307326
728.000000	0.307485
729.000000	0.307712
730.000000	0.307908
731.000000	0.308030
732.000000	0.308162
733.000000	0.308338
734.000000	0.308403
735.000000	0.308447
736.000000	0.308581
737.000000	0.308678
738.000000	0.308827
739.000000	0.309005
740.000000	0.309036
741.000000	0.309133
742.000000	0.309215
743.000000	0.309254
744.000000	0.309367
745.000000	0.309329
746.000000	0.309281
747.000000	0.309360
748.000000	0.309502
749.000000	0.309654
750.000000	0.309754
751.000000	0.309860
752.000000	0.309912
753.000000	0.309946
754.000000	0.310050
755.000000	0.310191
756.000000	0.310341
757.000000	0.310428
758.000000	0.310493
759.000000	0.310575
760.000000	0.310616
761.000000	0.310637
762.000000	0.310623
763.000000	0.310593
764.000000	0.310666
765.000000	0.310744
766.000000	0.310781
767.000000	0.310768
768.000000	0.310841
769.000000	0.310940
770.000000	0.311041
771.000000	0.311182
772.000000	0.311287
773.000000	0.311319
774.000000	0.311396
775.000000	0.311459
776.000000	0.311513
777.000000	0.311549
778.000000	0.311562
779.000000	0.311596
780.000000	0.311647
781.000000	0.311646
782.000000	0.311597
783.000000	0.311619
784.000000	0.311662
785.000000	0.311745
786.000000	0.311811
787.000000	0.311820
788.000000	0.311788
789.000000	0.311811
790.000000	0.311837
791.000000	0.311801
792.000000	0.311869
793.000000	0.311996
794.000000	0.312104
795.000000	0.312115
796.000000	0.312101
797.000000	0.312094
798.000000	0.312091
799.000000	0.312163
800.000000	0.312245
801.000000	0.312253
802.000000	0.312252
803.000000	0.312173
804.000000	0.312067
805.000000	0.312090
806.000000	0.312178
807.000000	0.312327
808.000000	0.312400
809.000000	0.312455
810.000000	0.312511
811.000000	0.312559
812.000000	0.312578
813.000000	0.312563
814.000000	0.312520
815.000000	0.312488
816.000000	0.312487
817.000000	0.312528
818.000000	0.312524
819.000000	0.312516
820.000000	0.312508
821.000000	0.312468
822.000000	0.312471
823.000000	0.312417
824.000000	0.312313
825.000000	0.312308
826.000000	0.312247
827.000000	0.312200
828.000000	0.312234
829.000000	0.312199
830.000000	0.312186
831.000000	0.312229
832.000000	0.312166
833.000000	0.312140
834.000000	0.312182
835.000000	0.312277
836.000000	0.312170
837.000000	0.312042
838.000000	0.311953
839.000000	0.311829
840.000000	0.311731
841.000000	0.311615
842.000000	0.311430
843.000000	0.311423
844.000000	0.311391
845.000000	0.311307
846.000000	0.311412
847.000000	0.311495
848.000000	0.311504
849.000000	0.311482
850.000000	0.311440
851.000000	0.311353
852.000000	0.311277
853.000000	0.311279
854.000000	0.311092
855.000000	0.310964
856.000000	0.311028
857.000000	0.310929
858.000000	0.310923
859.000000	0.310987
860.000000	0.310813
861.000000	0.310691
862.000000	0.310654
863.000000	0.310560
864.000000	0.310376
865.000000	0.310220
866.000000	0.310179
867.000000	0.310182
868.000000	0.310209
869.000000	0.310155
870.000000	0.310021
871.000000	0.309857
872.000000	0.309758
873.000000	0.309678
874.000000	0.309515
875.000000	0.309216
876.000000	0.308954
877.000000	0.308888
878.000000	0.308744
879.000000	0.308634
880.000000	0.308475
881.000000	0.308226
882.000000	0.307996
883.000000	0.307783
884.000000	0.307494
885.000000	0.307337
886.000000	0.307242
887.000000	0.307148
888.000000	0.306967
889.000000	0.306784
890.000000	0.306587
891.000000	0.306540
892.000000	0.306462
893.000000	0.306403
894.000000	0.306429
895.000000	0.306194
896.000000	0.305933
897.000000	0.305696
898.000000	0.305460
899.000000	0.305151
900.000000	0.304862
901.000000	0.304626
902.000000	0.304518
903.000000	0.304517
904.000000	0.304430
905.000000	0.304035
906.000000	0.303861
907.000000	0.303661
908.000000	0.303393
909.000000	0.303091
910.000000	0.302862
911.000000	0.302667
912.000000	0.302473
913.000000	0.302341
914.000000	0.302065
915.000000	0.301780
916.000000	0.301693
917.000000	0.301423
918.000000	0.301254
919.000000	0.301319
920.000000	0.301147
921.000000	0.300923
922.000000	0.300719
923.000000	0.300523
924.000000	0.300307
925.000000	0.299968
926.000000	0.299602
927.000000	0.299543
928.000000	0.299290
929.000000	0.298926
930.000000	0.298718
931.000000	0.298712
932.000000	0.298499
933.000000	0.298104
934.000000	0.297931
935.000000	0.297757
936.000000	0.297527
937.000000	0.297162
938.000000	0.296854
939.000000	0.296501
940.000000	0.296191
941.000000	0.296229
942.000000	0.296003
943.000000	0.295845
944.000000	0.295781
945.000000	0.295502
946.000000	0.295214
947.000000	0.295015
948.000000	0.294847
949.000000	0.294483
950.000000	0.294072
951.000000	0.293759
952.000000	0.293753
953.000000	0.293585
954.000000	0.293287
955.000000	0.292937
956.000000	0.292755
957.000000	0.292543
958.000000	0.292451
959.000000	0.292697
960.000000	0.292053
961.000000	0.291543
962.000000	0.291460
963.000000	0.291129
964.000000	0.290705
965.000000	0.290409
966.000000	0.290234
967.000000	0.289955
968.000000	0.289611
969.000000	0.289345
970.000000	0.289388
971.000000	0.289140
972.000000	0.288929
973.000000	0.288737
974.000000	0.288241
975.000000	0.287940
976.000000	0.287600
977.000000	0.287073
978.000000	0.286942
979.000000	0.286995
980.000000	0.286888
981.000000	0.286730
982.000000	0.286613
983.000000	0.286428
984.000000	0.286204
985.000000	0.285989
986.000000	0.285990
987.000000	0.285990
988.000000	0.285713
989.000000	0.285335
990.000000	0.285053
991.000000	0.284855
992.000000	0.284741
993.000000	0.284987
994.000000	0.284939
995.000000	0.284698
996.000000	0.284554
997.000000	0.284542
998.000000	0.284808
999.000000	0.285146
1000.000000	0.284636
1001.000000	0.285491
1002.000000	0.285096
1003.000000	0.284003
1004.000000	0.283748
1005.000000	0.284209
1006.000000	0.283874
1007.000000	0.283397
1008.000000	0.283303
1009.000000	0.282689
1010.000000	0.282172
1011.000000	0.282289
1012.000000	0.282806
1013.000000	0.283327
1014.000000	0.283621
1015.000000	0.283525
1016.000000	0.283706
1017.000000	0.283510
1018.000000	0.282463
1019.000000	0.282268
1020.000000	0.282642
1021.000000	0.282284
1022.000000	0.282337
1023.000000	0.282463
1024.000000	0.282193
1025.000000	0.281307
1026.000000	0.281532
1027.000000	0.282030
1028.000000	0.282135
1029.000000	0.282181
1030.000000	0.282129
1031.000000	0.281866
1032.000000	0.281258
1033.000000	0.280922
1034.000000	0.281088
1035.000000	0.281705
1036.000000	0.281820
1037.000000	0.282284
1038.000000	0.282431
1039.000000	0.282181
1040.000000	0.281940
1041.000000	0.282134
1042.000000	0.282342
1043.000000	0.282700
1044.000000	0.283160
1045.000000	0.283006
1046.000000	0.282979
1047.000000	0.283072
1048.000000	0.282871
1049.000000	0.282829
1050.000000	0.283113
1051.000000	0.283222
1052.000000	0.283070
1053.000000	0.283074
1054.000000	0.283294
1055.000000	0.283683
1056.000000	0.284371
1057.000000	0.284758
1058.000000	0.285072
1059.000000	0.285172
1060.000000	0.285060
1061.000000	0.285077
1062.000000	0.284736
1063.000000	0.284574
1064.000000	0.284673
1065.000000	0.284764
1066.000000	0.284800
1067.000000	0.285073
1068.000000	0.285349
1069.000000	0.285489
1070.000000	0.285639
1071.000000	0.285951
1072.000000	0.286320
1073.000000	0.286870
1074.000000	0.287014
1075.000000	0.287008
1076.000000	0.287331
1077.000000	0.287205
1078.000000	0.287102
1079.000000	0.287309
1080.000000	0.287992
1081.000000	0.288257
1082.000000	0.288542
1083.000000	0.288819
1084.000000	0.289119
1085.000000	0.289287
1086.000000	0.289187
1087.000000	0.289425
1088.000000	0.289618
1089.000000	0.289837
1090.000000	0.290400
1091.000000	0.290781
1092.000000	0.290778
1093.000000	0.290859
1094.000000	0.290845
1095.000000	0.290484
1096.000000	0.290642
1097.000000	0.291134
1098.000000	0.291301
1099.000000	0.291439
1100.000000	0.291711
1101.000000	0.291654
1102.000000	0.291918
1103.000000	0.292734
1104.000000	0.293098
1105.000000	0.293336
1106.000000	0.293540
1107.000000	0.293209
1108.000000	0.293285
1109.000000	0.293655
1110.000000	0.294080
1111.000000	0.294327
1112.000000	0.294723
1113.000000	0.294983
1114.000000	0.295058
1115.000000	0.295135
1116.000000	0.295212
1117.000000	0.295350
1118.000000	0.295460
1119.000000	0.295415
1120.000000	0.295460
1121.000000	0.295368
1122.000000	0.294905
1123.000000	0.294994
1124.000000	0.295125
1125.000000	0.295315
1126.000000	0.295775
1127.000000	0.296046
1128.000000	0.296246
1129.000000	0.296398
1130.000000	0.296566
1131.000000	0.296743
1132.000000	0.296751
1133.000000	0.296594
1134.000000	0.296774
1135.000000	0.296940
1136.000000	0.297137
1137.000000	0.297710
1138.000000	0.297899
1139.000000	0.297883
1140.000000	0.298018
1141.000000	0.297976
1142.000000	0.298099
1143.000000	0.298334
1144.000000	0.298592
1145.000000	0.298765
1146.000000	0.298928
1147.000000	0.298957
1148.000000	0.298753
1149.000000	0.298754
1150.000000	0.298691
1151.000000	0.298849
1152.000000	0.299225
1153.000000	0.299397
1154.000000	0.299505
1155.000000	0.299643
1156.000000	0.299732
1157.000000	0.299790
1158.000000	0.299907
1159.000000	0.299913
1160.000000	0.299716
1161.000000	0.299622
1162.000000	0.299651
1163.000000	0.299638
1164.000000	0.299580
1165.000000	0.299698
1166.000000	0.299791
1167.000000	0.299930
1168.000000	0.299827
1169.000000	0.299600
1170.000000	0.299598
1171.000000	0.299597
1172.000000	0.299625
1173.000000	0.299809
1174.000000	0.299912
1175.000000	0.299879
1176.000000	0.299836
1177.000000	0.299899
1178.000000	0.299964
1179.000000	0.299993
1180.000000	0.299942
1181.000000	0.300013
1182.000000	0.299944
1183.000000	0.300068
1184.000000	0.300189
1185.000000	0.300213
1186.000000	0.300347
1187.000000	0.300337
1188.000000	0.300073
1189.000000	0.300004
1190.000000	0.300078
1191.000000	0.300065
1192.000000	0.300145
1193.000000	0.300264
1194.000000	0.300266
1195.000000	0.300314
1196.000000	0.300342
1197.000000	0.300375
1198.000000	0.300447
1199.000000	0.300476
1200.000000	0.300459
1201.000000	0.300493
1202.000000	0.300509
1203.000000	0.300472
1204.000000	0.300414
1205.000000	0.300445
1206.000000	0.300364
1207.000000	0.300230
1208.000000	0.300263
1209.000000	0.300450
1210.000000	0.300491
1211.000000	0.300645
1212.000000	0.300619
1213.000000	0.300384
1214.000000	0.300333
1215.000000	0.300308
1216.000000	0.300286
1217.000000	0.300261
1218.000000	0.300247
1219.000000	0.300283
1220.000000	0.300338
1221.000000	0.300277
1222.000000	0.300249
1223.000000	0.300147
1224.000000	0.300032
1225.000000	0.299963
1226.000000	0.299971
1227.000000	0.300015
1228.000000	0.300049
1229.000000	0.300063
1230.000000	0.300119
1231.000000	0.300050
1232.000000	0.299999
1233.000000	0.300073
1234.000000	0.300183
1235.000000	0.300188
1236.000000	0.300133
1237.000000	0.300043
1238.000000	0.299656
1239.000000	0.299556
1240.000000	0.299575
1241.000000	0.299725
1242.000000	0.299794
1243.000000	0.299838
1244.000000	0.299726
1245.000000	0.299604
1246.000000	0.299658
1247.000000	0.299734
1248.000000	0.299775
1249.000000	0.299882
1250.000000	0.299855
1251.000000	0.299832
1252.000000	0.299856
1253.000000	0.299990
1254.000000	0.299987
1255.000000	0.299914
1256.000000	0.299884
1257.000000	0.299819
1258.000000	0.299820
1259.000000	0.299843
1260.000000	0.299900
1261.000000	0.299929
1262.000000	0.299918
1263.000000	0.299889
1264.000000	0.299875
1265.000000	0.300009
1266.000000	0.300131
1267.000000	0.300119
1268.000000	0.300114
1269.000000	0.299928
1270.000000	0.299759
1271.000000	0.299835
1272.000000	0.299944
1273.000000	0.299942
1274.000000	0.299895
1275.000000	0.299843
1276.000000	0.299736
1277.000000	0.299673
1278.000000	0.299546
1279.000000	0.299471
1280.000000	0.299255
1281.000000	0.299153
1282.000000	0.299277
1283.000000	0.299335
1284.000000	0.299322
1285.000000	0.299327
1286.000000	0.299307
1287.000000	0.299231
1288.000000	0.299283
1289.000000	0.299323
1290.000000	0.299286
1291.000000	0.299268
1292.000000	0.299223
1293.000000	0.299169
1294.000000	0.299113
1295.000000	0.299175
1296.000000	0.299115
1297.000000	0.298945
1298.000000	0.298997
1299.000000	0.298950
1300.000000	0.298963
1301.000000	0.299104
1302.000000	0.299051
1303.000000	0.298945
1304.000000	0.298922
1305.000000	0.298938
1306.000000	0.298944
1307.000000	0.299085
1308.000000	0.299159
1309.000000	0.299167
1310.000000	0.299228
1311.000000	0.299375
1312.000000	0.299407
1313.000000	0.299371
1314.000000	0.299271
1315.000000	0.299065
1316.000000	0.299040
1317.000000	0.299060
1318.000000	0.298931
1319.000000	0.298878
1320.000000	0.298844
1321.000000	0.298797
1322.000000	0.298835
1323.000000	0.298849
1324.000000	0.298864
1325.000000	0.298870
1326.000000	0.298737
1327.000000	0.298629
1328.000000	0.298676
1329.000000	0.298601
1330.000000	0.298570
1331.000000	0.298479
1332.000000	0.298277
1333.000000	0.298215
1334.000000	0.298253
1335.000000	0.298260
1336.000000	0.298402
1337.000000	0.298352
1338.000000	0.298088
1339.000000	0.297931
1340.000000	0.297856
1341.000000	0.297784
1342.000000	0.297749
1343.000000	0.297649
1344.000000	0.297534
1345.000000	0.297577
1346.000000	0.297628
1347.000000	0.297643
1348.000000	0.297598
1349.000000	0.297356
1350.000000	0.297270
1351.000000	0.297241
1352.000000	0.297237
1353.000000	0.297156
1354.000000	0.297051
1355.000000	0.297046
1356.000000	0.297015
1357.000000	0.296944
1358.000000	0.296987
1359.000000	0.296973
1360.000000	0.296929
1361.000000	0.296925
1362.000000	0.296894
1363.000000	0.296766
1364.000000	0.296702
1365.000000	0.296674
1366.000000	0.296632
1367.000000	0.296593
1368.000000	0.296502
1369.000000	0.296509
1370.000000	0.296453
1371.000000	0.296370
1372.000000	0.296230
1373.000000	0.295979
1374.000000	0.295752
1375.000000	0.295628
1376.000000	0.295611
1377.000000	0.295558
1378.000000	0.295370
1379.000000	0.295062
1380.000000	0.294629
1381.000000	0.294185
1382.000000	0.293812
1383.000000	0.293261
1384.000000	0.292674
1385.000000	0.292229
1386.000000	0.291676
1387.000000	0.291209
1388.000000	0.290941
1389.000000	0.290664
1390.000000	0.290521
1391.000000	0.290375
1392.000000	0.290236
1393.000000	0.290240
1394.000000	0.290398
1395.000000	0.290490
1396.000000	0.290791
1397.000000	0.290844
1398.000000	0.290644
1399.000000	0.290596
1400.000000	0.290521
1401.000000	0.290376
1402.000000	0.290300
1403.000000	0.290119
1404.000000	0.289994
1405.000000	0.289780
1406.000000	0.289461
1407.000000	0.289344
1408.000000	0.289151
1409.000000	0.288980
1410.000000	0.288919
1411.000000	0.288795
1412.000000	0.288589
1413.000000	0.288512
1414.000000	0.288546
1415.000000	0.288546
1416.000000	0.288556
1417.000000	0.288577
1418.000000	0.288462
1419.000000	0.288351
1420.000000	0.288272
1421.000000	0.288254
1422.000000	0.288281
1423.000000	0.288375
1424.000000	0.288336
1425.000000	0.288235
1426.000000	0.288134
1427.000000	0.288166
1428.000000	0.288232
1429.000000	0.288218
1430.000000	0.288189
1431.000000	0.288121
1432.000000	0.288069
1433.000000	0.288077
1434.000000	0.288087
1435.000000	0.288183
1436.000000	0.288178
1437.000000	0.288179
1438.000000	0.288098
1439.000000	0.287899
1440.000000	0.287861
1441.000000	0.287917
1442.000000	0.287883
1443.000000	0.287807
1444.000000	0.287775
1445.000000	0.287686
1446.000000	0.287648
1447.000000	0.287606
1448.000000	0.287553
1449.000000	0.287462
1450.000000	0.287334
1451.000000	0.287343
1452.000000	0.287358
1453.000000	0.287344
1454.000000	0.287281
1455.000000	0.287223
1456.000000	0.287336
1457.000000	0.287430
1458.000000	0.287469
1459.000000	0.287631
1460.000000	0.287788
1461.000000	0.287851
1462.000000	0.287986
1463.000000	0.287914
1464.000000	0.287700
1465.000000	0.287723
1466.000000	0.287724
1467.000000	0.287773
1468.000000	0.287961
1469.000000	0.288087
1470.000000	0.288118
1471.000000	0.288212
1472.000000	0.288162
1473.000000	0.288047
1474.000000	0.288048
1475.000000	0.288103
1476.000000	0.288107
1477.000000	0.288120
1478.000000	0.288060
1479.000000	0.287921
1480.000000	0.287950
1481.000000	0.287978
1482.000000	0.288153
1483.000000	0.288251
1484.000000	0.288313
1485.000000	0.288386
1486.000000	0.288474
1487.000000	0.288543
1488.000000	0.288638
1489.000000	0.288760
1490.000000	0.288677
1491.000000	0.288758
1492.000000	0.288956
1493.000000	0.289080
1494.000000	0.289210
1495.000000	0.289314
1496.000000	0.289347
1497.000000	0.289372
1498.000000	0.289389
1499.000000	0.289444
1500.000000	0.289478
1501.000000	0.289532
1502.000000	0.289540
1503.000000	0.289513
1504.000000	0.289539
1505.000000	0.289507
1506.000000	0.289447
1507.000000	0.289489
1508.000000	0.289576
1509.000000	0.289678
1510.000000	0.289807
1511.000000	0.289885
1512.000000	0.289917
1513.000000	0.289957
1514.000000	0.289982
1515.000000	0.290035
1516.000000	0.290163
1517.000000	0.290145
1518.000000	0.290115
1519.000000	0.290106
1520.000000	0.290005
1521.000000	0.289935
1522.000000	0.290052
1523.000000	0.290184
1524.000000	0.290195
1525.000000	0.290233
1526.000000	0.290180
1527.000000	0.290094
1528.000000	0.290108
1529.000000	0.290063
1530.000000	0.289980
1531.000000	0.290111
1532.000000	0.290269
1533.000000	0.290361
1534.000000	0.290502
1535.000000	0.290555
1536.000000	0.290566
1537.000000	0.290724
1538.000000	0.290801
1539.000000	0.290774
1540.000000	0.290857
1541.000000	0.291005
1542.000000	0.291138
1543.000000	0.291185
1544.000000	0.291108
1545.000000	0.291018
1546.000000	0.290872
1547.000000	0.290807
1548.000000	0.290864
1549.000000	0.290840
1550.000000	0.290871
1551.000000	0.290982
1552.000000	0.291016
1553.000000	0.291029
1554.000000	0.291056
1555.000000	0.291099
1556.000000	0.291114
1557.000000	0.291110
1558.000000	0.291145
1559.000000	0.291073
1560.000000	0.291119
1561.000000	0.291344
1562.000000	0.291362
1563.000000	0.291430
1564.000000	0.291400
1565.000000	0.291153
1566.000000	0.291011
1567.000000	0.290920
1568.000000	0.290917
1569.000000	0.291117
1570.000000	0.291171
1571.000000	0.291226
1572.000000	0.291208
1573.000000	0.291056
1574.000000	0.291015
1575.000000	0.291042
1576.000000	0.291063
1577.000000	0.291113
1578.000000	0.291099
1579.000000	0.291087
1580.000000	0.291097
1581.000000	0.291144
1582.000000	0.291199
1583.000000	0.291353
1584.000000	0.291296
1585.000000	0.291189
1586.000000	0.291148
1587.000000	0.290993
1588.000000	0.290930
1589.000000	0.290992
1590.000000	0.290983
1591.000000	0.290936
1592.000000	0.290938
1593.000000	0.291039
1594.000000	0.291017
1595.000000	0.291022
1596.000000	0.291000
1597.000000	0.290888
1598.000000	0.290864
1599.000000	0.290903
1600.000000	0.290827
1601.000000	0.290818
1602.000000	0.290754
1603.000000	0.290650
1604.000000	0.290604
1605.000000	0.290564
1606.000000	0.290516
1607.000000	0.290570
1608.000000	0.290487
1609.000000	0.290394
1610.000000	0.290281
1611.000000	0.290040
1612.000000	0.289955
1613.000000	0.290060
1614.000000	0.290087
1615.000000	0.290258
1616.000000	0.290341
1617.000000	0.290295
1618.000000	0.290243
1619.000000	0.290141
1620.000000	0.290051
1621.000000	0.289925
1622.000000	0.289943
1623.000000	0.290038
1624.000000	0.290058
1625.000000	0.289938
1626.000000	0.289943
1627.000000	0.289952
1628.000000	0.290063
1629.000000	0.290363
1630.000000	0.290502
1631.000000	0.290564
1632.000000	0.290541
1633.000000	0.290442
1634.000000	0.290381
1635.000000	0.290236
1636.000000	0.290225
1637.000000	0.290360
1638.000000	0.290299
1639.000000	0.290283
1640.000000	0.290225
1641.000000	0.290045
1642.000000	0.289971
1643.000000	0.289964
1644.000000	0.290009
1645.000000	0.290136
1646.000000	0.290172
1647.000000	0.290280
1648.000000	0.290331
1649.000000	0.290381
1650.000000	0.290422
1651.000000	0.290484
1652.000000	0.290576
1653.000000	0.290683
1654.000000	0.290631
1655.000000	0.290415
1656.000000	0.290339
1657.000000	0.290252
1658.000000	0.290160
1659.000000	0.290338
1660.000000	0.290355
1661.000000	0.290079
1662.000000	0.290094
1663.000000	0.290241
1664.000000	0.290288
1665.000000	0.290383
1666.000000	0.290528
1667.000000	0.290609
1668.000000	0.290632
1669.000000	0.290662
1670.000000	0.290581
1671.000000	0.290394
1672.000000	0.290447
1673.000000	0.290633
1674.000000	0.290571
1675.000000	0.290659
1676.000000	0.290674
1677.000000	0.290492
1678.000000	0.290487
1679.000000	0.290569
1680.000000	0.290482
1681.000000	0.290458
1682.000000	0.290568
1683.000000	0.290646
1684.000000	0.290785
1685.000000	0.290951
1686.000000	0.290885
1687.000000	0.290815
1688.000000	0.290741
1689.000000	0.290672
1690.000000	0.290754
1691.000000	0.290833
1692.000000	0.290712
1693.000000	0.290626
1694.000000	0.290560
1695.000000	0.290554
1696.000000	0.290670
1697.000000	0.290693
1698.000000	0.290757
1699.000000	0.290764
1700.000000	0.290733
1701.000000	0.290733
1702.000000	0.290350
1703.000000	0.290244
1704.000000	0.290457
1705.000000	0.290535
1706.000000	0.290796
1707.000000	0.290955
1708.000000	0.290886
1709.000000	0.290869
1710.000000	0.290982
1711.000000	0.291087
1712.000000	0.291279
1713.000000	0.291329
1714.000000	0.291379
1715.000000	0.291347
1716.000000	0.291155
1717.000000	0.291041
1718.000000	0.290907
1719.000000	0.290761
1720.000000	0.290673
1721.000000	0.290544
1722.000000	0.290326
1723.000000	0.290283
1724.000000	0.290317
1725.000000	0.290397
1726.000000	0.290606
1727.000000	0.290620
1728.000000	0.290447
1729.000000	0.290401
1730.000000	0.290434
1731.000000	0.290493
1732.000000	0.290741
1733.000000	0.290821
1734.000000	0.290640
1735.000000	0.290621
1736.000000	0.290586
1737.000000	0.290547
1738.000000	0.290573
1739.000000	0.290595
1740.000000	0.290584
1741.000000	0.290521
1742.000000	0.290468
1743.000000	0.290515
1744.000000	0.290512
1745.000000	0.290527
1746.000000	0.290653
1747.000000	0.290650
1748.000000	0.290584
1749.000000	0.290477
1750.000000	0.290416
1751.000000	0.290455
1752.000000	0.290555
1753.000000	0.290700
1754.000000	0.290716
1755.000000	0.290558
1756.000000	0.290455
1757.000000	0.290243
1758.000000	0.290182
1759.000000	0.290210
1760.000000	0.290264
1761.000000	0.290426
1762.000000	0.290472
1763.000000	0.290548
1764.000000	0.290524
1765.000000	0.290272
1766.000000	0.290231
1767.000000	0.290163
1768.000000	0.290125
1769.000000	0.290372
1770.000000	0.290403
1771.000000	0.290270
1772.000000	0.290185
1773.000000	0.289940
1774.000000	0.289870
1775.000000	0.289929
1776.000000	0.290012
1777.000000	0.290145
1778.000000	0.290257
1779.000000	0.290384
1780.000000	0.290545
1781.000000	0.290747
1782.000000	0.290778
1783.000000	0.290816
1784.000000	0.290707
1785.000000	0.290485
1786.000000	0.290608
1787.000000	0.290938
1788.000000	0.291141
1789.000000	0.291235
1790.000000	0.290884
1791.000000	0.290716
1792.000000	0.290725
1793.000000	0.290698
1794.000000	0.290853
1795.000000	0.290849
1796.000000	0.290653
1797.000000	0.290538
1798.000000	0.290361
1799.000000	0.290270
1800.000000	0.290272
1801.000000	0.290758
1802.000000	0.290400
1803.000000	0.289745
1804.000000	0.289477
1805.000000	0.288650
1806.000000	0.288467
1807.000000	0.289287
1808.000000	0.289384
1809.000000	0.288924
1810.000000	0.288961
1811.000000	0.289175
1812.000000	0.289307
1813.000000	0.289618
1814.000000	0.290928
1815.000000	0.290929
1816.000000	0.290025
1817.000000	0.289558
1818.000000	0.288471
1819.000000	0.288207
1820.000000	0.288398
1821.000000	0.288039
1822.000000	0.287998
1823.000000	0.288242
1824.000000	0.287759
1825.000000	0.286501
1826.000000	0.286316
1827.000000	0.286490
1828.000000	0.285884
1829.000000	0.285529
1830.000000	0.286499
1831.000000	0.286720
1832.000000	0.286065
1833.000000	0.286389
1834.000000	0.287566
1835.000000	0.287939
1836.000000	0.288385
1837.000000	0.288659
1838.000000	0.288488
1839.000000	0.288257
1840.000000	0.288073
1841.000000	0.287185
1842.000000	0.286709
1843.000000	0.285895
1844.000000	0.285624
1845.000000	0.285742
1846.000000	0.285831
1847.000000	0.285780
1848.000000	0.286203
1849.000000	0.286986
1850.000000	0.287032
1851.000000	0.286890
1852.000000	0.286300
1853.000000	0.286429
1854.000000	0.286374
1855.000000	0.286190
1856.000000	0.286250
1857.000000	0.286539
1858.000000	0.285944
1859.000000	0.285737
1860.000000	0.285971
1861.000000	0.285604
1862.000000	0.285253
1863.000000	0.284715
1864.000000	0.284430
1865.000000	0.284135
1866.000000	0.283810
1867.000000	0.283498
1868.000000	0.283376
1869.000000	0.282809
1870.000000	0.282628
1871.000000	0.282787
1872.000000	0.282210
1873.000000	0.281623
1874.000000	0.280613
1875.000000	0.280224
1876.000000	0.279645
1877.000000	0.278960
1878.000000	0.279280
1879.000000	0.279754
1880.000000	0.279821
1881.000000	0.279558
1882.000000	0.278220
1883.000000	0.275764
1884.000000	0.274125
1885.000000	0.271845
1886.000000	0.270425
1887.000000	0.269514
1888.000000	0.269210
1889.000000	0.268464
1890.000000	0.267833
1891.000000	0.266972
1892.000000	0.265774
1893.000000	0.264807
1894.000000	0.263034
1895.000000	0.261664
1896.000000	0.260356
1897.000000	0.259619
1898.000000	0.258750
1899.000000	0.258781
1900.000000	0.258710
1901.000000	0.257522
1902.000000	0.255962
1903.000000	0.254413
1904.000000	0.253748
1905.000000	0.253281
1906.000000	0.252555
1907.000000	0.252047
1908.000000	0.252062
1909.000000	0.251418
1910.000000	0.251114
1911.000000	0.251740
1912.000000	0.251611
1913.000000	0.251033
1914.000000	0.250538
1915.000000	0.249974
1916.000000	0.249809
1917.000000	0.249642
1918.000000	0.249931
1919.000000	0.249948
1920.000000	0.249901
1921.000000	0.249837
1922.000000	0.250051
1923.000000	0.250578
1924.000000	0.250753
1925.000000	0.251588
1926.000000	0.252249
1927.000000	0.252298
1928.000000	0.252236
1929.000000	0.252316
1930.000000	0.251389
1931.000000	0.250407
1932.000000	0.250711
1933.000000	0.251655
1934.000000	0.252668
1935.000000	0.253603
1936.000000	0.253719
1937.000000	0.253140
1938.000000	0.252476
1939.000000	0.252160
1940.000000	0.251872
1941.000000	0.252233
1942.000000	0.252891
1943.000000	0.253501
1944.000000	0.253924
1945.000000	0.253525
1946.000000	0.253004
1947.000000	0.253008
1948.000000	0.253188
1949.000000	0.253908
1950.000000	0.254478
1951.000000	0.254477
1952.000000	0.253982
1953.000000	0.253402
1954.000000	0.252994
1955.000000	0.252774
1956.000000	0.252822
1957.000000	0.253291
1958.000000	0.253255
1959.000000	0.252913
1960.000000	0.253328
1961.000000	0.253333
1962.000000	0.253245
1963.000000	0.253216
1964.000000	0.253622
1965.000000	0.253269
1966.000000	0.252865
1967.000000	0.252661
1968.000000	0.252588
1969.000000	0.252454
1970.000000	0.252548
1971.000000	0.253137
1972.000000	0.253869
1973.000000	0.253954
1974.000000	0.253743
1975.000000	0.253628
1976.000000	0.253123
1977.000000	0.252698
1978.000000	0.253072
1979.000000	0.254051
1980.000000	0.254643
1981.000000	0.254700
1982.000000	0.254299
1983.000000	0.254213
1984.000000	0.254395
1985.000000	0.255201
1986.000000	0.255434
1987.000000	0.255811
1988.000000	0.255749
1989.000000	0.255465
1990.000000	0.255212
1991.000000	0.255080
1992.000000	0.255436
1993.000000	0.255709
1994.000000	0.255983
1995.000000	0.256365
1996.000000	0.256215
1997.000000	0.256239
1998.000000	0.256138
1999.000000	0.256572
2000.000000	0.257237
2001.000000	0.257922
2002.000000	0.259088
2003.000000	0.259661
2004.000000	0.259875
2005.000000	0.260043
2006.000000	0.260417
2007.000000	0.260386
2008.000000	0.260102
2009.000000	0.259396
2010.000000	0.259262
2011.000000	0.258776
2012.000000	0.258871
2013.000000	0.259584
2014.000000	0.260001
2015.000000	0.260508
2016.000000	0.260361
2017.000000	0.260353
2018.000000	0.261055
2019.000000	0.261575
2020.000000	0.262008
2021.000000	0.262516
2022.000000	0.263171
2023.000000	0.263253
2024.000000	0.263033
2025.000000	0.263158
2026.000000	0.263000
2027.000000	0.262631
2028.000000	0.262961
2029.000000	0.263516
2030.000000	0.264160
2031.000000	0.264677
2032.000000	0.265022
2033.000000	0.265373
2034.000000	0.265272
2035.000000	0.264628
2036.000000	0.264291
2037.000000	0.263696
2038.000000	0.263725
2039.000000	0.264247
2040.000000	0.264726
2041.000000	0.265294
2042.000000	0.265662
2043.000000	0.266000
2044.000000	0.266460
2045.000000	0.267166
2046.000000	0.267744
2047.000000	0.267727
2048.000000	0.267109
2049.000000	0.266773
2050.000000	0.265333
2051.000000	0.264920
2052.000000	0.265156
2053.000000	0.265084
2054.000000	0.265521
2055.000000	0.265970
2056.000000	0.265830
2057.000000	0.265318
2058.000000	0.264891
2059.000000	0.265319
2060.000000	0.265608
2061.000000	0.266319
2062.000000	0.266632
2063.000000	0.266896
2064.000000	0.266838
2065.000000	0.266643
2066.000000	0.266667
2067.000000	0.266828
2068.000000	0.267195
2069.000000	0.267628
2070.000000	0.268718
2071.000000	0.269185
2072.000000	0.269024
2073.000000	0.268932
2074.000000	0.268148
2075.000000	0.267817
2076.000000	0.267593
2077.000000	0.267402
2078.000000	0.267249
2079.000000	0.267273
2080.000000	0.267366
2081.000000	0.267643
2082.000000	0.268323
2083.000000	0.268674
2084.000000	0.269256
2085.000000	0.269484
2086.000000	0.269640
2087.000000	0.269617
2088.000000	0.269073
2089.000000	0.268882
2090.000000	0.268808
2091.000000	0.268816
2092.000000	0.268866
2093.000000	0.269180
2094.000000	0.269487
2095.000000	0.269761
2096.000000	0.270154
2097.000000	0.270806
2098.000000	0.271129
2099.000000	0.271458
2100.000000	0.271729
2101.000000	0.271719
2102.000000	0.271754
2103.000000	0.271719
2104.000000	0.271519
2105.000000	0.271571
2106.000000	0.271872
2107.000000	0.271917
2108.000000	0.271956
2109.000000	0.272010
2110.000000	0.271718
2111.000000	0.271699
2112.000000	0.271797
2113.000000	0.271518
2114.000000	0.271811
2115.000000	0.272213
2116.000000	0.272432
2117.000000	0.272701
2118.000000	0.272388
2119.000000	0.271946
2120.000000	0.271780
2121.000000	0.271540
2122.000000	0.271638
2123.000000	0.272277
2124.000000	0.272221
2125.000000	0.271814
2126.000000	0.271561
2127.000000	0.270923
2128.000000	0.270849
2129.000000	0.270874
2130.000000	0.271635
2131.000000	0.272259
2132.000000	0.272051
2133.000000	0.272474
2134.000000	0.272185
2135.000000	0.271433
2136.000000	0.271409
2137.000000	0.271088
2138.000000	0.270525
2139.000000	0.270310
2140.000000	0.270273
2141.000000	0.270241
2142.000000	0.270213
2143.000000	0.270244
2144.000000	0.270512
2145.000000	0.270856
2146.000000	0.271563
2147.000000	0.272388
2148.000000	0.272665
2149.000000	0.272613
2150.000000	0.272465
2151.000000	0.272415
2152.000000	0.271997
2153.000000	0.272157
2154.000000	0.271954
2155.000000	0.271222
2156.000000	0.271004
2157.000000	0.270999
2158.000000	0.271231
2159.000000	0.272098
2160.000000	0.272637
2161.000000	0.272796
2162.000000	0.273576
2163.000000	0.274842
2164.000000	0.275493
2165.000000	0.276422
2166.000000	0.277371
2167.000000	0.276443
2168.000000	0.274761
2169.000000	0.273088
2170.000000	0.271676
2171.000000	0.271383
2172.000000	0.272386
2173.000000	0.272519
2174.000000	0.273115
2175.000000	0.273180
2176.000000	0.272266
2177.000000	0.272554
2178.000000	0.273909
2179.000000	0.274365
2180.000000	0.275169
2181.000000	0.275330
2182.000000	0.273700
2183.000000	0.272875
2184.000000	0.272671
2185.000000	0.272013
2186.000000	0.271549
2187.000000	0.271505
2188.000000	0.271448
2189.000000	0.271083
2190.000000	0.272917
2191.000000	0.275581
2192.000000	0.276387
2193.000000	0.277104
2194.000000	0.277187
2195.000000	0.274883
2196.000000	0.274108
2197.000000	0.273766
2198.000000	0.273365
2199.000000	0.273250
2200.000000	0.273354
2201.000000	0.274441
2202.000000	0.274935
2203.000000	0.275315
2204.000000	0.274621
2205.000000	0.274666
2206.000000	0.274348
2207.000000	0.273983
2208.000000	0.272668
2209.000000	0.271177
2210.000000	0.269773
2211.000000	0.269889
2212.000000	0.272510
2213.000000	0.273542
2214.000000	0.275146
2215.000000	0.275717
2216.000000	0.274728
2217.000000	0.274861
2218.000000	0.275379
2219.000000	0.275614
2220.000000	0.276952
2221.000000	0.276791
2222.000000	0.274448
2223.000000	0.274453
2224.000000	0.275498
2225.000000	0.275315
2226.000000	0.275637
2227.000000	0.274478
2228.000000	0.273702
2229.000000	0.271882
2230.000000	0.269937
2231.000000	0.270497
2232.000000	0.269970
2233.000000	0.270226
2234.000000	0.270929
2235.000000	0.271829
2236.000000	0.272395
2237.000000	0.271483
2238.000000	0.271827
2239.000000	0.273622
2240.000000	0.274146
2241.000000	0.274885
2242.000000	0.274800
2243.000000	0.273257
2244.000000	0.272563
2245.000000	0.270846
2246.000000	0.270930
2247.000000	0.273422
2248.000000	0.273639
2249.000000	0.274046
2250.000000	0.273714
2251.000000	0.270105
2252.000000	0.268216
2253.000000	0.269520
2254.000000	0.270517
2255.000000	0.271466
2256.000000	0.272427
2257.000000	0.270106
2258.000000	0.268417
2259.000000	0.269776
2260.000000	0.271820
2261.000000	0.273029
2262.000000	0.276008
2263.000000	0.276006
2264.000000	0.272982
2265.000000	0.271854
2266.000000	0.270527
2267.000000	0.270117
2268.000000	0.270958
2269.000000	0.271796
2270.000000	0.272858
2271.000000	0.273354
2272.000000	0.273900
2273.000000	0.273901
2274.000000	0.274032
2275.000000	0.273582
2276.000000	0.271996
2277.000000	0.271645
2278.000000	0.270686
2279.000000	0.266997
2280.000000	0.266048
2281.000000	0.265319
2282.000000	0.264751
2283.000000	0.266527
2284.000000	0.268716
2285.000000	0.269848
2286.000000	0.270400
2287.000000	0.270817
2288.000000	0.270662
2289.000000	0.269894
2290.000000	0.269544
2291.000000	0.268517
2292.000000	0.265296
2293.000000	0.261881
2294.000000	0.259280
2295.000000	0.255629
2296.000000	0.255493
2297.000000	0.257899
2298.000000	0.258962
2299.000000	0.262433
2300.000000	0.262661
2301.000000	0.259827
2302.000000	0.259250
2303.000000	0.258964
2304.000000	0.258870
2305.000000	0.259885
2306.000000	0.260209
2307.000000	0.260271
2308.000000	0.259463
2309.000000	0.258485
2310.000000	0.257419
2311.000000	0.256546
2312.000000	0.255037
2313.000000	0.256041
2314.000000	0.257510
2315.000000	0.259230
2316.000000	0.263210
2317.000000	0.263936
2318.000000	0.264694
2319.000000	0.265949
2320.000000	0.263314
2321.000000	0.262039
2322.000000	0.261435
2323.000000	0.261162
2324.000000	0.260437
2325.000000	0.259819
2326.000000	0.260931
2327.000000	0.258566
2328.000000	0.257382
2329.000000	0.257671
2330.000000	0.255523
2331.000000	0.254630
2332.000000	0.254910
2333.000000	0.255207
2334.000000	0.257216
2335.000000	0.259408
2336.000000	0.263640
2337.000000	0.265108
2338.000000	0.264909
2339.000000	0.264206
2340.000000	0.262244
2341.000000	0.260863
2342.000000	0.258968
2343.000000	0.258048
2344.000000	0.257308
2345.000000	0.256385
2346.000000	0.256241
2347.000000	0.256838
2348.000000	0.257414
2349.000000	0.258082
2350.000000	0.261918
2351.000000	0.262946
2352.000000	0.262890
2353.000000	0.264582
2354.000000	0.263495
2355.000000	0.261747
2356.000000	0.262239
2357.000000	0.261439
2358.000000	0.260949
2359.000000	0.261303
2360.000000	0.259929
2361.000000	0.261048
2362.000000	0.260575
2363.000000	0.259939
2364.000000	0.261260
2365.000000	0.259822
2366.000000	0.259142
2367.000000	0.257646
2368.000000	0.256632
2369.000000	0.256344
2370.000000	0.254602
2371.000000	0.255112
2372.000000	0.254155
2373.000000	0.251615
2374.000000	0.251993
2375.000000	0.254762
2376.000000	0.255375
2377.000000	0.252995
2378.000000	0.248648
2379.000000	0.240200
2380.000000	0.236708
2381.000000	0.241896
2382.000000	0.247429
2383.000000	0.253627
2384.000000	0.258752
2385.000000	0.259716
2386.000000	0.257595
2387.000000	0.252891
2388.000000	0.247611
2389.000000	0.243691
2390.000000	0.241203
2391.000000	0.239666
2392.000000	0.238198
2393.000000	0.234893
2394.000000	0.230202
2395.000000	0.228299
2396.000000	0.229918
2397.000000	0.229323
2398.000000	0.228504
2399.000000	0.229033
2400.000000	0.232372
2401.000000	0.237867
2402.000000	0.239427
2403.000000	0.238773
2404.000000	0.233754
2405.000000	0.232100
2406.000000	0.233999
2407.000000	0.234536
2408.000000	0.243709
2409.000000	0.249290
2410.000000	0.246420
2411.000000	0.251372
2412.000000	0.253596
2413.000000	0.250063
2414.000000	0.251249
2415.000000	0.245291
2416.000000	0.247102
2417.000000	0.249540
2418.000000	0.239479
2419.000000	0.244821
2420.000000	0.242668
2421.000000	0.236222
2422.000000	0.251039
2423.000000	0.257995
2424.000000	0.259765
2425.000000	0.270340
2426.000000	0.269589
2427.000000	0.270457
2428.000000	0.278250
2429.000000	0.278263
2430.000000	0.280795
2431.000000	0.274912
2432.000000	0.259770
2433.000000	0.250414
2434.000000	0.240809
2435.000000	0.228068
2436.000000	0.221995
2437.000000	0.218615
2438.000000	0.211079
2439.000000	0.215615
2440.000000	0.226357
2441.000000	0.235206
2442.000000	0.244389
2443.000000	0.247983
2444.000000	0.248135
2445.000000	0.245095
2446.000000	0.246629
2447.000000	0.251026
2448.000000	0.257268
2449.000000	0.262468
2450.000000	0.256643
2451.000000	0.247630
2452.000000	0.236643
2453.000000	0.227606
2454.000000	0.227581
2455.000000	0.233962
2456.000000	0.237065
2457.000000	0.242221
2458.000000	0.251391
2459.000000	0.252153
2460.000000	0.263045
2461.000000	0.271863
2462.000000	0.263287
2463.000000	0.263099
2464.000000	0.258591
2465.000000	0.230194
2466.000000	0.212592
2467.000000	0.210307
2468.000000	0.199153
2469.000000	0.213212
2470.000000	0.235159
2471.000000	0.225159
2472.000000	0.218763
2473.000000	0.211708
2474.000000	0.183923
2475.000000	0.191149
2476.000000	0.222016
2477.000000	0.252032
2478.000000	0.287616
2479.000000	0.291161
2480.000000	0.275801
2481.000000	0.256006
2482.000000	0.251988
2483.000000	0.277021
2484.000000	0.278230
2485.000000	0.233978
2486.000000	0.211442
2487.000000	0.195614
2488.000000	0.179791
2489.000000	0.189547
2490.000000	0.201876
2491.000000	0.181896
2492.000000	0.181079
2493.000000	0.254699
2494.000000	0.269536
2495.000000	0.230403
2496.000000	0.214558
2497.000000	0.152646
2498.000000	0.134273
2499.000000	0.181648
2500.000000	0.213119
