# Wavelength	SM1200H-20_FV7-80_00001.asd.rts.txt
350.000000	0.216589
351.000000	0.232511
352.000000	0.220796
353.000000	0.210869
354.000000	0.217465
355.000000	0.216805
356.000000	0.217915
357.000000	0.221857
358.000000	0.220751
359.000000	0.221060
360.000000	0.221175
361.000000	0.218468
362.000000	0.219301
363.000000	0.221145
364.000000	0.222078
365.000000	0.226230
366.000000	0.226455
367.000000	0.223272
368.000000	0.224398
369.000000	0.225233
370.000000	0.224937
371.000000	0.224044
372.000000	0.225631
373.000000	0.227388
374.000000	0.227782
375.000000	0.226263
376.000000	0.226483
377.000000	0.228221
378.000000	0.227732
379.000000	0.228100
380.000000	0.229330
381.000000	0.231133
382.000000	0.231866
383.000000	0.231613
384.000000	0.231168
385.000000	0.231615
386.000000	0.232452
387.000000	0.233248
388.000000	0.233151
389.000000	0.233908
390.000000	0.235034
391.000000	0.235100
392.000000	0.235020
393.000000	0.235354
394.000000	0.236172
395.000000	0.236170
396.000000	0.236499
397.000000	0.237404
398.000000	0.238121
399.000000	0.238374
400.000000	0.238432
401.000000	0.238709
402.000000	0.239679
403.000000	0.240636
404.000000	0.241035
405.000000	0.240989
406.000000	0.241222
407.000000	0.241875
408.000000	0.241976
409.000000	0.242085
410.000000	0.242381
411.000000	0.242823
412.000000	0.242820
413.000000	0.242876
414.000000	0.243549
415.000000	0.244069
416.000000	0.244433
417.000000	0.244724
418.000000	0.245044
419.000000	0.245385
420.000000	0.245687
421.000000	0.245808
422.000000	0.246220
423.000000	0.246599
424.000000	0.246560
425.000000	0.246831
426.000000	0.247226
427.000000	0.247529
428.000000	0.247912
429.000000	0.248189
430.000000	0.248344
431.000000	0.248553
432.000000	0.248810
433.000000	0.249015
434.000000	0.249128
435.000000	0.249261
436.000000	0.249515
437.000000	0.249901
438.000000	0.250198
439.000000	0.250287
440.000000	0.250287
441.000000	0.250404
442.000000	0.250599
443.000000	0.250788
444.000000	0.251006
445.000000	0.251133
446.000000	0.251322
447.000000	0.251585
448.000000	0.251863
449.000000	0.252160
450.000000	0.252454
451.000000	0.252572
452.000000	0.252814
453.000000	0.253164
454.000000	0.253475
455.000000	0.253727
456.000000	0.253981
457.000000	0.254153
458.000000	0.254289
459.000000	0.254528
460.000000	0.254958
461.000000	0.255139
462.000000	0.255335
463.000000	0.255521
464.000000	0.255664
465.000000	0.255789
466.000000	0.255937
467.000000	0.256301
468.000000	0.256606
469.000000	0.256758
470.000000	0.256903
471.000000	0.257045
472.000000	0.257155
473.000000	0.257293
474.000000	0.257691
475.000000	0.257836
476.000000	0.257840
477.000000	0.258157
478.000000	0.258357
479.000000	0.258582
480.000000	0.258816
481.000000	0.258960
482.000000	0.259205
483.000000	0.259479
484.000000	0.259716
485.000000	0.259893
486.000000	0.260163
487.000000	0.260405
488.000000	0.260536
489.000000	0.260675
490.000000	0.261063
491.000000	0.261314
492.000000	0.261584
493.000000	0.261971
494.000000	0.262230
495.000000	0.262427
496.000000	0.262611
497.000000	0.262883
498.000000	0.263175
499.000000	0.263505
500.000000	0.263800
501.000000	0.264061
502.000000	0.264346
503.000000	0.264649
504.000000	0.264856
505.000000	0.265014
506.000000	0.265200
507.000000	0.265426
508.000000	0.265667
509.000000	0.265883
510.000000	0.266153
511.000000	0.266467
512.000000	0.266800
513.000000	0.267040
514.000000	0.267363
515.000000	0.267756
516.000000	0.268078
517.000000	0.268302
518.000000	0.268564
519.000000	0.268873
520.000000	0.269167
521.000000	0.269428
522.000000	0.269653
523.000000	0.269826
524.000000	0.270073
525.000000	0.270363
526.000000	0.270628
527.000000	0.270933
528.000000	0.271209
529.000000	0.271432
530.000000	0.271621
531.000000	0.271904
532.000000	0.272245
533.000000	0.272562
534.000000	0.272826
535.000000	0.273045
536.000000	0.273311
537.000000	0.273546
538.000000	0.273754
539.000000	0.273959
540.000000	0.274205
541.000000	0.274478
542.000000	0.274779
543.000000	0.275023
544.000000	0.275289
545.000000	0.275558
546.000000	0.275889
547.000000	0.276190
548.000000	0.276453
549.000000	0.276629
550.000000	0.276857
551.000000	0.277148
552.000000	0.277420
553.000000	0.277643
554.000000	0.277882
555.000000	0.278189
556.000000	0.278529
557.000000	0.278806
558.000000	0.279114
559.000000	0.279427
560.000000	0.279702
561.000000	0.280020
562.000000	0.280363
563.000000	0.280671
564.000000	0.280971
565.000000	0.281208
566.000000	0.281504
567.000000	0.281765
568.000000	0.281950
569.000000	0.282237
570.000000	0.282594
571.000000	0.282960
572.000000	0.283262
573.000000	0.283582
574.000000	0.283901
575.000000	0.284222
576.000000	0.284545
577.000000	0.284830
578.000000	0.285114
579.000000	0.285387
580.000000	0.285700
581.000000	0.286046
582.000000	0.286334
583.000000	0.286594
584.000000	0.286836
585.000000	0.287074
586.000000	0.287319
587.000000	0.287543
588.000000	0.287732
589.000000	0.288024
590.000000	0.288320
591.000000	0.288554
592.000000	0.288767
593.000000	0.289005
594.000000	0.289256
595.000000	0.289453
596.000000	0.289629
597.000000	0.289832
598.000000	0.290018
599.000000	0.290188
600.000000	0.290393
601.000000	0.290595
602.000000	0.290814
603.000000	0.290984
604.000000	0.291115
605.000000	0.291320
606.000000	0.291482
607.000000	0.291621
608.000000	0.291832
609.000000	0.292033
610.000000	0.292202
611.000000	0.292342
612.000000	0.292485
613.000000	0.292650
614.000000	0.292873
615.000000	0.293094
616.000000	0.293299
617.000000	0.293469
618.000000	0.293691
619.000000	0.293979
620.000000	0.294248
621.000000	0.294441
622.000000	0.294637
623.000000	0.294805
624.000000	0.294925
625.000000	0.295094
626.000000	0.295280
627.000000	0.295449
628.000000	0.295557
629.000000	0.295708
630.000000	0.295789
631.000000	0.295854
632.000000	0.295958
633.000000	0.296094
634.000000	0.296222
635.000000	0.296319
636.000000	0.296444
637.000000	0.296602
638.000000	0.296755
639.000000	0.296879
640.000000	0.297010
641.000000	0.297071
642.000000	0.297170
643.000000	0.297297
644.000000	0.297414
645.000000	0.297551
646.000000	0.297685
647.000000	0.297790
648.000000	0.297961
649.000000	0.298171
650.000000	0.298364
651.000000	0.298516
652.000000	0.298625
653.000000	0.298744
654.000000	0.298868
655.000000	0.299038
656.000000	0.299238
657.000000	0.299390
658.000000	0.299531
659.000000	0.299693
660.000000	0.299862
661.000000	0.299999
662.000000	0.300104
663.000000	0.300220
664.000000	0.300309
665.000000	0.300405
666.000000	0.300528
667.000000	0.300658
668.000000	0.300785
669.000000	0.300921
670.000000	0.301083
671.000000	0.301278
672.000000	0.301472
673.000000	0.301657
674.000000	0.301866
675.000000	0.302037
676.000000	0.302165
677.000000	0.302283
678.000000	0.302375
679.000000	0.302489
680.000000	0.302654
681.000000	0.302804
682.000000	0.303013
683.000000	0.303199
684.000000	0.303353
685.000000	0.303469
686.000000	0.303585
687.000000	0.303701
688.000000	0.303815
689.000000	0.303933
690.000000	0.304094
691.000000	0.304302
692.000000	0.304462
693.000000	0.304625
694.000000	0.304834
695.000000	0.305049
696.000000	0.305251
697.000000	0.305432
698.000000	0.305588
699.000000	0.305729
700.000000	0.305865
701.000000	0.305949
702.000000	0.306091
703.000000	0.306283
704.000000	0.306400
705.000000	0.306553
706.000000	0.306705
707.000000	0.306855
708.000000	0.306946
709.000000	0.307003
710.000000	0.307088
711.000000	0.307229
712.000000	0.307377
713.000000	0.307543
714.000000	0.307771
715.000000	0.307975
716.000000	0.308152
717.000000	0.308307
718.000000	0.308449
719.000000	0.308582
720.000000	0.308718
721.000000	0.308837
722.000000	0.308896
723.000000	0.308948
724.000000	0.308982
725.000000	0.309001
726.000000	0.309072
727.000000	0.309125
728.000000	0.309190
729.000000	0.309306
730.000000	0.309443
731.000000	0.309608
732.000000	0.309730
733.000000	0.309845
734.000000	0.310018
735.000000	0.310180
736.000000	0.310387
737.000000	0.310478
738.000000	0.310460
739.000000	0.310498
740.000000	0.310538
741.000000	0.310608
742.000000	0.310684
743.000000	0.310722
744.000000	0.310742
745.000000	0.310786
746.000000	0.310910
747.000000	0.311055
748.000000	0.311207
749.000000	0.311354
750.000000	0.311451
751.000000	0.311511
752.000000	0.311553
753.000000	0.311607
754.000000	0.311686
755.000000	0.311739
756.000000	0.311799
757.000000	0.311868
758.000000	0.311964
759.000000	0.312117
760.000000	0.312255
761.000000	0.312391
762.000000	0.312470
763.000000	0.312488
764.000000	0.312553
765.000000	0.312570
766.000000	0.312575
767.000000	0.312614
768.000000	0.312684
769.000000	0.312746
770.000000	0.312792
771.000000	0.312838
772.000000	0.312938
773.000000	0.313013
774.000000	0.313073
775.000000	0.313106
776.000000	0.313097
777.000000	0.313034
778.000000	0.313003
779.000000	0.312994
780.000000	0.312998
781.000000	0.312984
782.000000	0.313069
783.000000	0.313236
784.000000	0.313257
785.000000	0.313243
786.000000	0.313242
787.000000	0.313269
788.000000	0.313293
789.000000	0.313371
790.000000	0.313421
791.000000	0.313354
792.000000	0.313383
793.000000	0.313425
794.000000	0.313412
795.000000	0.313454
796.000000	0.313490
797.000000	0.313512
798.000000	0.313583
799.000000	0.313664
800.000000	0.313720
801.000000	0.313737
802.000000	0.313789
803.000000	0.313779
804.000000	0.313702
805.000000	0.313597
806.000000	0.313507
807.000000	0.313524
808.000000	0.313594
809.000000	0.313659
810.000000	0.313724
811.000000	0.313794
812.000000	0.313905
813.000000	0.313957
814.000000	0.313929
815.000000	0.313894
816.000000	0.313888
817.000000	0.313906
818.000000	0.313845
819.000000	0.313783
820.000000	0.313737
821.000000	0.313675
822.000000	0.313653
823.000000	0.313720
824.000000	0.313779
825.000000	0.313811
826.000000	0.313791
827.000000	0.313697
828.000000	0.313598
829.000000	0.313591
830.000000	0.313617
831.000000	0.313703
832.000000	0.313743
833.000000	0.313769
834.000000	0.313735
835.000000	0.313641
836.000000	0.313491
837.000000	0.313410
838.000000	0.313395
839.000000	0.313299
840.000000	0.313253
841.000000	0.313237
842.000000	0.313153
843.000000	0.312973
844.000000	0.312846
845.000000	0.312793
846.000000	0.312769
847.000000	0.312779
848.000000	0.312750
849.000000	0.312652
850.000000	0.312554
851.000000	0.312483
852.000000	0.312462
853.000000	0.312401
854.000000	0.312274
855.000000	0.312206
856.000000	0.312148
857.000000	0.312000
858.000000	0.311936
859.000000	0.311921
860.000000	0.311800
861.000000	0.311743
862.000000	0.311737
863.000000	0.311629
864.000000	0.311504
865.000000	0.311372
866.000000	0.311272
867.000000	0.311229
868.000000	0.311181
869.000000	0.311069
870.000000	0.310965
871.000000	0.310923
872.000000	0.310945
873.000000	0.310931
874.000000	0.310827
875.000000	0.310594
876.000000	0.310319
877.000000	0.310069
878.000000	0.309814
879.000000	0.309635
880.000000	0.309443
881.000000	0.309328
882.000000	0.309144
883.000000	0.308888
884.000000	0.308573
885.000000	0.308455
886.000000	0.308349
887.000000	0.308173
888.000000	0.308032
889.000000	0.307832
890.000000	0.307515
891.000000	0.307283
892.000000	0.307167
893.000000	0.307030
894.000000	0.306905
895.000000	0.306713
896.000000	0.306523
897.000000	0.306356
898.000000	0.306201
899.000000	0.305959
900.000000	0.305774
901.000000	0.305676
902.000000	0.305658
903.000000	0.305534
904.000000	0.305361
905.000000	0.305166
906.000000	0.305105
907.000000	0.304995
908.000000	0.304824
909.000000	0.304593
910.000000	0.304330
911.000000	0.304017
912.000000	0.303648
913.000000	0.303198
914.000000	0.302827
915.000000	0.302637
916.000000	0.302505
917.000000	0.302439
918.000000	0.302384
919.000000	0.302238
920.000000	0.301874
921.000000	0.301559
922.000000	0.301368
923.000000	0.301220
924.000000	0.301009
925.000000	0.300759
926.000000	0.300516
927.000000	0.300203
928.000000	0.299969
929.000000	0.299778
930.000000	0.299546
931.000000	0.299294
932.000000	0.298962
933.000000	0.298614
934.000000	0.298338
935.000000	0.297942
936.000000	0.297565
937.000000	0.297238
938.000000	0.296859
939.000000	0.296607
940.000000	0.296421
941.000000	0.296257
942.000000	0.296014
943.000000	0.295788
944.000000	0.295555
945.000000	0.295464
946.000000	0.295217
947.000000	0.294943
948.000000	0.294782
949.000000	0.294618
950.000000	0.294317
951.000000	0.293934
952.000000	0.293809
953.000000	0.293543
954.000000	0.293241
955.000000	0.292973
956.000000	0.292758
957.000000	0.292556
958.000000	0.292359
959.000000	0.292265
960.000000	0.292055
961.000000	0.291800
962.000000	0.291510
963.000000	0.291158
964.000000	0.290842
965.000000	0.290650
966.000000	0.290488
967.000000	0.290298
968.000000	0.289992
969.000000	0.289609
970.000000	0.289366
971.000000	0.289158
972.000000	0.288947
973.000000	0.288692
974.000000	0.288530
975.000000	0.288347
976.000000	0.288075
977.000000	0.287713
978.000000	0.287432
979.000000	0.287306
980.000000	0.287063
981.000000	0.286793
982.000000	0.286605
983.000000	0.286338
984.000000	0.286045
985.000000	0.285856
986.000000	0.285507
987.000000	0.285182
988.000000	0.284979
989.000000	0.285030
990.000000	0.284940
991.000000	0.284719
992.000000	0.284566
993.000000	0.284520
994.000000	0.284431
995.000000	0.284389
996.000000	0.284273
997.000000	0.284083
998.000000	0.283822
999.000000	0.283663
1000.000000	0.283769
1001.000000	0.283993
1002.000000	0.283752
1003.000000	0.283509
1004.000000	0.283325
1005.000000	0.282842
1006.000000	0.282405
1007.000000	0.282063
1008.000000	0.282062
1009.000000	0.281808
1010.000000	0.281590
1011.000000	0.281883
1012.000000	0.281953
1013.000000	0.281749
1014.000000	0.281969
1015.000000	0.281900
1016.000000	0.281644
1017.000000	0.281615
1018.000000	0.281402
1019.000000	0.281427
1020.000000	0.281963
1021.000000	0.281869
1022.000000	0.281743
1023.000000	0.281863
1024.000000	0.281693
1025.000000	0.281825
1026.000000	0.281855
1027.000000	0.281416
1028.000000	0.281456
1029.000000	0.281462
1030.000000	0.281277
1031.000000	0.281357
1032.000000	0.281381
1033.000000	0.281120
1034.000000	0.281072
1035.000000	0.281377
1036.000000	0.281472
1037.000000	0.281441
1038.000000	0.281392
1039.000000	0.281367
1040.000000	0.281454
1041.000000	0.281523
1042.000000	0.281638
1043.000000	0.281779
1044.000000	0.281591
1045.000000	0.281561
1046.000000	0.281543
1047.000000	0.281668
1048.000000	0.282020
1049.000000	0.282148
1050.000000	0.282250
1051.000000	0.282317
1052.000000	0.282197
1053.000000	0.282127
1054.000000	0.282180
1055.000000	0.282344
1056.000000	0.282633
1057.000000	0.282843
1058.000000	0.283036
1059.000000	0.283012
1060.000000	0.283157
1061.000000	0.283490
1062.000000	0.283733
1063.000000	0.284197
1064.000000	0.284471
1065.000000	0.284463
1066.000000	0.284642
1067.000000	0.284926
1068.000000	0.285044
1069.000000	0.285015
1070.000000	0.285083
1071.000000	0.285088
1072.000000	0.285255
1073.000000	0.285589
1074.000000	0.286046
1075.000000	0.286318
1076.000000	0.286511
1077.000000	0.286616
1078.000000	0.286659
1079.000000	0.286764
1080.000000	0.286928
1081.000000	0.287100
1082.000000	0.287363
1083.000000	0.287601
1084.000000	0.287944
1085.000000	0.288222
1086.000000	0.288353
1087.000000	0.288636
1088.000000	0.288969
1089.000000	0.289194
1090.000000	0.289358
1091.000000	0.289605
1092.000000	0.289757
1093.000000	0.290013
1094.000000	0.290107
1095.000000	0.290049
1096.000000	0.290272
1097.000000	0.290494
1098.000000	0.290747
1099.000000	0.291206
1100.000000	0.291559
1101.000000	0.291709
1102.000000	0.291995
1103.000000	0.292462
1104.000000	0.292750
1105.000000	0.292901
1106.000000	0.293134
1107.000000	0.293303
1108.000000	0.293434
1109.000000	0.293733
1110.000000	0.293837
1111.000000	0.293965
1112.000000	0.293956
1113.000000	0.294163
1114.000000	0.294465
1115.000000	0.294713
1116.000000	0.295137
1117.000000	0.295301
1118.000000	0.295219
1119.000000	0.295295
1120.000000	0.295363
1121.000000	0.295412
1122.000000	0.295581
1123.000000	0.295913
1124.000000	0.296072
1125.000000	0.296260
1126.000000	0.296511
1127.000000	0.296668
1128.000000	0.296765
1129.000000	0.296790
1130.000000	0.296879
1131.000000	0.296994
1132.000000	0.297023
1133.000000	0.297025
1134.000000	0.297138
1135.000000	0.297235
1136.000000	0.297290
1137.000000	0.297397
1138.000000	0.297448
1139.000000	0.297428
1140.000000	0.297586
1141.000000	0.297856
1142.000000	0.298028
1143.000000	0.298156
1144.000000	0.298371
1145.000000	0.298393
1146.000000	0.298374
1147.000000	0.298449
1148.000000	0.298465
1149.000000	0.298565
1150.000000	0.298777
1151.000000	0.298902
1152.000000	0.298957
1153.000000	0.299073
1154.000000	0.299152
1155.000000	0.299210
1156.000000	0.299268
1157.000000	0.299381
1158.000000	0.299483
1159.000000	0.299530
1160.000000	0.299602
1161.000000	0.299635
1162.000000	0.299621
1163.000000	0.299720
1164.000000	0.299780
1165.000000	0.299856
1166.000000	0.299965
1167.000000	0.300075
1168.000000	0.300073
1169.000000	0.300045
1170.000000	0.300114
1171.000000	0.300186
1172.000000	0.300293
1173.000000	0.300525
1174.000000	0.300596
1175.000000	0.300523
1176.000000	0.300479
1177.000000	0.300447
1178.000000	0.300441
1179.000000	0.300446
1180.000000	0.300401
1181.000000	0.300442
1182.000000	0.300459
1183.000000	0.300416
1184.000000	0.300454
1185.000000	0.300457
1186.000000	0.300412
1187.000000	0.300437
1188.000000	0.300511
1189.000000	0.300533
1190.000000	0.300639
1191.000000	0.300651
1192.000000	0.300711
1193.000000	0.300780
1194.000000	0.300701
1195.000000	0.300655
1196.000000	0.300506
1197.000000	0.300437
1198.000000	0.300441
1199.000000	0.300411
1200.000000	0.300377
1201.000000	0.300379
1202.000000	0.300342
1203.000000	0.300263
1204.000000	0.300216
1205.000000	0.300210
1206.000000	0.300171
1207.000000	0.300221
1208.000000	0.300203
1209.000000	0.300219
1210.000000	0.300215
1211.000000	0.300155
1212.000000	0.300171
1213.000000	0.300293
1214.000000	0.300356
1215.000000	0.300426
1216.000000	0.300452
1217.000000	0.300314
1218.000000	0.300316
1219.000000	0.300411
1220.000000	0.300551
1221.000000	0.300699
1222.000000	0.300767
1223.000000	0.300745
1224.000000	0.300707
1225.000000	0.300617
1226.000000	0.300591
1227.000000	0.300495
1228.000000	0.300437
1229.000000	0.300397
1230.000000	0.300389
1231.000000	0.300284
1232.000000	0.300266
1233.000000	0.300295
1234.000000	0.300259
1235.000000	0.300263
1236.000000	0.300258
1237.000000	0.300278
1238.000000	0.300256
1239.000000	0.300236
1240.000000	0.300201
1241.000000	0.300252
1242.000000	0.300284
1243.000000	0.300213
1244.000000	0.300153
1245.000000	0.300109
1246.000000	0.299984
1247.000000	0.299999
1248.000000	0.300036
1249.000000	0.300085
1250.000000	0.300152
1251.000000	0.300132
1252.000000	0.300141
1253.000000	0.300215
1254.000000	0.300175
1255.000000	0.300072
1256.000000	0.300004
1257.000000	0.299858
1258.000000	0.299816
1259.000000	0.299808
1260.000000	0.299834
1261.000000	0.299840
1262.000000	0.299841
1263.000000	0.299898
1264.000000	0.299870
1265.000000	0.299862
1266.000000	0.299848
1267.000000	0.299788
1268.000000	0.299732
1269.000000	0.299642
1270.000000	0.299651
1271.000000	0.299645
1272.000000	0.299657
1273.000000	0.299709
1274.000000	0.299745
1275.000000	0.299769
1276.000000	0.299825
1277.000000	0.299920
1278.000000	0.299911
1279.000000	0.299952
1280.000000	0.300032
1281.000000	0.300011
1282.000000	0.299991
1283.000000	0.300024
1284.000000	0.299940
1285.000000	0.299902
1286.000000	0.299871
1287.000000	0.299872
1288.000000	0.299868
1289.000000	0.299843
1290.000000	0.299806
1291.000000	0.299750
1292.000000	0.299692
1293.000000	0.299572
1294.000000	0.299401
1295.000000	0.299342
1296.000000	0.299273
1297.000000	0.299231
1298.000000	0.299338
1299.000000	0.299338
1300.000000	0.299326
1301.000000	0.299328
1302.000000	0.299242
1303.000000	0.299178
1304.000000	0.299090
1305.000000	0.299035
1306.000000	0.298998
1307.000000	0.298967
1308.000000	0.299009
1309.000000	0.299185
1310.000000	0.299216
1311.000000	0.299219
1312.000000	0.299222
1313.000000	0.299199
1314.000000	0.299122
1315.000000	0.299070
1316.000000	0.299167
1317.000000	0.299241
1318.000000	0.299250
1319.000000	0.299270
1320.000000	0.299328
1321.000000	0.299356
1322.000000	0.299384
1323.000000	0.299529
1324.000000	0.299627
1325.000000	0.299607
1326.000000	0.299607
1327.000000	0.299572
1328.000000	0.299621
1329.000000	0.299621
1330.000000	0.299651
1331.000000	0.299665
1332.000000	0.299753
1333.000000	0.299730
1334.000000	0.299683
1335.000000	0.299705
1336.000000	0.299712
1337.000000	0.299669
1338.000000	0.299597
1339.000000	0.299502
1340.000000	0.299379
1341.000000	0.299297
1342.000000	0.299212
1343.000000	0.299200
1344.000000	0.299226
1345.000000	0.299122
1346.000000	0.299103
1347.000000	0.299045
1348.000000	0.298984
1349.000000	0.298866
1350.000000	0.298834
1351.000000	0.298848
1352.000000	0.298689
1353.000000	0.298554
1354.000000	0.298561
1355.000000	0.298484
1356.000000	0.298481
1357.000000	0.298504
1358.000000	0.298393
1359.000000	0.298245
1360.000000	0.298158
1361.000000	0.298165
1362.000000	0.298081
1363.000000	0.297931
1364.000000	0.297886
1365.000000	0.297816
1366.000000	0.297787
1367.000000	0.297829
1368.000000	0.297861
1369.000000	0.297936
1370.000000	0.297893
1371.000000	0.297770
1372.000000	0.297613
1373.000000	0.297374
1374.000000	0.297172
1375.000000	0.297059
1376.000000	0.297053
1377.000000	0.297104
1378.000000	0.297014
1379.000000	0.296733
1380.000000	0.296437
1381.000000	0.296012
1382.000000	0.295616
1383.000000	0.295332
1384.000000	0.294845
1385.000000	0.294319
1386.000000	0.293873
1387.000000	0.293482
1388.000000	0.293238
1389.000000	0.293069
1390.000000	0.292948
1391.000000	0.292843
1392.000000	0.292860
1393.000000	0.292950
1394.000000	0.293246
1395.000000	0.293396
1396.000000	0.293579
1397.000000	0.293681
1398.000000	0.293631
1399.000000	0.293676
1400.000000	0.293736
1401.000000	0.293735
1402.000000	0.293774
1403.000000	0.293749
1404.000000	0.293707
1405.000000	0.293624
1406.000000	0.293565
1407.000000	0.293592
1408.000000	0.293540
1409.000000	0.293538
1410.000000	0.293550
1411.000000	0.293502
1412.000000	0.293547
1413.000000	0.293667
1414.000000	0.293760
1415.000000	0.293815
1416.000000	0.293849
1417.000000	0.293876
1418.000000	0.293806
1419.000000	0.293846
1420.000000	0.293865
1421.000000	0.293899
1422.000000	0.294019
1423.000000	0.294131
1424.000000	0.294145
1425.000000	0.294211
1426.000000	0.294204
1427.000000	0.294240
1428.000000	0.294312
1429.000000	0.294334
1430.000000	0.294434
1431.000000	0.294518
1432.000000	0.294582
1433.000000	0.294689
1434.000000	0.294768
1435.000000	0.294914
1436.000000	0.294994
1437.000000	0.295060
1438.000000	0.295049
1439.000000	0.294959
1440.000000	0.294955
1441.000000	0.294988
1442.000000	0.295010
1443.000000	0.294996
1444.000000	0.295028
1445.000000	0.295009
1446.000000	0.294943
1447.000000	0.294941
1448.000000	0.294928
1449.000000	0.294898
1450.000000	0.294897
1451.000000	0.294916
1452.000000	0.294900
1453.000000	0.294882
1454.000000	0.294880
1455.000000	0.294856
1456.000000	0.294885
1457.000000	0.294979
1458.000000	0.295056
1459.000000	0.295096
1460.000000	0.295136
1461.000000	0.295169
1462.000000	0.295185
1463.000000	0.295154
1464.000000	0.295156
1465.000000	0.295166
1466.000000	0.295130
1467.000000	0.295132
1468.000000	0.295148
1469.000000	0.295204
1470.000000	0.295163
1471.000000	0.295165
1472.000000	0.295170
1473.000000	0.295177
1474.000000	0.295197
1475.000000	0.295244
1476.000000	0.295306
1477.000000	0.295368
1478.000000	0.295395
1479.000000	0.295316
1480.000000	0.295230
1481.000000	0.295133
1482.000000	0.295021
1483.000000	0.294971
1484.000000	0.294968
1485.000000	0.294926
1486.000000	0.294834
1487.000000	0.294830
1488.000000	0.294884
1489.000000	0.294960
1490.000000	0.294995
1491.000000	0.295077
1492.000000	0.295131
1493.000000	0.295195
1494.000000	0.295257
1495.000000	0.295299
1496.000000	0.295318
1497.000000	0.295342
1498.000000	0.295400
1499.000000	0.295397
1500.000000	0.295354
1501.000000	0.295311
1502.000000	0.295240
1503.000000	0.295266
1504.000000	0.295336
1505.000000	0.295362
1506.000000	0.295391
1507.000000	0.295353
1508.000000	0.295420
1509.000000	0.295525
1510.000000	0.295517
1511.000000	0.295572
1512.000000	0.295531
1513.000000	0.295491
1514.000000	0.295634
1515.000000	0.295713
1516.000000	0.295754
1517.000000	0.295737
1518.000000	0.295735
1519.000000	0.295705
1520.000000	0.295679
1521.000000	0.295685
1522.000000	0.295711
1523.000000	0.295746
1524.000000	0.295709
1525.000000	0.295719
1526.000000	0.295690
1527.000000	0.295634
1528.000000	0.295713
1529.000000	0.295769
1530.000000	0.295684
1531.000000	0.295675
1532.000000	0.295694
1533.000000	0.295609
1534.000000	0.295569
1535.000000	0.295574
1536.000000	0.295467
1537.000000	0.295478
1538.000000	0.295514
1539.000000	0.295396
1540.000000	0.295365
1541.000000	0.295447
1542.000000	0.295482
1543.000000	0.295539
1544.000000	0.295575
1545.000000	0.295557
1546.000000	0.295596
1547.000000	0.295639
1548.000000	0.295654
1549.000000	0.295667
1550.000000	0.295625
1551.000000	0.295594
1552.000000	0.295673
1553.000000	0.295751
1554.000000	0.295733
1555.000000	0.295747
1556.000000	0.295738
1557.000000	0.295614
1558.000000	0.295607
1559.000000	0.295643
1560.000000	0.295636
1561.000000	0.295681
1562.000000	0.295711
1563.000000	0.295770
1564.000000	0.295794
1565.000000	0.295767
1566.000000	0.295729
1567.000000	0.295782
1568.000000	0.295795
1569.000000	0.295891
1570.000000	0.295917
1571.000000	0.295848
1572.000000	0.295847
1573.000000	0.295868
1574.000000	0.295888
1575.000000	0.295963
1576.000000	0.295993
1577.000000	0.295987
1578.000000	0.295969
1579.000000	0.296005
1580.000000	0.295999
1581.000000	0.296003
1582.000000	0.296019
1583.000000	0.296033
1584.000000	0.295974
1585.000000	0.295977
1586.000000	0.295971
1587.000000	0.295915
1588.000000	0.295870
1589.000000	0.295858
1590.000000	0.295793
1591.000000	0.295674
1592.000000	0.295652
1593.000000	0.295699
1594.000000	0.295688
1595.000000	0.295765
1596.000000	0.295769
1597.000000	0.295715
1598.000000	0.295689
1599.000000	0.295712
1600.000000	0.295674
1601.000000	0.295683
1602.000000	0.295655
1603.000000	0.295620
1604.000000	0.295560
1605.000000	0.295484
1606.000000	0.295432
1607.000000	0.295442
1608.000000	0.295373
1609.000000	0.295305
1610.000000	0.295265
1611.000000	0.295214
1612.000000	0.295171
1613.000000	0.295309
1614.000000	0.295290
1615.000000	0.295228
1616.000000	0.295198
1617.000000	0.295056
1618.000000	0.295005
1619.000000	0.294994
1620.000000	0.294959
1621.000000	0.295002
1622.000000	0.295015
1623.000000	0.294937
1624.000000	0.294921
1625.000000	0.294793
1626.000000	0.294714
1627.000000	0.294692
1628.000000	0.294706
1629.000000	0.294744
1630.000000	0.294779
1631.000000	0.294798
1632.000000	0.294765
1633.000000	0.294689
1634.000000	0.294687
1635.000000	0.294732
1636.000000	0.294732
1637.000000	0.294777
1638.000000	0.294780
1639.000000	0.294788
1640.000000	0.294794
1641.000000	0.294870
1642.000000	0.294902
1643.000000	0.294944
1644.000000	0.294934
1645.000000	0.294894
1646.000000	0.294836
1647.000000	0.294766
1648.000000	0.294670
1649.000000	0.294620
1650.000000	0.294589
1651.000000	0.294594
1652.000000	0.294612
1653.000000	0.294635
1654.000000	0.294635
1655.000000	0.294539
1656.000000	0.294428
1657.000000	0.294380
1658.000000	0.294300
1659.000000	0.294335
1660.000000	0.294290
1661.000000	0.294071
1662.000000	0.293991
1663.000000	0.293885
1664.000000	0.293837
1665.000000	0.293888
1666.000000	0.293969
1667.000000	0.294013
1668.000000	0.294021
1669.000000	0.294026
1670.000000	0.293977
1671.000000	0.293931
1672.000000	0.294003
1673.000000	0.294124
1674.000000	0.294140
1675.000000	0.294218
1676.000000	0.294274
1677.000000	0.294247
1678.000000	0.294203
1679.000000	0.294249
1680.000000	0.294286
1681.000000	0.294360
1682.000000	0.294522
1683.000000	0.294572
1684.000000	0.294521
1685.000000	0.294489
1686.000000	0.294369
1687.000000	0.294327
1688.000000	0.294239
1689.000000	0.294116
1690.000000	0.294076
1691.000000	0.294075
1692.000000	0.294061
1693.000000	0.294033
1694.000000	0.293858
1695.000000	0.293732
1696.000000	0.293711
1697.000000	0.293576
1698.000000	0.293506
1699.000000	0.293466
1700.000000	0.293315
1701.000000	0.293308
1702.000000	0.293312
1703.000000	0.293230
1704.000000	0.293219
1705.000000	0.293148
1706.000000	0.293010
1707.000000	0.292955
1708.000000	0.292873
1709.000000	0.292787
1710.000000	0.292854
1711.000000	0.292890
1712.000000	0.292910
1713.000000	0.292968
1714.000000	0.293135
1715.000000	0.293211
1716.000000	0.293296
1717.000000	0.293321
1718.000000	0.293223
1719.000000	0.293153
1720.000000	0.293141
1721.000000	0.293054
1722.000000	0.292906
1723.000000	0.292818
1724.000000	0.292724
1725.000000	0.292686
1726.000000	0.292668
1727.000000	0.292581
1728.000000	0.292360
1729.000000	0.292246
1730.000000	0.292244
1731.000000	0.292293
1732.000000	0.292529
1733.000000	0.292615
1734.000000	0.292495
1735.000000	0.292530
1736.000000	0.292531
1737.000000	0.292545
1738.000000	0.292669
1739.000000	0.292727
1740.000000	0.292708
1741.000000	0.292683
1742.000000	0.292708
1743.000000	0.292674
1744.000000	0.292547
1745.000000	0.292421
1746.000000	0.292242
1747.000000	0.292224
1748.000000	0.292160
1749.000000	0.292215
1750.000000	0.292203
1751.000000	0.292233
1752.000000	0.292327
1753.000000	0.292323
1754.000000	0.292327
1755.000000	0.292320
1756.000000	0.292249
1757.000000	0.292101
1758.000000	0.292033
1759.000000	0.291921
1760.000000	0.291866
1761.000000	0.291842
1762.000000	0.291848
1763.000000	0.291937
1764.000000	0.291964
1765.000000	0.291989
1766.000000	0.291980
1767.000000	0.291774
1768.000000	0.291705
1769.000000	0.291761
1770.000000	0.291878
1771.000000	0.292097
1772.000000	0.292200
1773.000000	0.292211
1774.000000	0.292307
1775.000000	0.292466
1776.000000	0.292563
1777.000000	0.292679
1778.000000	0.292712
1779.000000	0.292634
1780.000000	0.292584
1781.000000	0.292492
1782.000000	0.292429
1783.000000	0.292359
1784.000000	0.292425
1785.000000	0.292466
1786.000000	0.292560
1787.000000	0.292744
1788.000000	0.292754
1789.000000	0.292643
1790.000000	0.292475
1791.000000	0.292339
1792.000000	0.292367
1793.000000	0.292336
1794.000000	0.292301
1795.000000	0.292284
1796.000000	0.292222
1797.000000	0.292176
1798.000000	0.292110
1799.000000	0.292112
1800.000000	0.292252
1801.000000	0.291813
1802.000000	0.291942
1803.000000	0.292719
1804.000000	0.292905
1805.000000	0.292698
1806.000000	0.292851
1807.000000	0.293386
1808.000000	0.293328
1809.000000	0.293056
1810.000000	0.292775
1811.000000	0.292513
1812.000000	0.291688
1813.000000	0.291598
1814.000000	0.292120
1815.000000	0.292292
1816.000000	0.292667
1817.000000	0.292632
1818.000000	0.292192
1819.000000	0.292248
1820.000000	0.292300
1821.000000	0.292089
1822.000000	0.291934
1823.000000	0.291911
1824.000000	0.291566
1825.000000	0.290601
1826.000000	0.290334
1827.000000	0.290147
1828.000000	0.290072
1829.000000	0.290231
1830.000000	0.290570
1831.000000	0.290732
1832.000000	0.290794
1833.000000	0.290869
1834.000000	0.291085
1835.000000	0.291040
1836.000000	0.290495
1837.000000	0.290386
1838.000000	0.290264
1839.000000	0.290235
1840.000000	0.290215
1841.000000	0.290429
1842.000000	0.290412
1843.000000	0.290055
1844.000000	0.289981
1845.000000	0.289828
1846.000000	0.289886
1847.000000	0.289772
1848.000000	0.290227
1849.000000	0.290581
1850.000000	0.290686
1851.000000	0.290984
1852.000000	0.291211
1853.000000	0.291300
1854.000000	0.291294
1855.000000	0.291320
1856.000000	0.291036
1857.000000	0.291191
1858.000000	0.291010
1859.000000	0.290919
1860.000000	0.290734
1861.000000	0.290239
1862.000000	0.289970
1863.000000	0.289812
1864.000000	0.289736
1865.000000	0.289897
1866.000000	0.289819
1867.000000	0.289789
1868.000000	0.289530
1869.000000	0.288943
1870.000000	0.288340
1871.000000	0.287682
1872.000000	0.287405
1873.000000	0.287276
1874.000000	0.287453
1875.000000	0.287447
1876.000000	0.287480
1877.000000	0.286948
1878.000000	0.286298
1879.000000	0.285467
1880.000000	0.285089
1881.000000	0.284820
1882.000000	0.284388
1883.000000	0.284432
1884.000000	0.284104
1885.000000	0.283158
1886.000000	0.282549
1887.000000	0.282112
1888.000000	0.281122
1889.000000	0.280508
1890.000000	0.280221
1891.000000	0.279752
1892.000000	0.279238
1893.000000	0.278459
1894.000000	0.277635
1895.000000	0.276737
1896.000000	0.275833
1897.000000	0.275031
1898.000000	0.274162
1899.000000	0.273648
1900.000000	0.273455
1901.000000	0.273358
1902.000000	0.273434
1903.000000	0.273079
1904.000000	0.272701
1905.000000	0.272344
1906.000000	0.272075
1907.000000	0.271800
1908.000000	0.272036
1909.000000	0.272364
1910.000000	0.272930
1911.000000	0.273508
1912.000000	0.273958
1913.000000	0.274390
1914.000000	0.274720
1915.000000	0.274907
1916.000000	0.275170
1917.000000	0.275259
1918.000000	0.275376
1919.000000	0.275291
1920.000000	0.275388
1921.000000	0.275460
1922.000000	0.275495
1923.000000	0.275638
1924.000000	0.275649
1925.000000	0.275836
1926.000000	0.276302
1927.000000	0.276826
1928.000000	0.277102
1929.000000	0.277416
1930.000000	0.277498
1931.000000	0.277297
1932.000000	0.277181
1933.000000	0.277342
1934.000000	0.277509
1935.000000	0.277698
1936.000000	0.277688
1937.000000	0.277718
1938.000000	0.277728
1939.000000	0.277514
1940.000000	0.277123
1941.000000	0.277077
1942.000000	0.276966
1943.000000	0.276790
1944.000000	0.276859
1945.000000	0.276903
1946.000000	0.277078
1947.000000	0.277158
1948.000000	0.277576
1949.000000	0.278413
1950.000000	0.278873
1951.000000	0.279165
1952.000000	0.279526
1953.000000	0.279682
1954.000000	0.279253
1955.000000	0.278865
1956.000000	0.278559
1957.000000	0.278233
1958.000000	0.278394
1959.000000	0.278854
1960.000000	0.278949
1961.000000	0.278992
1962.000000	0.279156
1963.000000	0.279306
1964.000000	0.279514
1965.000000	0.279752
1966.000000	0.280037
1967.000000	0.280174
1968.000000	0.279904
1969.000000	0.279809
1970.000000	0.279810
1971.000000	0.279773
1972.000000	0.280033
1973.000000	0.279993
1974.000000	0.279993
1975.000000	0.280000
1976.000000	0.279877
1977.000000	0.279860
1978.000000	0.280015
1979.000000	0.280164
1980.000000	0.280358
1981.000000	0.280350
1982.000000	0.280222
1983.000000	0.280326
1984.000000	0.280522
1985.000000	0.281053
1986.000000	0.281179
1987.000000	0.281366
1988.000000	0.281480
1989.000000	0.280993
1990.000000	0.280612
1991.000000	0.280358
1992.000000	0.280221
1993.000000	0.280727
1994.000000	0.281359
1995.000000	0.281359
1996.000000	0.281307
1997.000000	0.281344
1998.000000	0.280944
1999.000000	0.280860
2000.000000	0.281069
2001.000000	0.281546
2002.000000	0.281470
2003.000000	0.281673
2004.000000	0.281814
2005.000000	0.281509
2006.000000	0.281312
2007.000000	0.281128
2008.000000	0.281169
2009.000000	0.281400
2010.000000	0.281516
2011.000000	0.281580
2012.000000	0.281665
2013.000000	0.281670
2014.000000	0.281517
2015.000000	0.281401
2016.000000	0.281728
2017.000000	0.281708
2018.000000	0.281415
2019.000000	0.281572
2020.000000	0.281533
2021.000000	0.281567
2022.000000	0.281745
2023.000000	0.281865
2024.000000	0.282061
2025.000000	0.282112
2026.000000	0.282010
2027.000000	0.281668
2028.000000	0.281499
2029.000000	0.281282
2030.000000	0.281056
2031.000000	0.281123
2032.000000	0.281425
2033.000000	0.281749
2034.000000	0.281888
2035.000000	0.282283
2036.000000	0.282307
2037.000000	0.282083
2038.000000	0.282011
2039.000000	0.281971
2040.000000	0.281978
2041.000000	0.281947
2042.000000	0.281984
2043.000000	0.282048
2044.000000	0.282031
2045.000000	0.282362
2046.000000	0.282560
2047.000000	0.282595
2048.000000	0.282521
2049.000000	0.282693
2050.000000	0.282382
2051.000000	0.282187
2052.000000	0.282008
2053.000000	0.281871
2054.000000	0.281763
2055.000000	0.282170
2056.000000	0.282409
2057.000000	0.282726
2058.000000	0.283400
2059.000000	0.283782
2060.000000	0.283879
2061.000000	0.284000
2062.000000	0.283863
2063.000000	0.283158
2064.000000	0.282725
2065.000000	0.282649
2066.000000	0.282401
2067.000000	0.282395
2068.000000	0.282243
2069.000000	0.281829
2070.000000	0.281765
2071.000000	0.281777
2072.000000	0.281657
2073.000000	0.281874
2074.000000	0.282004
2075.000000	0.282194
2076.000000	0.282517
2077.000000	0.282572
2078.000000	0.282561
2079.000000	0.282461
2080.000000	0.281885
2081.000000	0.281838
2082.000000	0.282138
2083.000000	0.282399
2084.000000	0.282705
2085.000000	0.282474
2086.000000	0.282082
2087.000000	0.281974
2088.000000	0.281558
2089.000000	0.281751
2090.000000	0.281708
2091.000000	0.281521
2092.000000	0.281518
2093.000000	0.281703
2094.000000	0.281737
2095.000000	0.281822
2096.000000	0.281895
2097.000000	0.281799
2098.000000	0.281925
2099.000000	0.281898
2100.000000	0.281899
2101.000000	0.281540
2102.000000	0.280864
2103.000000	0.280499
2104.000000	0.280331
2105.000000	0.280236
2106.000000	0.280528
2107.000000	0.280671
2108.000000	0.280618
2109.000000	0.280849
2110.000000	0.281424
2111.000000	0.281474
2112.000000	0.281261
2113.000000	0.280798
2114.000000	0.280615
2115.000000	0.280550
2116.000000	0.280950
2117.000000	0.281539
2118.000000	0.281371
2119.000000	0.280898
2120.000000	0.280975
2121.000000	0.281169
2122.000000	0.281231
2123.000000	0.281772
2124.000000	0.281836
2125.000000	0.281366
2126.000000	0.281077
2127.000000	0.280633
2128.000000	0.280631
2129.000000	0.280694
2130.000000	0.281048
2131.000000	0.281132
2132.000000	0.281026
2133.000000	0.280981
2134.000000	0.280398
2135.000000	0.279790
2136.000000	0.279619
2137.000000	0.279604
2138.000000	0.279608
2139.000000	0.279772
2140.000000	0.280661
2141.000000	0.280894
2142.000000	0.280583
2143.000000	0.280447
2144.000000	0.280399
2145.000000	0.280331
2146.000000	0.280145
2147.000000	0.280764
2148.000000	0.281384
2149.000000	0.281486
2150.000000	0.281443
2151.000000	0.281681
2152.000000	0.281617
2153.000000	0.281189
2154.000000	0.281044
2155.000000	0.281091
2156.000000	0.281120
2157.000000	0.281272
2158.000000	0.281397
2159.000000	0.281760
2160.000000	0.281865
2161.000000	0.281620
2162.000000	0.281705
2163.000000	0.281740
2164.000000	0.281739
2165.000000	0.281869
2166.000000	0.282021
2167.000000	0.281882
2168.000000	0.281871
2169.000000	0.281872
2170.000000	0.281786
2171.000000	0.281500
2172.000000	0.280992
2173.000000	0.280719
2174.000000	0.280208
2175.000000	0.279978
2176.000000	0.280116
2177.000000	0.280144
2178.000000	0.280432
2179.000000	0.280467
2180.000000	0.280182
2181.000000	0.280428
2182.000000	0.280197
2183.000000	0.280176
2184.000000	0.280574
2185.000000	0.280397
2186.000000	0.279961
2187.000000	0.279573
2188.000000	0.279347
2189.000000	0.279024
2190.000000	0.279176
2191.000000	0.279529
2192.000000	0.279145
2193.000000	0.278133
2194.000000	0.277716
2195.000000	0.276810
2196.000000	0.276795
2197.000000	0.278164
2198.000000	0.278356
2199.000000	0.278117
2200.000000	0.278458
2201.000000	0.278632
2202.000000	0.278816
2203.000000	0.279757
2204.000000	0.279526
2205.000000	0.278807
2206.000000	0.278711
2207.000000	0.279333
2208.000000	0.280349
2209.000000	0.281447
2210.000000	0.281791
2211.000000	0.280072
2212.000000	0.279403
2213.000000	0.278629
2214.000000	0.276821
2215.000000	0.276472
2216.000000	0.277596
2217.000000	0.277580
2218.000000	0.277298
2219.000000	0.277895
2220.000000	0.278664
2221.000000	0.279132
2222.000000	0.280457
2223.000000	0.280705
2224.000000	0.279296
2225.000000	0.279886
2226.000000	0.280071
2227.000000	0.279629
2228.000000	0.281256
2229.000000	0.281193
2230.000000	0.280421
2231.000000	0.281566
2232.000000	0.280281
2233.000000	0.278783
2234.000000	0.278795
2235.000000	0.277754
2236.000000	0.277166
2237.000000	0.277219
2238.000000	0.277162
2239.000000	0.276762
2240.000000	0.276626
2241.000000	0.276817
2242.000000	0.276656
2243.000000	0.276431
2244.000000	0.276415
2245.000000	0.276528
2246.000000	0.276940
2247.000000	0.277142
2248.000000	0.277095
2249.000000	0.277627
2250.000000	0.276932
2251.000000	0.276519
2252.000000	0.277690
2253.000000	0.277767
2254.000000	0.279080
2255.000000	0.279777
2256.000000	0.279938
2257.000000	0.282257
2258.000000	0.283027
2259.000000	0.281000
2260.000000	0.280515
2261.000000	0.279703
2262.000000	0.276826
2263.000000	0.276216
2264.000000	0.277805
2265.000000	0.277968
2266.000000	0.278057
2267.000000	0.277975
2268.000000	0.277570
2269.000000	0.277267
2270.000000	0.276414
2271.000000	0.276667
2272.000000	0.278208
2273.000000	0.278629
2274.000000	0.279144
2275.000000	0.278914
2276.000000	0.277728
2277.000000	0.276027
2278.000000	0.275158
2279.000000	0.275687
2280.000000	0.276154
2281.000000	0.276267
2282.000000	0.276677
2283.000000	0.275838
2284.000000	0.274373
2285.000000	0.273699
2286.000000	0.272626
2287.000000	0.271936
2288.000000	0.272017
2289.000000	0.271729
2290.000000	0.271083
2291.000000	0.270350
2292.000000	0.269692
2293.000000	0.269199
2294.000000	0.269014
2295.000000	0.269180
2296.000000	0.269049
2297.000000	0.269143
2298.000000	0.268901
2299.000000	0.268647
2300.000000	0.268363
2301.000000	0.267656
2302.000000	0.267607
2303.000000	0.267667
2304.000000	0.267120
2305.000000	0.266355
2306.000000	0.266231
2307.000000	0.266027
2308.000000	0.266184
2309.000000	0.266944
2310.000000	0.267052
2311.000000	0.264838
2312.000000	0.263508
2313.000000	0.262800
2314.000000	0.261672
2315.000000	0.262421
2316.000000	0.264350
2317.000000	0.264488
2318.000000	0.264573
2319.000000	0.264799
2320.000000	0.263912
2321.000000	0.264308
2322.000000	0.266005
2323.000000	0.267466
2324.000000	0.268284
2325.000000	0.268968
2326.000000	0.269715
2327.000000	0.270781
2328.000000	0.272235
2329.000000	0.273105
2330.000000	0.273103
2331.000000	0.272528
2332.000000	0.271562
2333.000000	0.271127
2334.000000	0.270759
2335.000000	0.270374
2336.000000	0.269433
2337.000000	0.268688
2338.000000	0.267508
2339.000000	0.267578
2340.000000	0.268028
2341.000000	0.268681
2342.000000	0.270927
2343.000000	0.271341
2344.000000	0.271271
2345.000000	0.270762
2346.000000	0.268323
2347.000000	0.267567
2348.000000	0.267194
2349.000000	0.267520
2350.000000	0.268536
2351.000000	0.269751
2352.000000	0.269448
2353.000000	0.269223
2354.000000	0.267830
2355.000000	0.267240
2356.000000	0.269078
2357.000000	0.269773
2358.000000	0.270677
2359.000000	0.270773
2360.000000	0.269559
2361.000000	0.269951
2362.000000	0.270625
2363.000000	0.272552
2364.000000	0.274925
2365.000000	0.275175
2366.000000	0.273391
2367.000000	0.272765
2368.000000	0.271093
2369.000000	0.268604
2370.000000	0.268984
2371.000000	0.267977
2372.000000	0.268483
2373.000000	0.269996
2374.000000	0.268433
2375.000000	0.268642
2376.000000	0.268131
2377.000000	0.266904
2378.000000	0.267338
2379.000000	0.266074
2380.000000	0.266377
2381.000000	0.266324
2382.000000	0.263821
2383.000000	0.262184
2384.000000	0.259813
2385.000000	0.258195
2386.000000	0.256705
2387.000000	0.254828
2388.000000	0.253087
2389.000000	0.251666
2390.000000	0.255441
2391.000000	0.260512
2392.000000	0.262257
2393.000000	0.262181
2394.000000	0.260904
2395.000000	0.261354
2396.000000	0.264816
2397.000000	0.268132
2398.000000	0.267851
2399.000000	0.263960
2400.000000	0.258402
2401.000000	0.256351
2402.000000	0.256155
2403.000000	0.256478
2404.000000	0.257607
2405.000000	0.254939
2406.000000	0.256236
2407.000000	0.257695
2408.000000	0.259099
2409.000000	0.263430
2410.000000	0.263260
2411.000000	0.263694
2412.000000	0.263197
2413.000000	0.260527
2414.000000	0.257893
2415.000000	0.251347
2416.000000	0.245071
2417.000000	0.250559
2418.000000	0.255932
2419.000000	0.261707
2420.000000	0.273237
2421.000000	0.269188
2422.000000	0.262909
2423.000000	0.259238
2424.000000	0.252721
2425.000000	0.249703
2426.000000	0.245894
2427.000000	0.244492
2428.000000	0.245469
2429.000000	0.247885
2430.000000	0.253724
2431.000000	0.256163
2432.000000	0.253057
2433.000000	0.249813
2434.000000	0.247074
2435.000000	0.247604
2436.000000	0.250552
2437.000000	0.254540
2438.000000	0.255728
2439.000000	0.253935
2440.000000	0.255790
2441.000000	0.260682
2442.000000	0.269394
2443.000000	0.277630
2444.000000	0.275589
2445.000000	0.271223
2446.000000	0.266608
2447.000000	0.258308
2448.000000	0.257934
2449.000000	0.257878
2450.000000	0.255487
2451.000000	0.253172
2452.000000	0.251063
2453.000000	0.253073
2454.000000	0.254240
2455.000000	0.254304
2456.000000	0.253269
2457.000000	0.251965
2458.000000	0.249694
2459.000000	0.246208
2460.000000	0.251229
2461.000000	0.258861
2462.000000	0.246090
2463.000000	0.236097
2464.000000	0.234123
2465.000000	0.222844
2466.000000	0.224792
2467.000000	0.236819
2468.000000	0.236082
2469.000000	0.233776
2470.000000	0.241717
2471.000000	0.238608
2472.000000	0.232243
2473.000000	0.241156
2474.000000	0.236001
2475.000000	0.225684
2476.000000	0.231470
2477.000000	0.218058
2478.000000	0.198017
2479.000000	0.208690
2480.000000	0.217790
2481.000000	0.210563
2482.000000	0.218813
2483.000000	0.207636
2484.000000	0.171870
2485.000000	0.184118
2486.000000	0.209310
2487.000000	0.238017
2488.000000	0.264703
2489.000000	0.238768
2490.000000	0.210204
2491.000000	0.196838
2492.000000	0.184356
2493.000000	0.205307
2494.000000	0.209022
2495.000000	0.169195
2496.000000	0.166769
2497.000000	0.191046
2498.000000	0.205444
2499.000000	0.262024
2500.000000	0.276840
