# Wavelength	SM1200H-60_HEX-10_FV7-30_00000.asd.rts.txt
350.000000	0.301509
351.000000	0.304142
352.000000	0.298812
353.000000	0.297971
354.000000	0.306585
355.000000	0.301862
356.000000	0.302236
357.000000	0.308356
358.000000	0.303844
359.000000	0.298432
360.000000	0.299241
361.000000	0.308419
362.000000	0.306512
363.000000	0.300871
364.000000	0.298381
365.000000	0.302887
366.000000	0.307611
367.000000	0.308521
368.000000	0.303881
369.000000	0.306731
370.000000	0.310568
371.000000	0.305382
372.000000	0.303879
373.000000	0.305464
374.000000	0.308515
375.000000	0.310736
376.000000	0.310934
377.000000	0.310751
378.000000	0.315449
379.000000	0.313778
380.000000	0.309582
381.000000	0.311482
382.000000	0.314321
383.000000	0.316418
384.000000	0.317287
385.000000	0.316303
386.000000	0.315817
387.000000	0.316129
388.000000	0.314793
389.000000	0.314996
390.000000	0.315861
391.000000	0.315041
392.000000	0.315411
393.000000	0.315685
394.000000	0.314977
395.000000	0.315622
396.000000	0.316035
397.000000	0.315769
398.000000	0.316093
399.000000	0.315870
400.000000	0.316179
401.000000	0.318611
402.000000	0.319644
403.000000	0.319827
404.000000	0.320333
405.000000	0.320626
406.000000	0.320850
407.000000	0.321199
408.000000	0.321835
409.000000	0.321951
410.000000	0.321818
411.000000	0.322276
412.000000	0.322882
413.000000	0.323588
414.000000	0.324313
415.000000	0.324086
416.000000	0.323576
417.000000	0.323517
418.000000	0.324781
419.000000	0.325510
420.000000	0.325649
421.000000	0.326671
422.000000	0.326749
423.000000	0.326268
424.000000	0.326330
425.000000	0.326612
426.000000	0.327044
427.000000	0.327532
428.000000	0.327956
429.000000	0.328352
430.000000	0.328697
431.000000	0.328822
432.000000	0.329098
433.000000	0.329473
434.000000	0.329825
435.000000	0.329706
436.000000	0.329647
437.000000	0.330125
438.000000	0.330650
439.000000	0.331107
440.000000	0.331424
441.000000	0.330949
442.000000	0.331033
443.000000	0.331685
444.000000	0.332190
445.000000	0.332367
446.000000	0.332601
447.000000	0.333088
448.000000	0.333160
449.000000	0.333282
450.000000	0.333782
451.000000	0.334286
452.000000	0.334645
453.000000	0.334661
454.000000	0.334288
455.000000	0.334745
456.000000	0.335613
457.000000	0.335601
458.000000	0.335805
459.000000	0.336171
460.000000	0.336533
461.000000	0.336744
462.000000	0.337049
463.000000	0.337328
464.000000	0.337492
465.000000	0.337524
466.000000	0.337532
467.000000	0.337901
468.000000	0.338075
469.000000	0.338203
470.000000	0.338721
471.000000	0.338866
472.000000	0.338837
473.000000	0.338923
474.000000	0.339297
475.000000	0.339445
476.000000	0.339437
477.000000	0.339492
478.000000	0.339648
479.000000	0.340050
480.000000	0.340385
481.000000	0.340618
482.000000	0.340912
483.000000	0.341144
484.000000	0.341559
485.000000	0.341776
486.000000	0.341907
487.000000	0.342196
488.000000	0.342437
489.000000	0.342619
490.000000	0.342815
491.000000	0.343091
492.000000	0.343398
493.000000	0.343538
494.000000	0.344117
495.000000	0.344554
496.000000	0.344487
497.000000	0.344691
498.000000	0.345023
499.000000	0.345415
500.000000	0.345586
501.000000	0.345997
502.000000	0.346502
503.000000	0.346592
504.000000	0.346822
505.000000	0.347062
506.000000	0.347147
507.000000	0.347343
508.000000	0.347656
509.000000	0.348008
510.000000	0.348393
511.000000	0.348725
512.000000	0.349007
513.000000	0.349230
514.000000	0.349611
515.000000	0.350063
516.000000	0.350340
517.000000	0.350638
518.000000	0.350901
519.000000	0.351043
520.000000	0.351597
521.000000	0.351958
522.000000	0.352001
523.000000	0.352287
524.000000	0.352586
525.000000	0.352829
526.000000	0.353071
527.000000	0.353332
528.000000	0.353596
529.000000	0.353900
530.000000	0.354164
531.000000	0.354395
532.000000	0.354542
533.000000	0.354877
534.000000	0.355206
535.000000	0.355465
536.000000	0.355773
537.000000	0.356051
538.000000	0.356297
539.000000	0.356524
540.000000	0.356778
541.000000	0.357052
542.000000	0.357358
543.000000	0.357579
544.000000	0.357860
545.000000	0.358181
546.000000	0.358535
547.000000	0.358847
548.000000	0.359157
549.000000	0.359461
550.000000	0.359742
551.000000	0.360034
552.000000	0.360318
553.000000	0.360603
554.000000	0.360937
555.000000	0.361326
556.000000	0.361614
557.000000	0.361846
558.000000	0.362192
559.000000	0.362504
560.000000	0.362735
561.000000	0.363034
562.000000	0.363447
563.000000	0.363699
564.000000	0.363936
565.000000	0.364217
566.000000	0.364592
567.000000	0.364994
568.000000	0.365339
569.000000	0.365602
570.000000	0.365915
571.000000	0.366259
572.000000	0.366510
573.000000	0.366775
574.000000	0.367047
575.000000	0.367355
576.000000	0.367651
577.000000	0.367908
578.000000	0.368191
579.000000	0.368479
580.000000	0.368747
581.000000	0.369006
582.000000	0.369361
583.000000	0.369639
584.000000	0.369866
585.000000	0.370185
586.000000	0.370454
587.000000	0.370727
588.000000	0.371079
589.000000	0.371431
590.000000	0.371665
591.000000	0.371767
592.000000	0.371943
593.000000	0.372216
594.000000	0.372535
595.000000	0.372773
596.000000	0.373014
597.000000	0.373260
598.000000	0.373363
599.000000	0.373455
600.000000	0.373587
601.000000	0.373709
602.000000	0.374016
603.000000	0.374271
604.000000	0.374390
605.000000	0.374530
606.000000	0.374634
607.000000	0.374737
608.000000	0.374928
609.000000	0.375148
610.000000	0.375360
611.000000	0.375539
612.000000	0.375745
613.000000	0.375953
614.000000	0.376183
615.000000	0.376389
616.000000	0.376549
617.000000	0.376642
618.000000	0.376789
619.000000	0.376889
620.000000	0.376955
621.000000	0.377116
622.000000	0.377229
623.000000	0.377320
624.000000	0.377421
625.000000	0.377508
626.000000	0.377625
627.000000	0.377790
628.000000	0.378002
629.000000	0.378150
630.000000	0.378160
631.000000	0.378339
632.000000	0.378471
633.000000	0.378552
634.000000	0.378613
635.000000	0.378775
636.000000	0.378971
637.000000	0.379134
638.000000	0.379323
639.000000	0.379458
640.000000	0.379598
641.000000	0.379709
642.000000	0.379827
643.000000	0.379969
644.000000	0.380142
645.000000	0.380300
646.000000	0.380449
647.000000	0.380566
648.000000	0.380665
649.000000	0.380788
650.000000	0.380914
651.000000	0.381021
652.000000	0.381112
653.000000	0.381230
654.000000	0.381329
655.000000	0.381454
656.000000	0.381606
657.000000	0.381723
658.000000	0.381953
659.000000	0.382141
660.000000	0.382210
661.000000	0.382296
662.000000	0.382405
663.000000	0.382563
664.000000	0.382656
665.000000	0.382786
666.000000	0.382932
667.000000	0.383021
668.000000	0.383131
669.000000	0.383270
670.000000	0.383428
671.000000	0.383526
672.000000	0.383699
673.000000	0.383909
674.000000	0.384003
675.000000	0.384149
676.000000	0.384336
677.000000	0.384528
678.000000	0.384731
679.000000	0.384907
680.000000	0.385035
681.000000	0.385101
682.000000	0.385205
683.000000	0.385298
684.000000	0.385478
685.000000	0.385663
686.000000	0.385851
687.000000	0.385998
688.000000	0.386156
689.000000	0.386291
690.000000	0.386425
691.000000	0.386608
692.000000	0.386701
693.000000	0.386784
694.000000	0.386974
695.000000	0.387177
696.000000	0.387343
697.000000	0.387451
698.000000	0.387615
699.000000	0.387799
700.000000	0.387960
701.000000	0.388056
702.000000	0.388213
703.000000	0.388402
704.000000	0.388447
705.000000	0.388560
706.000000	0.388717
707.000000	0.388918
708.000000	0.389063
709.000000	0.389177
710.000000	0.389319
711.000000	0.389463
712.000000	0.389578
713.000000	0.389698
714.000000	0.389897
715.000000	0.389995
716.000000	0.390033
717.000000	0.390114
718.000000	0.390218
719.000000	0.390301
720.000000	0.390364
721.000000	0.390502
722.000000	0.390619
723.000000	0.390742
724.000000	0.390826
725.000000	0.390890
726.000000	0.391021
727.000000	0.391125
728.000000	0.391233
729.000000	0.391345
730.000000	0.391410
731.000000	0.391573
732.000000	0.391699
733.000000	0.391789
734.000000	0.391865
735.000000	0.391904
736.000000	0.392048
737.000000	0.392166
738.000000	0.392237
739.000000	0.392355
740.000000	0.392380
741.000000	0.392433
742.000000	0.392561
743.000000	0.392683
744.000000	0.392685
745.000000	0.392712
746.000000	0.392814
747.000000	0.392877
748.000000	0.393004
749.000000	0.393170
750.000000	0.393290
751.000000	0.393319
752.000000	0.393318
753.000000	0.393344
754.000000	0.393430
755.000000	0.393545
756.000000	0.393667
757.000000	0.393721
758.000000	0.393762
759.000000	0.393817
760.000000	0.393807
761.000000	0.393778
762.000000	0.393809
763.000000	0.393865
764.000000	0.393944
765.000000	0.393980
766.000000	0.394052
767.000000	0.394205
768.000000	0.394258
769.000000	0.394232
770.000000	0.394205
771.000000	0.394320
772.000000	0.394439
773.000000	0.394501
774.000000	0.394639
775.000000	0.394687
776.000000	0.394701
777.000000	0.394725
778.000000	0.394769
779.000000	0.394748
780.000000	0.394695
781.000000	0.394723
782.000000	0.394787
783.000000	0.394946
784.000000	0.395035
785.000000	0.395062
786.000000	0.395091
787.000000	0.395118
788.000000	0.395002
789.000000	0.395005
790.000000	0.395052
791.000000	0.394973
792.000000	0.394968
793.000000	0.395017
794.000000	0.395073
795.000000	0.395091
796.000000	0.395147
797.000000	0.395235
798.000000	0.395279
799.000000	0.395278
800.000000	0.395271
801.000000	0.395308
802.000000	0.395361
803.000000	0.395368
804.000000	0.395345
805.000000	0.395268
806.000000	0.395208
807.000000	0.395248
808.000000	0.395276
809.000000	0.395312
810.000000	0.395325
811.000000	0.395279
812.000000	0.395195
813.000000	0.395178
814.000000	0.395230
815.000000	0.395289
816.000000	0.395334
817.000000	0.395329
818.000000	0.395176
819.000000	0.395175
820.000000	0.395218
821.000000	0.395183
822.000000	0.395141
823.000000	0.395175
824.000000	0.395165
825.000000	0.395094
826.000000	0.395062
827.000000	0.395039
828.000000	0.395046
829.000000	0.395032
830.000000	0.395027
831.000000	0.395078
832.000000	0.395032
833.000000	0.394991
834.000000	0.394943
835.000000	0.394908
836.000000	0.394867
837.000000	0.394837
838.000000	0.394781
839.000000	0.394564
840.000000	0.394352
841.000000	0.394238
842.000000	0.394206
843.000000	0.394199
844.000000	0.394216
845.000000	0.394170
846.000000	0.393974
847.000000	0.393899
848.000000	0.393903
849.000000	0.393900
850.000000	0.393826
851.000000	0.393765
852.000000	0.393766
853.000000	0.393663
854.000000	0.393524
855.000000	0.393497
856.000000	0.393486
857.000000	0.393475
858.000000	0.393520
859.000000	0.393501
860.000000	0.393306
861.000000	0.393243
862.000000	0.393237
863.000000	0.393000
864.000000	0.392767
865.000000	0.392634
866.000000	0.392634
867.000000	0.392616
868.000000	0.392511
869.000000	0.392336
870.000000	0.392278
871.000000	0.392146
872.000000	0.392030
873.000000	0.391910
874.000000	0.391794
875.000000	0.391583
876.000000	0.391334
877.000000	0.391085
878.000000	0.390904
879.000000	0.390830
880.000000	0.390668
881.000000	0.390420
882.000000	0.390268
883.000000	0.390196
884.000000	0.390026
885.000000	0.389905
886.000000	0.389762
887.000000	0.389586
888.000000	0.389386
889.000000	0.389294
890.000000	0.389170
891.000000	0.389071
892.000000	0.388981
893.000000	0.388835
894.000000	0.388737
895.000000	0.388554
896.000000	0.388297
897.000000	0.388051
898.000000	0.387903
899.000000	0.387769
900.000000	0.387593
901.000000	0.387358
902.000000	0.387276
903.000000	0.387102
904.000000	0.386908
905.000000	0.386710
906.000000	0.386674
907.000000	0.386665
908.000000	0.386590
909.000000	0.386210
910.000000	0.385957
911.000000	0.385816
912.000000	0.385670
913.000000	0.385336
914.000000	0.385073
915.000000	0.384938
916.000000	0.384629
917.000000	0.384434
918.000000	0.384265
919.000000	0.384008
920.000000	0.383793
921.000000	0.383478
922.000000	0.383165
923.000000	0.383007
924.000000	0.382787
925.000000	0.382514
926.000000	0.382266
927.000000	0.382038
928.000000	0.381817
929.000000	0.381543
930.000000	0.381191
931.000000	0.380992
932.000000	0.380654
933.000000	0.380241
934.000000	0.380082
935.000000	0.379857
936.000000	0.379613
937.000000	0.379324
938.000000	0.379062
939.000000	0.378867
940.000000	0.378622
941.000000	0.378332
942.000000	0.378014
943.000000	0.377760
944.000000	0.377451
945.000000	0.377125
946.000000	0.376780
947.000000	0.376383
948.000000	0.375871
949.000000	0.375624
950.000000	0.375427
951.000000	0.375246
952.000000	0.375374
953.000000	0.375269
954.000000	0.374945
955.000000	0.374516
956.000000	0.374417
957.000000	0.374242
958.000000	0.373894
959.000000	0.373595
960.000000	0.373490
961.000000	0.373338
962.000000	0.372983
963.000000	0.372494
964.000000	0.372200
965.000000	0.372005
966.000000	0.371710
967.000000	0.371835
968.000000	0.371673
969.000000	0.371260
970.000000	0.371114
971.000000	0.370915
972.000000	0.370766
973.000000	0.370578
974.000000	0.370238
975.000000	0.369885
976.000000	0.369713
977.000000	0.369718
978.000000	0.369318
979.000000	0.369222
980.000000	0.369064
981.000000	0.368727
982.000000	0.368652
983.000000	0.368570
984.000000	0.368404
985.000000	0.368145
986.000000	0.367875
987.000000	0.367634
988.000000	0.367361
989.000000	0.367343
990.000000	0.367291
991.000000	0.367024
992.000000	0.366603
993.000000	0.366635
994.000000	0.366532
995.000000	0.366407
996.000000	0.366390
997.000000	0.366348
998.000000	0.366249
999.000000	0.366161
1000.000000	0.365972
1001.000000	0.366974
1002.000000	0.365903
1003.000000	0.365504
1004.000000	0.365047
1005.000000	0.364053
1006.000000	0.364122
1007.000000	0.365009
1008.000000	0.365586
1009.000000	0.365907
1010.000000	0.366053
1011.000000	0.366022
1012.000000	0.365828
1013.000000	0.365467
1014.000000	0.365117
1015.000000	0.364178
1016.000000	0.363780
1017.000000	0.364237
1018.000000	0.364728
1019.000000	0.364783
1020.000000	0.364941
1021.000000	0.364474
1022.000000	0.363085
1023.000000	0.362966
1024.000000	0.363231
1025.000000	0.363683
1026.000000	0.364045
1027.000000	0.364487
1028.000000	0.363993
1029.000000	0.363777
1030.000000	0.364086
1031.000000	0.364060
1032.000000	0.364141
1033.000000	0.364026
1034.000000	0.364267
1035.000000	0.364639
1036.000000	0.364944
1037.000000	0.365722
1038.000000	0.365939
1039.000000	0.366021
1040.000000	0.365577
1041.000000	0.365189
1042.000000	0.364901
1043.000000	0.364732
1044.000000	0.364752
1045.000000	0.364890
1046.000000	0.365110
1047.000000	0.365087
1048.000000	0.364529
1049.000000	0.364660
1050.000000	0.365235
1051.000000	0.365361
1052.000000	0.365514
1053.000000	0.365743
1054.000000	0.365731
1055.000000	0.366050
1056.000000	0.367072
1057.000000	0.367600
1058.000000	0.367371
1059.000000	0.367344
1060.000000	0.366748
1061.000000	0.366572
1062.000000	0.367108
1063.000000	0.367398
1064.000000	0.367708
1065.000000	0.368128
1066.000000	0.368427
1067.000000	0.368688
1068.000000	0.368697
1069.000000	0.368296
1070.000000	0.368403
1071.000000	0.368771
1072.000000	0.368790
1073.000000	0.368773
1074.000000	0.369280
1075.000000	0.369386
1076.000000	0.369284
1077.000000	0.369739
1078.000000	0.370257
1079.000000	0.370517
1080.000000	0.370598
1081.000000	0.370723
1082.000000	0.370904
1083.000000	0.371057
1084.000000	0.371238
1085.000000	0.371417
1086.000000	0.371568
1087.000000	0.371678
1088.000000	0.371451
1089.000000	0.371549
1090.000000	0.371835
1091.000000	0.371993
1092.000000	0.372362
1093.000000	0.373078
1094.000000	0.373317
1095.000000	0.373335
1096.000000	0.373381
1097.000000	0.373189
1098.000000	0.373209
1099.000000	0.373096
1100.000000	0.373341
1101.000000	0.373812
1102.000000	0.374125
1103.000000	0.374670
1104.000000	0.375000
1105.000000	0.375039
1106.000000	0.375226
1107.000000	0.375383
1108.000000	0.375504
1109.000000	0.375758
1110.000000	0.375916
1111.000000	0.376032
1112.000000	0.376030
1113.000000	0.376211
1114.000000	0.376355
1115.000000	0.376692
1116.000000	0.377441
1117.000000	0.377633
1118.000000	0.377512
1119.000000	0.377620
1120.000000	0.377662
1121.000000	0.377573
1122.000000	0.377548
1123.000000	0.377901
1124.000000	0.377910
1125.000000	0.378084
1126.000000	0.378788
1127.000000	0.379054
1128.000000	0.379115
1129.000000	0.378880
1130.000000	0.378931
1131.000000	0.378843
1132.000000	0.378972
1133.000000	0.379460
1134.000000	0.379688
1135.000000	0.379841
1136.000000	0.379912
1137.000000	0.379891
1138.000000	0.379788
1139.000000	0.379605
1140.000000	0.379652
1141.000000	0.379653
1142.000000	0.379720
1143.000000	0.380003
1144.000000	0.380187
1145.000000	0.380036
1146.000000	0.379886
1147.000000	0.379848
1148.000000	0.379589
1149.000000	0.379644
1150.000000	0.380009
1151.000000	0.380155
1152.000000	0.380191
1153.000000	0.380355
1154.000000	0.380505
1155.000000	0.380577
1156.000000	0.380747
1157.000000	0.380804
1158.000000	0.380587
1159.000000	0.380552
1160.000000	0.380651
1161.000000	0.380610
1162.000000	0.380621
1163.000000	0.380678
1164.000000	0.380687
1165.000000	0.380698
1166.000000	0.380748
1167.000000	0.380832
1168.000000	0.380868
1169.000000	0.380900
1170.000000	0.380958
1171.000000	0.381230
1172.000000	0.381199
1173.000000	0.380805
1174.000000	0.380769
1175.000000	0.380737
1176.000000	0.380648
1177.000000	0.380944
1178.000000	0.380973
1179.000000	0.380645
1180.000000	0.380478
1181.000000	0.380442
1182.000000	0.380396
1183.000000	0.380535
1184.000000	0.380729
1185.000000	0.380794
1186.000000	0.380854
1187.000000	0.380879
1188.000000	0.380779
1189.000000	0.380768
1190.000000	0.380849
1191.000000	0.380911
1192.000000	0.381148
1193.000000	0.381353
1194.000000	0.381403
1195.000000	0.381495
1196.000000	0.381544
1197.000000	0.381510
1198.000000	0.381482
1199.000000	0.381439
1200.000000	0.381297
1201.000000	0.381107
1202.000000	0.381074
1203.000000	0.381020
1204.000000	0.381034
1205.000000	0.381178
1206.000000	0.381132
1207.000000	0.381118
1208.000000	0.381080
1209.000000	0.381054
1210.000000	0.381039
1211.000000	0.381049
1212.000000	0.381048
1213.000000	0.381092
1214.000000	0.381053
1215.000000	0.380956
1216.000000	0.380908
1217.000000	0.380668
1218.000000	0.380629
1219.000000	0.380750
1220.000000	0.381000
1221.000000	0.381146
1222.000000	0.381215
1223.000000	0.381157
1224.000000	0.380977
1225.000000	0.380945
1226.000000	0.381010
1227.000000	0.380945
1228.000000	0.380976
1229.000000	0.380928
1230.000000	0.380778
1231.000000	0.380645
1232.000000	0.380625
1233.000000	0.380729
1234.000000	0.380841
1235.000000	0.380932
1236.000000	0.381045
1237.000000	0.381162
1238.000000	0.381208
1239.000000	0.381233
1240.000000	0.381252
1241.000000	0.381249
1242.000000	0.381259
1243.000000	0.381233
1244.000000	0.381240
1245.000000	0.381254
1246.000000	0.381178
1247.000000	0.381258
1248.000000	0.381366
1249.000000	0.381445
1250.000000	0.381507
1251.000000	0.381437
1252.000000	0.381292
1253.000000	0.380968
1254.000000	0.380856
1255.000000	0.380765
1256.000000	0.380713
1257.000000	0.380899
1258.000000	0.380954
1259.000000	0.380826
1260.000000	0.380818
1261.000000	0.380726
1262.000000	0.380659
1263.000000	0.380683
1264.000000	0.380643
1265.000000	0.380573
1266.000000	0.380536
1267.000000	0.380595
1268.000000	0.380617
1269.000000	0.380475
1270.000000	0.380542
1271.000000	0.380429
1272.000000	0.380160
1273.000000	0.380200
1274.000000	0.380165
1275.000000	0.380116
1276.000000	0.380172
1277.000000	0.380237
1278.000000	0.380126
1279.000000	0.380108
1280.000000	0.380039
1281.000000	0.379965
1282.000000	0.380023
1283.000000	0.380082
1284.000000	0.380101
1285.000000	0.380117
1286.000000	0.380122
1287.000000	0.379963
1288.000000	0.379965
1289.000000	0.379866
1290.000000	0.379693
1291.000000	0.379625
1292.000000	0.379584
1293.000000	0.379461
1294.000000	0.379433
1295.000000	0.379419
1296.000000	0.379265
1297.000000	0.379222
1298.000000	0.379156
1299.000000	0.379058
1300.000000	0.379241
1301.000000	0.379364
1302.000000	0.379330
1303.000000	0.379503
1304.000000	0.379398
1305.000000	0.379018
1306.000000	0.378879
1307.000000	0.378875
1308.000000	0.378828
1309.000000	0.378818
1310.000000	0.378841
1311.000000	0.378903
1312.000000	0.378845
1313.000000	0.378948
1314.000000	0.378974
1315.000000	0.378768
1316.000000	0.378651
1317.000000	0.378416
1318.000000	0.378263
1319.000000	0.378204
1320.000000	0.378043
1321.000000	0.378017
1322.000000	0.377861
1323.000000	0.377674
1324.000000	0.377604
1325.000000	0.377303
1326.000000	0.377238
1327.000000	0.377229
1328.000000	0.377060
1329.000000	0.376913
1330.000000	0.376803
1331.000000	0.376688
1332.000000	0.376624
1333.000000	0.376537
1334.000000	0.376600
1335.000000	0.376582
1336.000000	0.376400
1337.000000	0.376327
1338.000000	0.376328
1339.000000	0.376056
1340.000000	0.375812
1341.000000	0.375751
1342.000000	0.375682
1343.000000	0.375623
1344.000000	0.375531
1345.000000	0.375541
1346.000000	0.375458
1347.000000	0.375140
1348.000000	0.375078
1349.000000	0.375004
1350.000000	0.374961
1351.000000	0.374914
1352.000000	0.374710
1353.000000	0.374493
1354.000000	0.374336
1355.000000	0.374121
1356.000000	0.374004
1357.000000	0.373904
1358.000000	0.373791
1359.000000	0.373634
1360.000000	0.373440
1361.000000	0.373273
1362.000000	0.373100
1363.000000	0.372823
1364.000000	0.372652
1365.000000	0.372583
1366.000000	0.372398
1367.000000	0.372167
1368.000000	0.371864
1369.000000	0.371700
1370.000000	0.371347
1371.000000	0.370804
1372.000000	0.370349
1373.000000	0.369752
1374.000000	0.369073
1375.000000	0.368449
1376.000000	0.367731
1377.000000	0.366780
1378.000000	0.365559
1379.000000	0.364096
1380.000000	0.362368
1381.000000	0.360295
1382.000000	0.358096
1383.000000	0.355694
1384.000000	0.352977
1385.000000	0.350400
1386.000000	0.348074
1387.000000	0.346084
1388.000000	0.344549
1389.000000	0.343454
1390.000000	0.342611
1391.000000	0.341888
1392.000000	0.341678
1393.000000	0.341644
1394.000000	0.342024
1395.000000	0.342371
1396.000000	0.342983
1397.000000	0.343302
1398.000000	0.343609
1399.000000	0.343711
1400.000000	0.343745
1401.000000	0.343527
1402.000000	0.343161
1403.000000	0.342557
1404.000000	0.341860
1405.000000	0.341107
1406.000000	0.340441
1407.000000	0.339824
1408.000000	0.339258
1409.000000	0.338812
1410.000000	0.338352
1411.000000	0.337942
1412.000000	0.337598
1413.000000	0.337385
1414.000000	0.337365
1415.000000	0.337350
1416.000000	0.337333
1417.000000	0.337348
1418.000000	0.337228
1419.000000	0.337198
1420.000000	0.337252
1421.000000	0.337399
1422.000000	0.337592
1423.000000	0.337921
1424.000000	0.338087
1425.000000	0.338156
1426.000000	0.338335
1427.000000	0.338576
1428.000000	0.338813
1429.000000	0.339031
1430.000000	0.339194
1431.000000	0.339320
1432.000000	0.339416
1433.000000	0.339523
1434.000000	0.339682
1435.000000	0.339917
1436.000000	0.340095
1437.000000	0.340348
1438.000000	0.340440
1439.000000	0.340422
1440.000000	0.340491
1441.000000	0.340624
1442.000000	0.340683
1443.000000	0.340649
1444.000000	0.340680
1445.000000	0.340661
1446.000000	0.340378
1447.000000	0.340208
1448.000000	0.340194
1449.000000	0.340193
1450.000000	0.340242
1451.000000	0.340291
1452.000000	0.340226
1453.000000	0.340075
1454.000000	0.339939
1455.000000	0.340000
1456.000000	0.340162
1457.000000	0.340230
1458.000000	0.340358
1459.000000	0.340423
1460.000000	0.340456
1461.000000	0.340572
1462.000000	0.340614
1463.000000	0.340578
1464.000000	0.340579
1465.000000	0.340723
1466.000000	0.340914
1467.000000	0.341164
1468.000000	0.341504
1469.000000	0.341753
1470.000000	0.341903
1471.000000	0.342170
1472.000000	0.342329
1473.000000	0.342694
1474.000000	0.343109
1475.000000	0.343376
1476.000000	0.343790
1477.000000	0.344163
1478.000000	0.344431
1479.000000	0.344862
1480.000000	0.345196
1481.000000	0.345408
1482.000000	0.345508
1483.000000	0.345778
1484.000000	0.346034
1485.000000	0.346335
1486.000000	0.346754
1487.000000	0.347052
1488.000000	0.347243
1489.000000	0.347562
1490.000000	0.347812
1491.000000	0.348112
1492.000000	0.348494
1493.000000	0.348789
1494.000000	0.348921
1495.000000	0.349166
1496.000000	0.349388
1497.000000	0.349668
1498.000000	0.350089
1499.000000	0.350416
1500.000000	0.350649
1501.000000	0.350911
1502.000000	0.351091
1503.000000	0.351342
1504.000000	0.351653
1505.000000	0.351863
1506.000000	0.351982
1507.000000	0.352042
1508.000000	0.352132
1509.000000	0.352270
1510.000000	0.352400
1511.000000	0.352525
1512.000000	0.352657
1513.000000	0.352824
1514.000000	0.353115
1515.000000	0.353422
1516.000000	0.353713
1517.000000	0.354046
1518.000000	0.354301
1519.000000	0.354368
1520.000000	0.354497
1521.000000	0.354466
1522.000000	0.354408
1523.000000	0.354556
1524.000000	0.354576
1525.000000	0.354711
1526.000000	0.354916
1527.000000	0.355031
1528.000000	0.355305
1529.000000	0.355537
1530.000000	0.355625
1531.000000	0.355852
1532.000000	0.356015
1533.000000	0.356056
1534.000000	0.356185
1535.000000	0.356397
1536.000000	0.356532
1537.000000	0.356784
1538.000000	0.356953
1539.000000	0.356898
1540.000000	0.357053
1541.000000	0.357189
1542.000000	0.357290
1543.000000	0.357533
1544.000000	0.357689
1545.000000	0.357936
1546.000000	0.358142
1547.000000	0.358212
1548.000000	0.358378
1549.000000	0.358447
1550.000000	0.358435
1551.000000	0.358555
1552.000000	0.358575
1553.000000	0.358535
1554.000000	0.358627
1555.000000	0.358672
1556.000000	0.358605
1557.000000	0.358488
1558.000000	0.358502
1559.000000	0.358478
1560.000000	0.358481
1561.000000	0.358674
1562.000000	0.358693
1563.000000	0.358572
1564.000000	0.358680
1565.000000	0.358890
1566.000000	0.358943
1567.000000	0.359199
1568.000000	0.359283
1569.000000	0.359241
1570.000000	0.359270
1571.000000	0.359310
1572.000000	0.359326
1573.000000	0.359328
1574.000000	0.359326
1575.000000	0.359311
1576.000000	0.359350
1577.000000	0.359432
1578.000000	0.359408
1579.000000	0.359429
1580.000000	0.359461
1581.000000	0.359477
1582.000000	0.359527
1583.000000	0.359680
1584.000000	0.359661
1585.000000	0.359634
1586.000000	0.359637
1587.000000	0.359538
1588.000000	0.359575
1589.000000	0.359734
1590.000000	0.359792
1591.000000	0.359947
1592.000000	0.359996
1593.000000	0.359952
1594.000000	0.359927
1595.000000	0.359960
1596.000000	0.359895
1597.000000	0.359729
1598.000000	0.359719
1599.000000	0.359791
1600.000000	0.359798
1601.000000	0.359975
1602.000000	0.360028
1603.000000	0.359981
1604.000000	0.360017
1605.000000	0.360133
1606.000000	0.360209
1607.000000	0.360396
1608.000000	0.360420
1609.000000	0.360394
1610.000000	0.360377
1611.000000	0.360234
1612.000000	0.360259
1613.000000	0.360574
1614.000000	0.360654
1615.000000	0.360790
1616.000000	0.360868
1617.000000	0.360681
1618.000000	0.360693
1619.000000	0.360770
1620.000000	0.360865
1621.000000	0.361133
1622.000000	0.361267
1623.000000	0.361292
1624.000000	0.361344
1625.000000	0.361163
1626.000000	0.361086
1627.000000	0.361125
1628.000000	0.361123
1629.000000	0.361077
1630.000000	0.361071
1631.000000	0.360999
1632.000000	0.360912
1633.000000	0.360843
1634.000000	0.360854
1635.000000	0.360936
1636.000000	0.360946
1637.000000	0.361017
1638.000000	0.360985
1639.000000	0.360878
1640.000000	0.360855
1641.000000	0.360965
1642.000000	0.361016
1643.000000	0.361074
1644.000000	0.361158
1645.000000	0.361272
1646.000000	0.361269
1647.000000	0.361300
1648.000000	0.361274
1649.000000	0.361229
1650.000000	0.361227
1651.000000	0.361284
1652.000000	0.361326
1653.000000	0.361306
1654.000000	0.361345
1655.000000	0.361378
1656.000000	0.361248
1657.000000	0.361071
1658.000000	0.361020
1659.000000	0.361084
1660.000000	0.361190
1661.000000	0.361361
1662.000000	0.361401
1663.000000	0.361340
1664.000000	0.361225
1665.000000	0.360965
1666.000000	0.361077
1667.000000	0.361207
1668.000000	0.361329
1669.000000	0.361690
1670.000000	0.361735
1671.000000	0.361672
1672.000000	0.361727
1673.000000	0.361725
1674.000000	0.361739
1675.000000	0.361904
1676.000000	0.362005
1677.000000	0.362058
1678.000000	0.362101
1679.000000	0.362151
1680.000000	0.362168
1681.000000	0.362135
1682.000000	0.362050
1683.000000	0.361999
1684.000000	0.361939
1685.000000	0.361926
1686.000000	0.361994
1687.000000	0.362049
1688.000000	0.362022
1689.000000	0.362076
1690.000000	0.362042
1691.000000	0.361909
1692.000000	0.361694
1693.000000	0.361483
1694.000000	0.361424
1695.000000	0.361577
1696.000000	0.361780
1697.000000	0.361842
1698.000000	0.361819
1699.000000	0.361844
1700.000000	0.361872
1701.000000	0.361982
1702.000000	0.361984
1703.000000	0.361886
1704.000000	0.361754
1705.000000	0.361740
1706.000000	0.361806
1707.000000	0.361816
1708.000000	0.361849
1709.000000	0.361849
1710.000000	0.361922
1711.000000	0.361923
1712.000000	0.361928
1713.000000	0.361952
1714.000000	0.362005
1715.000000	0.361967
1716.000000	0.362004
1717.000000	0.361892
1718.000000	0.361444
1719.000000	0.361262
1720.000000	0.361233
1721.000000	0.361181
1722.000000	0.361235
1723.000000	0.361294
1724.000000	0.361384
1725.000000	0.361475
1726.000000	0.361519
1727.000000	0.361603
1728.000000	0.361593
1729.000000	0.361592
1730.000000	0.361833
1731.000000	0.361882
1732.000000	0.361878
1733.000000	0.361885
1734.000000	0.361647
1735.000000	0.361546
1736.000000	0.361425
1737.000000	0.361322
1738.000000	0.361253
1739.000000	0.361256
1740.000000	0.361293
1741.000000	0.361275
1742.000000	0.361314
1743.000000	0.361361
1744.000000	0.361331
1745.000000	0.361332
1746.000000	0.361405
1747.000000	0.361215
1748.000000	0.361110
1749.000000	0.361097
1750.000000	0.360963
1751.000000	0.360961
1752.000000	0.361057
1753.000000	0.360949
1754.000000	0.360868
1755.000000	0.360899
1756.000000	0.360766
1757.000000	0.360355
1758.000000	0.360219
1759.000000	0.360166
1760.000000	0.360092
1761.000000	0.360147
1762.000000	0.360145
1763.000000	0.360100
1764.000000	0.360051
1765.000000	0.360007
1766.000000	0.359951
1767.000000	0.359748
1768.000000	0.359552
1769.000000	0.359474
1770.000000	0.359399
1771.000000	0.359248
1772.000000	0.359123
1773.000000	0.358987
1774.000000	0.358815
1775.000000	0.358566
1776.000000	0.358611
1777.000000	0.358786
1778.000000	0.358855
1779.000000	0.359076
1780.000000	0.359179
1781.000000	0.359098
1782.000000	0.359079
1783.000000	0.359188
1784.000000	0.359348
1785.000000	0.359138
1786.000000	0.359139
1787.000000	0.359094
1788.000000	0.359003
1789.000000	0.359084
1790.000000	0.359510
1791.000000	0.359685
1792.000000	0.359992
1793.000000	0.360122
1794.000000	0.360061
1795.000000	0.359955
1796.000000	0.359605
1797.000000	0.359481
1798.000000	0.359380
1799.000000	0.359289
1800.000000	0.359469
1801.000000	0.360186
1802.000000	0.359636
1803.000000	0.358317
1804.000000	0.358443
1805.000000	0.359960
1806.000000	0.360746
1807.000000	0.362400
1808.000000	0.362897
1809.000000	0.362517
1810.000000	0.362469
1811.000000	0.361834
1812.000000	0.359967
1813.000000	0.359836
1814.000000	0.360695
1815.000000	0.360494
1816.000000	0.360495
1817.000000	0.360328
1818.000000	0.359172
1819.000000	0.359022
1820.000000	0.358671
1821.000000	0.358973
1822.000000	0.358759
1823.000000	0.357797
1824.000000	0.357351
1825.000000	0.356863
1826.000000	0.356885
1827.000000	0.356877
1828.000000	0.357537
1829.000000	0.358568
1830.000000	0.359238
1831.000000	0.359469
1832.000000	0.359202
1833.000000	0.359270
1834.000000	0.359234
1835.000000	0.359123
1836.000000	0.358977
1837.000000	0.359000
1838.000000	0.358785
1839.000000	0.358445
1840.000000	0.358644
1841.000000	0.358665
1842.000000	0.358681
1843.000000	0.358824
1844.000000	0.358572
1845.000000	0.358179
1846.000000	0.357655
1847.000000	0.356606
1848.000000	0.355119
1849.000000	0.354759
1850.000000	0.354337
1851.000000	0.354191
1852.000000	0.354642
1853.000000	0.354871
1854.000000	0.354856
1855.000000	0.354889
1856.000000	0.354985
1857.000000	0.355067
1858.000000	0.354958
1859.000000	0.353842
1860.000000	0.352551
1861.000000	0.351355
1862.000000	0.350219
1863.000000	0.349234
1864.000000	0.348360
1865.000000	0.347479
1866.000000	0.346626
1867.000000	0.346114
1868.000000	0.344875
1869.000000	0.343478
1870.000000	0.341618
1871.000000	0.339073
1872.000000	0.337085
1873.000000	0.335236
1874.000000	0.333576
1875.000000	0.332108
1876.000000	0.330996
1877.000000	0.328829
1878.000000	0.326952
1879.000000	0.324733
1880.000000	0.321297
1881.000000	0.317789
1882.000000	0.314782
1883.000000	0.311175
1884.000000	0.307915
1885.000000	0.305439
1886.000000	0.301885
1887.000000	0.297509
1888.000000	0.293482
1889.000000	0.288816
1890.000000	0.284238
1891.000000	0.280443
1892.000000	0.276290
1893.000000	0.272014
1894.000000	0.267933
1895.000000	0.264113
1896.000000	0.260384
1897.000000	0.256900
1898.000000	0.253931
1899.000000	0.251833
1900.000000	0.249697
1901.000000	0.247250
1902.000000	0.245367
1903.000000	0.243364
1904.000000	0.241712
1905.000000	0.240582
1906.000000	0.239376
1907.000000	0.238206
1908.000000	0.237699
1909.000000	0.237115
1910.000000	0.237094
1911.000000	0.237763
1912.000000	0.237815
1913.000000	0.238510
1914.000000	0.239224
1915.000000	0.239792
1916.000000	0.240970
1917.000000	0.241674
1918.000000	0.242363
1919.000000	0.242884
1920.000000	0.242946
1921.000000	0.243076
1922.000000	0.243842
1923.000000	0.244546
1924.000000	0.245514
1925.000000	0.246439
1926.000000	0.247227
1927.000000	0.248278
1928.000000	0.248911
1929.000000	0.249391
1930.000000	0.249989
1931.000000	0.250536
1932.000000	0.250706
1933.000000	0.251336
1934.000000	0.252179
1935.000000	0.252903
1936.000000	0.253959
1937.000000	0.254673
1938.000000	0.255138
1939.000000	0.255755
1940.000000	0.256344
1941.000000	0.256585
1942.000000	0.257474
1943.000000	0.257962
1944.000000	0.257901
1945.000000	0.258021
1946.000000	0.257295
1947.000000	0.256825
1948.000000	0.256512
1949.000000	0.256002
1950.000000	0.256752
1951.000000	0.257221
1952.000000	0.258089
1953.000000	0.258596
1954.000000	0.259249
1955.000000	0.259047
1956.000000	0.258695
1957.000000	0.258816
1958.000000	0.259063
1959.000000	0.259556
1960.000000	0.259853
1961.000000	0.260209
1962.000000	0.260758
1963.000000	0.261559
1964.000000	0.262020
1965.000000	0.262697
1966.000000	0.263407
1967.000000	0.263853
1968.000000	0.264490
1969.000000	0.264960
1970.000000	0.265276
1971.000000	0.265301
1972.000000	0.264919
1973.000000	0.264952
1974.000000	0.265326
1975.000000	0.265727
1976.000000	0.266259
1977.000000	0.267312
1978.000000	0.267737
1979.000000	0.268060
1980.000000	0.269114
1981.000000	0.269295
1982.000000	0.269681
1983.000000	0.270577
1984.000000	0.270994
1985.000000	0.270746
1986.000000	0.271364
1987.000000	0.272438
1988.000000	0.273370
1989.000000	0.274366
1990.000000	0.275517
1991.000000	0.276063
1992.000000	0.275864
1993.000000	0.275881
1994.000000	0.276141
1995.000000	0.276880
1996.000000	0.277877
1997.000000	0.278531
1998.000000	0.279293
1999.000000	0.280067
2000.000000	0.280642
2001.000000	0.281102
2002.000000	0.281884
2003.000000	0.282518
2004.000000	0.282731
2005.000000	0.283168
2006.000000	0.284035
2007.000000	0.284647
2008.000000	0.285591
2009.000000	0.286997
2010.000000	0.287939
2011.000000	0.288859
2012.000000	0.289696
2013.000000	0.290192
2014.000000	0.290622
2015.000000	0.291298
2016.000000	0.291327
2017.000000	0.291958
2018.000000	0.291957
2019.000000	0.292209
2020.000000	0.292985
2021.000000	0.293983
2022.000000	0.295716
2023.000000	0.296700
2024.000000	0.298145
2025.000000	0.298556
2026.000000	0.297774
2027.000000	0.296826
2028.000000	0.296454
2029.000000	0.296462
2030.000000	0.297385
2031.000000	0.298695
2032.000000	0.300214
2033.000000	0.301143
2034.000000	0.301822
2035.000000	0.302421
2036.000000	0.302710
2037.000000	0.302728
2038.000000	0.302707
2039.000000	0.302482
2040.000000	0.302344
2041.000000	0.302387
2042.000000	0.302653
2043.000000	0.303349
2044.000000	0.304451
2045.000000	0.305354
2046.000000	0.306006
2047.000000	0.306605
2048.000000	0.306990
2049.000000	0.307386
2050.000000	0.307022
2051.000000	0.307538
2052.000000	0.308578
2053.000000	0.309250
2054.000000	0.310526
2055.000000	0.311410
2056.000000	0.312306
2057.000000	0.312268
2058.000000	0.311715
2059.000000	0.311582
2060.000000	0.311654
2061.000000	0.311524
2062.000000	0.311631
2063.000000	0.312418
2064.000000	0.312805
2065.000000	0.313209
2066.000000	0.313300
2067.000000	0.313848
2068.000000	0.313895
2069.000000	0.313257
2070.000000	0.313163
2071.000000	0.313047
2072.000000	0.312885
2073.000000	0.313324
2074.000000	0.313761
2075.000000	0.314266
2076.000000	0.315154
2077.000000	0.315663
2078.000000	0.315968
2079.000000	0.316293
2080.000000	0.316791
2081.000000	0.316920
2082.000000	0.316881
2083.000000	0.316806
2084.000000	0.316052
2085.000000	0.315289
2086.000000	0.315537
2087.000000	0.315927
2088.000000	0.316488
2089.000000	0.317554
2090.000000	0.318083
2091.000000	0.318041
2092.000000	0.318443
2093.000000	0.318888
2094.000000	0.319513
2095.000000	0.320655
2096.000000	0.321350
2097.000000	0.321848
2098.000000	0.322514
2099.000000	0.322383
2100.000000	0.322341
2101.000000	0.322094
2102.000000	0.321010
2103.000000	0.320876
2104.000000	0.321044
2105.000000	0.321406
2106.000000	0.322709
2107.000000	0.323449
2108.000000	0.324110
2109.000000	0.324334
2110.000000	0.323883
2111.000000	0.323832
2112.000000	0.323331
2113.000000	0.323216
2114.000000	0.323613
2115.000000	0.324225
2116.000000	0.324003
2117.000000	0.323422
2118.000000	0.323228
2119.000000	0.322477
2120.000000	0.322812
2121.000000	0.324113
2122.000000	0.325089
2123.000000	0.327056
2124.000000	0.327787
2125.000000	0.327895
2126.000000	0.327882
2127.000000	0.326604
2128.000000	0.326193
2129.000000	0.326047
2130.000000	0.326119
2131.000000	0.325690
2132.000000	0.326633
2133.000000	0.326759
2134.000000	0.327329
2135.000000	0.328830
2136.000000	0.329517
2137.000000	0.329906
2138.000000	0.330423
2139.000000	0.330235
2140.000000	0.328869
2141.000000	0.328201
2142.000000	0.327255
2143.000000	0.326645
2144.000000	0.326638
2145.000000	0.326595
2146.000000	0.326689
2147.000000	0.327361
2148.000000	0.328129
2149.000000	0.329341
2150.000000	0.330030
2151.000000	0.329602
2152.000000	0.328457
2153.000000	0.327341
2154.000000	0.326906
2155.000000	0.326995
2156.000000	0.327078
2157.000000	0.327784
2158.000000	0.327952
2159.000000	0.327679
2160.000000	0.328161
2161.000000	0.329224
2162.000000	0.329787
2163.000000	0.330685
2164.000000	0.330824
2165.000000	0.330646
2166.000000	0.329050
2167.000000	0.327813
2168.000000	0.328164
2169.000000	0.327696
2170.000000	0.328051
2171.000000	0.328025
2172.000000	0.327606
2173.000000	0.327565
2174.000000	0.327947
2175.000000	0.327796
2176.000000	0.327283
2177.000000	0.327522
2178.000000	0.328213
2179.000000	0.328566
2180.000000	0.329729
2181.000000	0.330137
2182.000000	0.328955
2183.000000	0.327764
2184.000000	0.327759
2185.000000	0.327296
2186.000000	0.327348
2187.000000	0.328325
2188.000000	0.329821
2189.000000	0.330082
2190.000000	0.330785
2191.000000	0.332417
2192.000000	0.331932
2193.000000	0.329552
2194.000000	0.328085
2195.000000	0.324795
2196.000000	0.323565
2197.000000	0.323280
2198.000000	0.323504
2199.000000	0.326180
2200.000000	0.327630
2201.000000	0.329804
2202.000000	0.330594
2203.000000	0.330059
2204.000000	0.328062
2205.000000	0.327690
2206.000000	0.328869
2207.000000	0.329124
2208.000000	0.328688
2209.000000	0.327588
2210.000000	0.325767
2211.000000	0.323390
2212.000000	0.323031
2213.000000	0.322740
2214.000000	0.321462
2215.000000	0.321489
2216.000000	0.324635
2217.000000	0.325074
2218.000000	0.324394
2219.000000	0.323596
2220.000000	0.320109
2221.000000	0.319439
2222.000000	0.320793
2223.000000	0.321473
2224.000000	0.322762
2225.000000	0.325328
2226.000000	0.325362
2227.000000	0.323935
2228.000000	0.324760
2229.000000	0.326036
2230.000000	0.326437
2231.000000	0.328926
2232.000000	0.327318
2233.000000	0.323608
2234.000000	0.324348
2235.000000	0.322591
2236.000000	0.322584
2237.000000	0.326046
2238.000000	0.326293
2239.000000	0.324989
2240.000000	0.324041
2241.000000	0.321978
2242.000000	0.320478
2243.000000	0.318323
2244.000000	0.317508
2245.000000	0.317500
2246.000000	0.317846
2247.000000	0.319204
2248.000000	0.319993
2249.000000	0.321839
2250.000000	0.321299
2251.000000	0.320365
2252.000000	0.320930
2253.000000	0.319130
2254.000000	0.317790
2255.000000	0.317860
2256.000000	0.318661
2257.000000	0.321168
2258.000000	0.323971
2259.000000	0.325455
2260.000000	0.325801
2261.000000	0.325584
2262.000000	0.324998
2263.000000	0.323292
2264.000000	0.319231
2265.000000	0.317320
2266.000000	0.314696
2267.000000	0.312986
2268.000000	0.313427
2269.000000	0.314109
2270.000000	0.315758
2271.000000	0.316278
2272.000000	0.317173
2273.000000	0.316757
2274.000000	0.314172
2275.000000	0.311882
2276.000000	0.308468
2277.000000	0.307617
2278.000000	0.305869
2279.000000	0.307295
2280.000000	0.309940
2281.000000	0.307625
2282.000000	0.304131
2283.000000	0.299489
2284.000000	0.296134
2285.000000	0.295644
2286.000000	0.295431
2287.000000	0.297063
2288.000000	0.296300
2289.000000	0.294284
2290.000000	0.294293
2291.000000	0.293658
2292.000000	0.293140
2293.000000	0.292332
2294.000000	0.292142
2295.000000	0.292477
2296.000000	0.291704
2297.000000	0.291135
2298.000000	0.290609
2299.000000	0.288790
2300.000000	0.287191
2301.000000	0.286150
2302.000000	0.283981
2303.000000	0.280830
2304.000000	0.278798
2305.000000	0.276894
2306.000000	0.275229
2307.000000	0.273984
2308.000000	0.272652
2309.000000	0.270674
2310.000000	0.270768
2311.000000	0.272518
2312.000000	0.271362
2313.000000	0.272480
2314.000000	0.273875
2315.000000	0.272235
2316.000000	0.272010
2317.000000	0.271088
2318.000000	0.267963
2319.000000	0.266732
2320.000000	0.267845
2321.000000	0.268155
2322.000000	0.268809
2323.000000	0.270616
2324.000000	0.272711
2325.000000	0.274873
2326.000000	0.277123
2327.000000	0.278670
2328.000000	0.279132
2329.000000	0.280587
2330.000000	0.280435
2331.000000	0.281168
2332.000000	0.284506
2333.000000	0.285454
2334.000000	0.287587
2335.000000	0.288332
2336.000000	0.285491
2337.000000	0.285668
2338.000000	0.286526
2339.000000	0.287601
2340.000000	0.291947
2341.000000	0.292462
2342.000000	0.290658
2343.000000	0.289677
2344.000000	0.286211
2345.000000	0.285382
2346.000000	0.286637
2347.000000	0.287441
2348.000000	0.289132
2349.000000	0.290320
2350.000000	0.291895
2351.000000	0.292259
2352.000000	0.291582
2353.000000	0.293286
2354.000000	0.291320
2355.000000	0.287696
2356.000000	0.285435
2357.000000	0.278984
2358.000000	0.275828
2359.000000	0.276052
2360.000000	0.275245
2361.000000	0.279516
2362.000000	0.281051
2363.000000	0.277885
2364.000000	0.277209
2365.000000	0.273846
2366.000000	0.270847
2367.000000	0.272757
2368.000000	0.272824
2369.000000	0.271724
2370.000000	0.273183
2371.000000	0.272701
2372.000000	0.271608
2373.000000	0.273749
2374.000000	0.272512
2375.000000	0.273691
2376.000000	0.277482
2377.000000	0.277023
2378.000000	0.277097
2379.000000	0.272518
2380.000000	0.266937
2381.000000	0.261598
2382.000000	0.256349
2383.000000	0.258146
2384.000000	0.256547
2385.000000	0.255380
2386.000000	0.256638
2387.000000	0.252641
2388.000000	0.251024
2389.000000	0.251299
2390.000000	0.250399
2391.000000	0.249669
2392.000000	0.250913
2393.000000	0.251197
2394.000000	0.251119
2395.000000	0.253613
2396.000000	0.248545
2397.000000	0.244394
2398.000000	0.243951
2399.000000	0.238223
2400.000000	0.241121
2401.000000	0.244166
2402.000000	0.243366
2403.000000	0.245652
2404.000000	0.241220
2405.000000	0.241992
2406.000000	0.248880
2407.000000	0.250915
2408.000000	0.259142
2409.000000	0.268184
2410.000000	0.268369
2411.000000	0.267368
2412.000000	0.268401
2413.000000	0.265880
2414.000000	0.258009
2415.000000	0.253750
2416.000000	0.252757
2417.000000	0.254087
2418.000000	0.256808
2419.000000	0.256960
2420.000000	0.255230
2421.000000	0.245598
2422.000000	0.238635
2423.000000	0.240987
2424.000000	0.240887
2425.000000	0.244587
2426.000000	0.245194
2427.000000	0.237849
2428.000000	0.233036
2429.000000	0.229013
2430.000000	0.227398
2431.000000	0.223268
2432.000000	0.225613
2433.000000	0.233950
2434.000000	0.233548
2435.000000	0.234858
2436.000000	0.232834
2437.000000	0.219706
2438.000000	0.211665
2439.000000	0.211842
2440.000000	0.215530
2441.000000	0.225464
2442.000000	0.233404
2443.000000	0.235318
2444.000000	0.231204
2445.000000	0.229751
2446.000000	0.234855
2447.000000	0.235561
2448.000000	0.244081
2449.000000	0.258511
2450.000000	0.265290
2451.000000	0.275652
2452.000000	0.278109
2453.000000	0.271722
2454.000000	0.265889
2455.000000	0.239964
2456.000000	0.217433
2457.000000	0.204338
2458.000000	0.192144
2459.000000	0.195519
2460.000000	0.193595
2461.000000	0.187009
2462.000000	0.176687
2463.000000	0.166494
2464.000000	0.176674
2465.000000	0.202449
2466.000000	0.222329
2467.000000	0.236807
2468.000000	0.245243
2469.000000	0.241944
2470.000000	0.230469
2471.000000	0.227644
2472.000000	0.234388
2473.000000	0.216734
2474.000000	0.213201
2475.000000	0.202788
2476.000000	0.181092
2477.000000	0.178117
2478.000000	0.165493
2479.000000	0.164333
2480.000000	0.179517
2481.000000	0.221175
2482.000000	0.250976
2483.000000	0.261416
2484.000000	0.282563
2485.000000	0.275901
2486.000000	0.263887
2487.000000	0.224477
2488.000000	0.215604
2489.000000	0.217409
2490.000000	0.176006
2491.000000	0.216543
2492.000000	0.203967
2493.000000	0.144446
2494.000000	0.136662
2495.000000	0.123937
2496.000000	0.130518
2497.000000	0.206695
2498.000000	0.229383
2499.000000	0.234754
2500.000000	0.240310
